title:david_g_Left, start timestamp:1649887007.438793, stop timestamp:1649887012.398312, headset type:INSIGHT, headset serial:A2D201AE, headset firmware:932, channels:84, sampling rate:eeg_128;pm_0.1;pow_8, samples:639       , version:2.1, 
Timestamp,EEG.Counter,EEG.Interpolated,EEG.AF3,EEG.T7,EEG.Pz,EEG.T8,EEG.AF4,EEG.RawCq,EEG.Battery,EEG.BatteryPercent,MarkerIndex,MarkerType,MarkerValueInt,EEG.MarkerHardware,CQ.AF3,CQ.T7,CQ.Pz,CQ.T8,CQ.AF4,CQ.Overall,EQ.SampleRateQuality,EQ.OVERALL,EQ.AF3,EQ.T7,EQ.Pz,EQ.T8,EQ.AF4,PM.Engagement.IsActive,PM.Engagement.Scaled,PM.Engagement.Raw,PM.Engagement.Min,PM.Engagement.Max,PM.Excitement.IsActive,PM.Excitement.Scaled,PM.Excitement.Raw,PM.Excitement.Min,PM.Excitement.Max,PM.LongTermExcitement,PM.Stress.IsActive,PM.Stress.Scaled,PM.Stress.Raw,PM.Stress.Min,PM.Stress.Max,PM.Relaxation.IsActive,PM.Relaxation.Scaled,PM.Relaxation.Raw,PM.Relaxation.Min,PM.Relaxation.Max,PM.Interest.IsActive,PM.Interest.Scaled,PM.Interest.Raw,PM.Interest.Min,PM.Interest.Max,PM.Focus.IsActive,PM.Focus.Scaled,PM.Focus.Raw,PM.Focus.Min,PM.Focus.Max,POW.AF3.Theta,POW.AF3.Alpha,POW.AF3.BetaL,POW.AF3.BetaH,POW.AF3.Gamma,POW.T7.Theta,POW.T7.Alpha,POW.T7.BetaL,POW.T7.BetaH,POW.T7.Gamma,POW.Pz.Theta,POW.Pz.Alpha,POW.Pz.BetaL,POW.Pz.BetaH,POW.Pz.Gamma,POW.T8.Theta,POW.T8.Alpha,POW.T8.BetaL,POW.T8.BetaH,POW.T8.Gamma,POW.AF4.Theta,POW.AF4.Alpha,POW.AF4.BetaL,POW.AF4.BetaH,POW.AF4.Gamma
1649887007.438793,21.000000,0.000000,4258.461426,4229.743652,4162.563965,4216.410156,4223.077148,0.000000,4.000000,86.000000,,,,0.000000,4.000000,4.000000,4.000000,0.000000,4.000000,66.666664,,,,,,,,,,,,,,,,,,,,,,,,,,,,,,,,,,,,,,,3.080316,4.262650,0.764661,0.983697,1.260564,0.791048,1.112908,0.816178,0.450118,0.559350,3.147160,4.467050,1.772051,1.356768,0.414336,0.077910,0.037142,0.032589,0.041064,0.031248,4.891400,2.622656,0.416026,0.650349,0.618492
1649887007.446508,22.000000,0.000000,4253.333496,4232.307617,4164.102539,4216.922852,4218.974121,0.000000,4.000000,86.000000,,,,0.000000,4.000000,4.000000,4.000000,0.000000,4.000000,66.666664,,,,,,,,,,,,,,,,,,,,,,,,,,,,,,,,,,,,,,,,,,,,,,,,,,,,,,,,,,,,,,,
1649887007.454322,23.000000,0.000000,4255.384766,4239.487305,4163.077148,4218.461426,4213.846191,0.000000,4.000000,86.000000,,,,0.000000,4.000000,4.000000,4.000000,0.000000,4.000000,66.666664,,,,,,,,,,,,,,,,,,,,,,,,,,,,,,,,,,,,,,,,,,,,,,,,,,,,,,,,,,,,,,,
1649887007.462137,24.000000,0.000000,4267.179688,4238.461426,4164.102539,4217.948730,4226.666504,0.000000,4.000000,86.000000,,,,0.000000,4.000000,4.000000,4.000000,0.000000,4.000000,66.666664,,,,,,,,,,,,,,,,,,,,,,,,,,,,,,,,,,,,,,,,,,,,,,,,,,,,,,,,,,,,,,,
1649887007.469851,25.000000,0.000000,4265.641113,4239.487305,4169.743652,4217.948730,4236.922852,0.000000,4.000000,86.000000,,,,0.000000,4.000000,4.000000,4.000000,0.000000,4.000000,66.666664,,,,,,,,,,,,,,,,,,,,,,,,,,,,,,,,,,,,,,,,,,,,,,,,,,,,,,,,,,,,,,,
1649887007.477666,26.000000,0.000000,4252.307617,4239.487305,4169.743652,4217.948730,4223.077148,0.000000,4.000000,86.000000,,,,0.000000,4.000000,4.000000,4.000000,0.000000,4.000000,66.666664,,,,,,,,,,,,,,,,,,,,,,,,,,,,,,,,,,,,,,,,,,,,,,,,,,,,,,,,,,,,,,,
1649887007.485380,27.000000,0.000000,4249.743652,4233.333496,4161.025879,4216.410156,4211.282227,0.000000,4.000000,86.000000,,,,0.000000,4.000000,4.000000,4.000000,0.000000,4.000000,66.666664,,,,,,,,,,,,,,,,,,,,,,,,,,,,,,,,,,,,,,,,,,,,,,,,,,,,,,,,,,,,,,,
1649887007.493195,28.000000,0.000000,4254.358887,4233.846191,4154.871582,4215.897461,4218.461426,0.000000,4.000000,86.000000,,,,0.000000,4.000000,4.000000,4.000000,0.000000,4.000000,66.666664,,,,,,,,,,,,,,,,,,,,,,,,,,,,,,,,,,,,,,,,,,,,,,,,,,,,,,,,,,,,,,,
1649887007.500909,29.000000,0.000000,4253.846191,4244.102539,4159.487305,4216.922852,4226.666504,0.000000,4.000000,86.000000,,,,0.000000,4.000000,4.000000,4.000000,0.000000,4.000000,66.666664,,,,,,,,,,,,,,,,,,,,,,,,,,,,,,,,,,,,,,,,,,,,,,,,,,,,,,,,,,,,,,,
1649887007.508724,30.000000,0.000000,4253.846191,4245.641113,4169.230957,4217.436035,4227.179688,0.000000,4.000000,86.000000,,,,0.000000,4.000000,4.000000,4.000000,0.000000,4.000000,66.666664,,,,,,,,,,,,,,,,,,,,,,,,,,,,,,,,,,,,,,,,,,,,,,,,,,,,,,,,,,,,,,,
1649887007.516438,31.000000,0.000000,4258.974121,4233.846191,4173.846191,4218.461426,4228.205078,0.000000,4.000000,86.000000,,,,0.000000,4.000000,4.000000,4.000000,0.000000,4.000000,66.666664,,,,,,,,,,,,,,,,,,,,,,,,,,,,,,,,,,,,,,,,,,,,,,,,,,,,,,,,,,,,,,,
1649887007.524252,32.000000,0.000000,4265.128418,4238.974121,4181.025879,4218.461426,4234.871582,0.000000,4.000000,86.000000,,,,0.000000,4.000000,4.000000,4.000000,0.000000,4.000000,66.666664,,,,,,,,,,,,,,,,,,,,,,,,,,,,,,,,,,,,,,,,,,,,,,,,,,,,,,,,,,,,,,,
1649887007.531967,33.000000,0.000000,4270.256348,4257.948730,4186.153809,4218.461426,4240.000000,0.000000,4.000000,86.000000,,,,0.000000,4.000000,4.000000,4.000000,0.000000,4.000000,66.666664,,,,,,,,,,,,,,,,,,,,,,,,,,,,,,,,,,,,,,,,,,,,,,,,,,,,,,,,,,,,,,,
1649887007.539681,34.000000,0.000000,4273.846191,4255.384766,4181.025879,4218.461426,4236.410156,0.000000,4.000000,86.000000,,,,0.000000,4.000000,4.000000,4.000000,0.000000,4.000000,66.666664,,,,,,,,,,,,,,,,,,,,,,,,,,,,,,,,,,,,,,,,,,,,,,,,,,,,,,,,,,,,,,,
1649887007.547496,35.000000,0.000000,4262.051270,4237.436035,4180.000000,4218.461426,4230.769043,0.000000,4.000000,86.000000,,,,0.000000,4.000000,4.000000,4.000000,0.000000,4.000000,66.666664,,,,,,,,,,,,,,,,,,,,,,,,,,,,,,,,,,,,,,,,,,,,,,,,,,,,,,,,,,,,,,,
1649887007.555210,36.000000,0.000000,4243.077148,4241.025879,4188.205078,4218.461426,4222.051270,0.000000,4.000000,86.000000,,,,0.000000,4.000000,4.000000,4.000000,0.000000,4.000000,66.666664,,,,,,,,,,,,,,,,,,,,,,,,,,,,,,,,,,,,,,,,,,,,,,,,,,,,,,,,,,,,,,,
1649887007.562925,37.000000,0.000000,4258.461426,4253.846191,4191.282227,4218.461426,4222.051270,0.000000,4.000000,86.000000,,,,0.000000,4.000000,4.000000,4.000000,0.000000,4.000000,66.666664,,,,,,,,,,,,,,,,,,,,,,,,,,,,,,,,,,,,,,,3.486603,4.375296,0.883980,1.133368,1.341605,0.958157,1.020543,0.803095,0.508119,0.517378,3.561924,4.168891,1.492128,1.279764,0.426377,0.064267,0.028814,0.024119,0.029651,0.022943,5.572342,2.740717,0.592407,0.661150,0.618459
1649887007.570739,38.000000,0.000000,4286.666504,4244.615234,4184.102539,4218.461426,4238.461426,0.000000,4.000000,86.000000,,,,0.000000,4.000000,4.000000,4.000000,0.000000,4.000000,66.666664,,,,,,,,,,,,,,,,,,,,,,,,,,,,,,,,,,,,,,,,,,,,,,,,,,,,,,,,,,,,,,,
1649887007.578554,39.000000,0.000000,4274.358887,4232.307617,4178.461426,4218.974121,4250.256348,0.000000,4.000000,86.000000,,,,0.000000,4.000000,4.000000,4.000000,0.000000,4.000000,66.666664,,,,,,,,,,,,,,,,,,,,,,,,,,,,,,,,,,,,,,,,,,,,,,,,,,,,,,,,,,,,,,,
1649887007.586268,40.000000,0.000000,4255.384766,4244.102539,4180.512695,4219.487305,4248.205078,0.000000,4.000000,86.000000,,,,0.000000,4.000000,4.000000,4.000000,0.000000,4.000000,66.666664,,,,,,,,,,,,,,,,,,,,,,,,,,,,,,,,,,,,,,,,,,,,,,,,,,,,,,,,,,,,,,,
1649887007.594083,41.000000,0.000000,4266.666504,4256.922852,4181.538574,4219.487305,4240.000000,0.000000,4.000000,86.000000,,,,0.000000,4.000000,4.000000,4.000000,0.000000,4.000000,66.666664,,,,,,,,,,,,,,,,,,,,,,,,,,,,,,,,,,,,,,,,,,,,,,,,,,,,,,,,,,,,,,,
1649887007.601797,42.000000,0.000000,4262.563965,4237.948730,4174.358887,4217.948730,4225.641113,0.000000,4.000000,86.000000,,,,0.000000,4.000000,4.000000,4.000000,0.000000,4.000000,66.666664,,,,,,,,,,,,,,,,,,,,,,,,,,,,,,,,,,,,,,,,,,,,,,,,,,,,,,,,,,,,,,,
1649887007.609612,43.000000,0.000000,4244.102539,4221.538574,4172.307617,4217.436035,4220.000000,0.000000,4.000000,86.000000,,,,0.000000,4.000000,4.000000,4.000000,0.000000,4.000000,66.666664,,,,,,,,,,,,,,,,,,,,,,,,,,,,,,,,,,,,,,,,,,,,,,,,,,,,,,,,,,,,,,,
1649887007.617326,44.000000,0.000000,4248.717773,4238.461426,4176.922852,4219.487305,4233.333496,0.000000,4.000000,86.000000,,,,0.000000,4.000000,4.000000,4.000000,0.000000,4.000000,66.666664,,,,,,,,,,,,,,,,,,,,,,,,,,,,,,,,,,,,,,,,,,,,,,,,,,,,,,,,,,,,,,,
1649887007.625041,45.000000,0.000000,4253.333496,4249.230957,4172.820313,4220.000000,4239.487305,0.000000,4.000000,86.000000,,,,0.000000,4.000000,4.000000,4.000000,0.000000,4.000000,66.666664,,,,,,,,,,,,,,,,,,,,,,,,,,,,,,,,,,,,,,,,,,,,,,,,,,,,,,,,,,,,,,,
1649887007.632855,46.000000,0.000000,4252.307617,4233.333496,4168.717773,4217.948730,4226.666504,0.000000,4.000000,86.000000,,,,0.000000,4.000000,4.000000,4.000000,0.000000,4.000000,66.666664,,,,,,,,,,,,,,,,,,,,,,,,,,,,,,,,,,,,,,,,,,,,,,,,,,,,,,,,,,,,,,,
1649887007.640669,47.000000,0.000000,4255.384766,4223.077148,4175.897461,4216.922852,4215.897461,0.000000,4.000000,86.000000,,,,0.000000,4.000000,4.000000,4.000000,0.000000,4.000000,66.666664,,,,,,,,,,,,,,,,,,,,,,,,,,,,,,,,,,,,,,,,,,,,,,,,,,,,,,,,,,,,,,,
1649887007.648384,48.000000,0.000000,4243.589844,4229.230957,4177.948730,4218.461426,4209.230957,0.000000,4.000000,86.000000,,,,0.000000,4.000000,4.000000,4.000000,0.000000,4.000000,66.666664,,,,,,,,,,,,,,,,,,,,,,,,,,,,,,,,,,,,,,,,,,,,,,,,,,,,,,,,,,,,,,,
1649887007.656198,49.000000,0.000000,4238.461426,4236.410156,4171.794922,4219.487305,4212.307617,0.000000,4.000000,86.000000,,,,0.000000,4.000000,4.000000,4.000000,0.000000,4.000000,66.666664,,,,,,,,,,,,,,,,,,,,,,,,,,,,,,,,,,,,,,,,,,,,,,,,,,,,,,,,,,,,,,,
1649887007.663913,50.000000,0.000000,4262.563965,4240.000000,4172.820313,4218.461426,4227.692383,0.000000,4.000000,86.000000,,,,0.000000,4.000000,4.000000,4.000000,0.000000,4.000000,66.666664,,,,,,,,,,,,,,,,,,,,,,,,,,,,,,,,,,,,,,,,,,,,,,,,,,,,,,,,,,,,,,,
1649887007.671627,51.000000,0.000000,4270.256348,4236.410156,4166.666504,4217.948730,4227.692383,0.000000,4.000000,86.000000,,,,0.000000,4.000000,4.000000,4.000000,0.000000,4.000000,66.666664,,,,,,,,,,,,,,,,,,,,,,,,,,,,,,,,,,,,,,,,,,,,,,,,,,,,,,,,,,,,,,,
1649887007.679442,52.000000,0.000000,4244.102539,4223.077148,4146.666504,4216.410156,4209.230957,0.000000,4.000000,86.000000,,,,0.000000,4.000000,4.000000,4.000000,0.000000,4.000000,66.666664,,,,,,,,,,,,,,,,,,,,,,,,,,,,,,,,,,,,,,,,,,,,,,,,,,,,,,,,,,,,,,,
1649887007.687256,53.000000,0.000000,4241.538574,4217.948730,4143.077148,4215.897461,4212.307617,0.000000,4.000000,86.000000,,,,0.000000,4.000000,4.000000,4.000000,0.000000,4.000000,66.666664,,,,,,,,,,,,,,,,,,,,,,,,,,,,,,,,,,,,,,,3.524122,4.347192,1.136959,1.267711,1.343427,1.096708,0.923009,0.847194,0.596389,0.481460,3.751125,3.687652,1.204233,1.122795,0.414963,0.047528,0.020871,0.016729,0.019481,0.016225,5.776299,2.911810,0.906125,0.680073,0.583738
1649887007.694971,54.000000,0.000000,4267.179688,4224.102539,4161.538574,4217.436035,4235.384766,0.000000,4.000000,86.000000,,,,0.000000,4.000000,4.000000,4.000000,0.000000,4.000000,66.666664,,,,,,,,,,,,,,,,,,,,,,,,,,,,,,,,,,,,,,,,,,,,,,,,,,,,,,,,,,,,,,,
1649887007.702685,55.000000,0.000000,4267.692383,4225.641113,4168.205078,4217.948730,4238.461426,0.000000,4.000000,86.000000,,,,0.000000,4.000000,4.000000,4.000000,0.000000,4.000000,66.666664,,,,,,,,,,,,,,,,,,,,,,,,,,,,,,,,,,,,,,,,,,,,,,,,,,,,,,,,,,,,,,,
1649887007.710500,56.000000,0.000000,4248.205078,4227.692383,4157.436035,4216.410156,4228.205078,0.000000,4.000000,86.000000,,,,0.000000,4.000000,4.000000,4.000000,0.000000,4.000000,66.666664,,,,,,,,,,,,,,,,,,,,,,,,,,,,,,,,,,,,,,,,,,,,,,,,,,,,,,,,,,,,,,,
1649887007.718214,57.000000,0.000000,4263.077148,4241.538574,4161.538574,4216.410156,4233.333496,0.000000,4.000000,86.000000,,,,0.000000,4.000000,4.000000,4.000000,0.000000,4.000000,66.666664,,,,,,,,,,,,,,,,,,,,,,,,,,,,,,,,,,,,,,,,,,,,,,,,,,,,,,,,,,,,,,,
1649887007.725929,58.000000,0.000000,4285.641113,4255.384766,4178.461426,4218.974121,4240.512695,0.000000,4.000000,86.000000,,,,0.000000,4.000000,4.000000,4.000000,0.000000,4.000000,66.666664,,,,,,,,,,,,,,,,,,,,,,,,,,,,,,,,,,,,,,,,,,,,,,,,,,,,,,,,,,,,,,,
1649887007.733743,59.000000,0.000000,4257.436035,4244.615234,4172.307617,4218.974121,4227.692383,0.000000,4.000000,86.000000,,,,0.000000,4.000000,4.000000,4.000000,0.000000,4.000000,66.666664,,,,,,,,,,,,,,,,,,,,,,,,,,,,,,,,,,,,,,,,,,,,,,,,,,,,,,,,,,,,,,,
1649887007.741557,60.000000,0.000000,4220.000000,4226.666504,4157.948730,4216.922852,4207.179688,0.000000,4.000000,86.000000,,,,0.000000,4.000000,4.000000,4.000000,0.000000,4.000000,66.666664,,,,,,,,,,,,,,,,,,,,,,,,,,,,,,,,,,,,,,,,,,,,,,,,,,,,,,,,,,,,,,,
1649887007.749272,61.000000,0.000000,4233.846191,4235.897461,4163.589844,4215.384766,4208.717773,0.000000,4.000000,86.000000,,,,0.000000,4.000000,4.000000,4.000000,0.000000,4.000000,66.666664,,,,,,,,,,,,,,,,,,,,,,,,,,,,,,,,,,,,,,,,,,,,,,,,,,,,,,,,,,,,,,,
1649887007.757086,62.000000,0.000000,4265.641113,4242.051270,4178.974121,4217.948730,4227.692383,0.000000,4.000000,86.000000,,,,0.000000,4.000000,4.000000,4.000000,0.000000,4.000000,66.666664,,,,,,,,,,,,,,,,,,,,,,,,,,,,,,,,,,,,,,,,,,,,,,,,,,,,,,,,,,,,,,,
1649887007.764801,63.000000,0.000000,4270.769043,4231.794922,4187.179688,4220.000000,4236.922852,0.000000,4.000000,86.000000,,,,0.000000,4.000000,4.000000,4.000000,0.000000,4.000000,66.666664,,,,,,,,,,,,,,,,,,,,,,,,,,,,,,,,,,,,,,,,,,,,,,,,,,,,,,,,,,,,,,,
1649887007.772515,64.000000,0.000000,4258.974121,4240.000000,4187.692383,4217.948730,4231.282227,450.000000,4.000000,86.000000,,,,0.000000,4.000000,4.000000,4.000000,0.000000,4.000000,66.666664,,,,,,,,,,,,,,,,,,,,,,,,,,,,,,,,,,,,,,,,,,,,,,,,,,,,,,,,,,,,,,,
1649887007.780230,65.000000,0.000000,4248.717773,4253.846191,4186.666504,4216.922852,4221.025879,450.000000,4.000000,86.000000,,,,0.000000,4.000000,4.000000,4.000000,0.000000,4.000000,66.666664,,,,,,,,,,,,,,,,,,,,,,,,,,,,,,,,,,,,,,,,,,,,,,,,,,,,,,,,,,,,,,,
1649887007.788044,66.000000,0.000000,4250.769043,4241.538574,4189.743652,4218.461426,4219.487305,16220.000000,4.000000,86.000000,,,,0.000000,4.000000,4.000000,4.000000,0.000000,4.000000,66.666664,,,,,,,,,,,,,,,,,,,,,,,,,,,,,,,,,,,,,,,,,,,,,,,,,,,,,,,,,,,,,,,
1649887007.795759,67.000000,0.000000,4256.410156,4231.282227,4188.717773,4218.461426,4232.307617,450.000000,4.000000,86.000000,,,,0.000000,4.000000,4.000000,4.000000,0.000000,4.000000,66.666664,,,,,,,,,,,,,,,,,,,,,,,,,,,,,,,,,,,,,,,,,,,,,,,,,,,,,,,,,,,,,,,
1649887007.803573,68.000000,0.000000,4249.230957,4235.384766,4175.897461,4217.436035,4239.487305,16197.000000,4.000000,86.000000,,,,0.000000,4.000000,4.000000,4.000000,0.000000,4.000000,66.666664,,,,,,,,,,,,,,,,,,,,,,,,,,,,,,,,,,,,,,,,,,,,,,,,,,,,,,,,,,,,,,,
1649887007.811288,69.000000,0.000000,4244.615234,4224.615234,4161.025879,4217.948730,4227.692383,450.000000,4.000000,86.000000,,,,0.000000,4.000000,4.000000,4.000000,0.000000,4.000000,66.666664,0.972656,66.666664,4.000000,4.000000,4.000000,0.000000,4.000000,,,,,,,,,,,,,,,,,,,,,,,,,,,,,,,,3.179398,4.248550,1.472962,1.353337,1.268814,1.156972,0.883101,0.915560,0.681914,0.462942,3.698504,3.159979,0.966175,0.921928,0.383778,0.031929,0.014200,0.010832,0.011999,0.011631,5.426011,3.120069,1.318873,0.707641,0.529850
1649887007.819102,70.000000,0.000000,4245.641113,4210.769043,4153.333496,4218.461426,4223.077148,16176.000000,4.000000,86.000000,,,,0.000000,4.000000,4.000000,4.000000,0.000000,4.000000,66.666664,,,,,,,,,,,,,,,,,,,,,,,,,,,,,,,,,,,,,,,,,,,,,,,,,,,,,,,,,,,,,,,
1649887007.826817,71.000000,0.000000,4243.077148,4221.025879,4155.897461,4217.948730,4235.897461,450.000000,4.000000,86.000000,,,,0.000000,4.000000,4.000000,4.000000,0.000000,4.000000,66.666664,,,,,,,,,,,,,,,,,,,,,,,,,,,,,,,,,,,,,,,,,,,,,,,,,,,,,,,,,,,,,,,
1649887007.834531,72.000000,0.000000,4251.282227,4237.436035,4162.563965,4218.461426,4241.025879,450.000000,4.000000,86.000000,,,,0.000000,4.000000,4.000000,4.000000,0.000000,4.000000,66.666664,,,,,,,,,,,,,,,,,,,,,,,,,,,,,,,,,,,,,,,,,,,,,,,,,,,,,,,,,,,,,,,
1649887007.842346,73.000000,0.000000,4258.461426,4234.871582,4160.512695,4218.461426,4227.692383,0.000000,4.000000,86.000000,,,,0.000000,4.000000,4.000000,4.000000,0.000000,4.000000,66.666664,,,,,,,,,,,,,,,,,,,,,,,,,,,,,,,,,,,,,,,,,,,,,,,,,,,,,,,,,,,,,,,
1649887007.850160,74.000000,0.000000,4242.563965,4223.077148,4157.948730,4216.922852,4212.307617,450.000000,4.000000,86.000000,,,,0.000000,4.000000,4.000000,4.000000,0.000000,4.000000,66.666664,,,,,,,,,,,,,,,,,,,,,,,,,,,,,,,,,,,,,,,,,,,,,,,,,,,,,,,,,,,,,,,
1649887007.857874,75.000000,0.000000,4233.333496,4223.077148,4160.512695,4215.897461,4208.205078,16217.000000,4.000000,86.000000,,,,0.000000,4.000000,4.000000,4.000000,0.000000,4.000000,66.666664,,,,,,,,,,,,,,,,,,,,,,,,,,,,,,,,,,,,,,,,,,,,,,,,,,,,,,,,,,,,,,,
1649887007.865589,76.000000,0.000000,4235.897461,4226.666504,4161.025879,4215.897461,4213.846191,450.000000,4.000000,86.000000,,,,0.000000,4.000000,4.000000,4.000000,0.000000,4.000000,66.666664,,,,,,,,,,,,,,,,,,,,,,,,,,,,,,,,,,,,,,,,,,,,,,,,,,,,,,,,,,,,,,,
1649887007.873403,77.000000,0.000000,4230.256348,4224.102539,4158.461426,4217.948730,4225.128418,450.000000,4.000000,86.000000,,,,0.000000,4.000000,4.000000,4.000000,0.000000,4.000000,66.666664,,,,,,,,,,,,,,,,,,,,,,,,,,,,,,,,,,,,,,,,,,,,,,,,,,,,,,,,,,,,,,,
1649887007.881118,78.000000,0.000000,4242.563965,4221.538574,4161.538574,4218.974121,4232.307617,450.000000,4.000000,86.000000,,,,0.000000,4.000000,4.000000,4.000000,0.000000,4.000000,66.666664,,,,,,,,,,,,,,,,,,,,,,,,,,,,,,,,,,,,,,,,,,,,,,,,,,,,,,,,,,,,,,,
1649887007.888932,79.000000,0.000000,4266.666504,4222.051270,4166.666504,4218.461426,4235.897461,16217.000000,4.000000,86.000000,,,,0.000000,4.000000,4.000000,4.000000,0.000000,4.000000,66.666664,,,,,,,,,,,,,,,,,,,,,,,,,,,,,,,,,,,,,,,,,,,,,,,,,,,,,,,,,,,,,,,
1649887007.896647,80.000000,0.000000,4254.871582,4225.128418,4167.692383,4217.436035,4236.922852,450.000000,4.000000,86.000000,,,,0.000000,4.000000,4.000000,4.000000,0.000000,4.000000,66.666664,,,,,,,,,,,,,,,,,,,,,,,,,,,,,,,,,,,,,,,,,,,,,,,,,,,,,,,,,,,,,,,
1649887007.904461,81.000000,0.000000,4232.307617,4232.820313,4167.692383,4217.948730,4225.128418,450.000000,4.000000,86.000000,,,,0.000000,4.000000,4.000000,4.000000,0.000000,4.000000,66.666664,,,,,,,,,,,,,,,,,,,,,,,,,,,,,,,,,,,,,,,,,,,,,,,,,,,,,,,,,,,,,,,
1649887007.912176,82.000000,0.000000,4234.871582,4230.256348,4166.153809,4217.948730,4208.205078,450.000000,4.000000,86.000000,,,,0.000000,4.000000,4.000000,4.000000,0.000000,4.000000,66.666664,,,,,,,,,,,,,,,,,,,,,,,,,,,,,,,,,,,,,,,,,,,,,,,,,,,,,,,,,,,,,,,
1649887007.919990,83.000000,0.000000,4238.974121,4214.871582,4161.538574,4216.410156,4203.589844,16217.000000,4.000000,86.000000,,,,0.000000,4.000000,4.000000,4.000000,0.000000,4.000000,66.666664,,,,,,,,,,,,,,,,,,,,,,,,,,,,,,,,,,,,,,,,,,,,,,,,,,,,,,,,,,,,,,,
1649887007.927705,84.000000,0.000000,4229.743652,4222.051270,4153.333496,4216.410156,4206.666504,450.000000,4.000000,86.000000,,,,0.000000,4.000000,4.000000,4.000000,0.000000,4.000000,66.666664,,,,,,,,,,,,,,,,,,,,,,,,,,,,,,,,,,,,,,,,,,,,,,,,,,,,,,,,,,,,,,,
1649887007.935519,85.000000,0.000000,4227.179688,4239.487305,4148.717773,4217.436035,4209.743652,450.000000,4.000000,86.000000,,,,0.000000,4.000000,4.000000,4.000000,0.000000,4.000000,66.666664,,,,,,,,,,,,,,,,,,,,,,,,,,,,,,,,,,,,,,,2.580783,4.106785,1.792323,1.371554,1.150528,1.128292,0.916880,0.964927,0.737552,0.470984,3.463083,2.719698,0.804725,0.719407,0.343376,0.020188,0.009386,0.007024,0.007618,0.009202,4.635592,3.293243,1.742493,0.737128,0.476244
1649887007.943234,86.000000,0.000000,4247.692383,4233.846191,4149.230957,4217.948730,4222.051270,450.000000,4.000000,86.000000,,,,0.000000,4.000000,4.000000,4.000000,0.000000,4.000000,66.666664,,,,,,,,,,,,,,,,,,,,,,,,,,,,,,,,,,,,,,,,,,,,,,,,,,,,,,,,,,,,,,,
1649887007.951048,87.000000,0.000000,4257.436035,4229.230957,4154.871582,4218.461426,4230.256348,16217.000000,4.000000,86.000000,,,,0.000000,4.000000,4.000000,4.000000,0.000000,4.000000,66.666664,,,,,,,,,,,,,,,,,,,,,,,,,,,,,,,,,,,,,,,,,,,,,,,,,,,,,,,,,,,,,,,
1649887007.958762,88.000000,0.000000,4241.538574,4243.077148,4164.102539,4217.948730,4226.153809,450.000000,4.000000,86.000000,,,,0.000000,4.000000,4.000000,4.000000,0.000000,4.000000,66.666664,,,,,,,,,,,,,,,,,,,,,,,,,,,,,,,,,,,,,,,,,,,,,,,,,,,,,,,,,,,,,,,
1649887007.966577,89.000000,0.000000,4239.487305,4241.538574,4169.230957,4217.436035,4228.205078,450.000000,4.000000,86.000000,,,,0.000000,4.000000,4.000000,4.000000,0.000000,4.000000,66.666664,,,,,,,,,,,,,,,,,,,,,,,,,,,,,,,,,,,,,,,,,,,,,,,,,,,,,,,,,,,,,,,
1649887007.974291,90.000000,0.000000,4252.820313,4229.743652,4171.282227,4217.948730,4228.205078,450.000000,4.000000,86.000000,,,,0.000000,4.000000,4.000000,4.000000,0.000000,4.000000,66.666664,,,,,,,,,,,,,,,,,,,,,,,,,,,,,,,,,,,,,,,,,,,,,,,,,,,,,,,,,,,,,,,
1649887007.982106,91.000000,0.000000,4257.436035,4230.769043,4175.384766,4217.948730,4226.153809,16217.000000,4.000000,86.000000,,,,0.000000,4.000000,4.000000,4.000000,0.000000,4.000000,66.666664,,,,,,,,,,,,,,,,,,,,,,,,,,,,,,,,,,,,,,,,,,,,,,,,,,,,,,,,,,,,,,,
1649887007.989820,92.000000,0.000000,4263.589844,4232.307617,4178.461426,4217.948730,4235.384766,450.000000,4.000000,86.000000,,,,0.000000,4.000000,4.000000,4.000000,0.000000,4.000000,66.666664,,,,,,,,,,,,,,,,,,,,,,,,,,,,,,,,,,,,,,,,,,,,,,,,,,,,,,,,,,,,,,,
1649887007.997635,93.000000,0.000000,4266.666504,4235.384766,4179.487305,4218.461426,4238.461426,450.000000,4.000000,86.000000,,,,0.000000,4.000000,4.000000,4.000000,0.000000,4.000000,66.666664,,,,,,,,,,,,,,,,,,,,,,,,,,,,,,,,,,,,,,,,,,,,,,,,,,,,,,,,,,,,,,,
1649887008.005349,94.000000,0.000000,4251.282227,4234.358887,4174.358887,4217.948730,4227.179688,450.000000,4.000000,86.000000,,,,0.000000,4.000000,4.000000,4.000000,0.000000,4.000000,66.666664,,,,,,,,,,,,,,,,,,,,,,,,,,,,,,,,,,,,,,,,,,,,,,,,,,,,,,,,,,,,,,,
1649887008.013064,95.000000,0.000000,4245.641113,4227.692383,4163.589844,4217.436035,4220.512695,16217.000000,4.000000,86.000000,,,,0.000000,4.000000,4.000000,4.000000,0.000000,4.000000,66.666664,,,,,,,,,,,,,,,,,,,,,,,,,,,,,,,,,,,,,,,,,,,,,,,,,,,,,,,,,,,,,,,
1649887008.020878,96.000000,0.000000,4256.410156,4232.820313,4156.922852,4217.948730,4223.077148,450.000000,4.000000,86.000000,,,,0.000000,4.000000,4.000000,4.000000,0.000000,4.000000,66.666664,,,,,,,,,,,,,,,,,,,,,,,,,,,,,,,,,,,,,,,,,,,,,,,,,,,,,,,,,,,,,,,
1649887008.028693,97.000000,0.000000,4257.948730,4244.102539,4156.410156,4217.948730,4221.538574,450.000000,4.000000,86.000000,,,,0.000000,4.000000,4.000000,4.000000,0.000000,4.000000,66.666664,,,,,,,,,,,,,,,,,,,,,,,,,,,,,,,,,,,,,,,,,,,,,,,,,,,,,,,,,,,,,,,
1649887008.036407,98.000000,0.000000,4240.512695,4240.512695,4145.128418,4216.410156,4209.230957,450.000000,4.000000,86.000000,,,,0.000000,4.000000,4.000000,4.000000,0.000000,4.000000,66.666664,,,,,,,,,,,,,,,,,,,,,,,,,,,,,,,,,,,,,,,,,,,,,,,,,,,,,,,,,,,,,,,
1649887008.044221,99.000000,0.000000,4224.102539,4228.717773,4138.461426,4215.897461,4203.077148,16217.000000,4.000000,86.000000,,,,0.000000,4.000000,4.000000,4.000000,0.000000,4.000000,66.666664,,,,,,,,,,,,,,,,,,,,,,,,,,,,,,,,,,,,,,,,,,,,,,,,,,,,,,,,,,,,,,,
1649887008.051936,100.000000,0.000000,4238.461426,4228.717773,4154.358887,4218.461426,4223.077148,450.000000,4.000000,86.000000,,,,0.000000,4.000000,4.000000,4.000000,0.000000,4.000000,66.666664,,,,,,,,,,,,,,,,,,,,,,,,,,,,,,,,,,,,,,,,,,,,,,,,,,,,,,,,,,,,,,,
1649887008.059650,101.000000,0.000000,4256.922852,4228.717773,4162.563965,4218.461426,4238.461426,450.000000,4.000000,86.000000,,,,0.000000,4.000000,4.000000,4.000000,0.000000,4.000000,66.666664,,,,,,,,,,,,,,,,,,,,,,,,,,,,,,,,,,,,,,,1.926405,3.882870,1.989923,1.333726,1.040897,1.046250,0.983438,0.967425,0.754598,0.507769,3.151768,2.448138,0.716165,0.549411,0.307389,0.013079,0.006498,0.005146,0.005857,0.008482,3.656441,3.341920,2.061988,0.766812,0.440255
1649887008.067465,102.000000,0.000000,4244.102539,4217.948730,4150.256348,4215.897461,4218.974121,450.000000,4.000000,86.000000,,,,0.000000,4.000000,4.000000,4.000000,0.000000,4.000000,66.666664,,,,,,,,,,,,,,,,,,,,,,,,,,,,,,,,,,,,,,,,,,,,,,,,,,,,,,,,,,,,,,,
1649887008.075179,103.000000,0.000000,4226.666504,4206.153809,4145.641113,4215.897461,4202.051270,16217.000000,4.000000,86.000000,,,,0.000000,4.000000,4.000000,4.000000,0.000000,4.000000,66.666664,,,,,,,,,,,,,,,,,,,,,,,,,,,,,,,,,,,,,,,,,,,,,,,,,,,,,,,,,,,,,,,
1649887008.082994,104.000000,0.000000,4224.615234,4210.769043,4151.794922,4216.922852,4204.615234,450.000000,4.000000,86.000000,,,,0.000000,4.000000,4.000000,4.000000,0.000000,4.000000,66.666664,,,,,,,,,,,,,,,,,,,,,,,,,,,,,,,,,,,,,,,,,,,,,,,,,,,,,,,,,,,,,,,
1649887008.090708,105.000000,0.000000,4207.692383,4212.307617,4147.692383,4216.410156,4193.846191,450.000000,4.000000,86.000000,,,,0.000000,4.000000,4.000000,4.000000,0.000000,4.000000,66.666664,,,,,,,,,,,,,,,,,,,,,,,,,,,,,,,,,,,,,,,,,,,,,,,,,,,,,,,,,,,,,,,
1649887008.098523,106.000000,0.000000,4196.410156,4197.436035,4144.615234,4214.871582,4178.974121,450.000000,4.000000,86.000000,,,,0.000000,4.000000,4.000000,4.000000,0.000000,4.000000,66.666664,,,,,,,,,,,,,,,,,,,,,,,,,,,,,,,,,,,,,,,,,,,,,,,,,,,,,,,,,,,,,,,
1649887008.106237,107.000000,0.000000,4225.128418,4200.000000,4152.307617,4215.897461,4190.769043,16217.000000,4.000000,86.000000,,,,0.000000,4.000000,4.000000,4.000000,0.000000,4.000000,66.666664,,,,,,,,,,,,,,,,,,,,,,,,,,,,,,,,,,,,,,,,,,,,,,,,,,,,,,,,,,,,,,,
1649887008.114052,108.000000,0.000000,4244.102539,4222.563965,4150.256348,4216.922852,4207.692383,450.000000,4.000000,86.000000,,,,0.000000,4.000000,4.000000,4.000000,0.000000,4.000000,66.666664,,,,,,,,,,,,,,,,,,,,,,,,,,,,,,,,,,,,,,,,,,,,,,,,,,,,,,,,,,,,,,,
1649887008.121766,109.000000,0.000000,4233.333496,4221.025879,4140.000000,4216.922852,4213.333496,450.000000,4.000000,86.000000,,,,0.000000,4.000000,4.000000,4.000000,0.000000,4.000000,66.666664,,,,,,,,,,,,,,,,,,,,,,,,,,,,,,,,,,,,,,,,,,,,,,,,,,,,,,,,,,,,,,,
1649887008.129581,110.000000,0.000000,4241.538574,4203.077148,4138.974121,4216.922852,4223.589844,450.000000,4.000000,86.000000,,,,0.000000,4.000000,4.000000,4.000000,0.000000,4.000000,66.666664,,,,,,,,,,,,,,,,,,,,,,,,,,,,,,,,,,,,,,,,,,,,,,,,,,,,,,,,,,,,,,,
1649887008.137295,111.000000,0.000000,4261.538574,4212.820313,4142.051270,4216.410156,4236.922852,16217.000000,4.000000,86.000000,,,,0.000000,4.000000,4.000000,4.000000,0.000000,4.000000,66.666664,,,,,,,,,,,,,,,,,,,,,,,,,,,,,,,,,,,,,,,,,,,,,,,,,,,,,,,,,,,,,,,
1649887008.145010,112.000000,0.000000,4257.948730,4233.846191,4141.025879,4216.410156,4238.461426,450.000000,4.000000,86.000000,,,,0.000000,4.000000,4.000000,4.000000,0.000000,4.000000,66.666664,,,,,,,,,,,,,,,,,,,,,,,,,,,,,,,,,,,,,,,,,,,,,,,,,,,,,,,,,,,,,,,
1649887008.152824,113.000000,0.000000,4250.256348,4230.769043,4146.666504,4217.436035,4234.358887,450.000000,4.000000,86.000000,,,,0.000000,4.000000,4.000000,4.000000,0.000000,4.000000,66.666664,,,,,,,,,,,,,,,,,,,,,,,,,,,,,,,,,,,,,,,,,,,,,,,,,,,,,,,,,,,,,,,
1649887008.160638,114.000000,0.000000,4244.102539,4217.948730,4157.948730,4217.948730,4232.820313,450.000000,4.000000,86.000000,,,,0.000000,4.000000,4.000000,4.000000,0.000000,4.000000,66.666664,,,,,,,,,,,,,,,,,,,,,,,,,,,,,,,,,,,,,,,,,,,,,,,,,,,,,,,,,,,,,,,
1649887008.168353,115.000000,0.000000,4241.025879,4217.436035,4155.897461,4217.436035,4233.846191,16217.000000,4.000000,86.000000,,,,0.000000,4.000000,4.000000,4.000000,0.000000,4.000000,66.666664,,,,,,,,,,,,,,,,,,,,,,,,,,,,,,,,,,,,,,,,,,,,,,,,,,,,,,,,,,,,,,,
1649887008.176167,116.000000,0.000000,4258.974121,4215.897461,4149.743652,4216.922852,4235.384766,450.000000,4.000000,86.000000,,,,0.000000,4.000000,4.000000,4.000000,0.000000,4.000000,66.666664,,,,,,,,,,,,,,,,,,,,,,,,,,,,,,,,,,,,,,,,,,,,,,,,,,,,,,,,,,,,,,,
1649887008.183882,117.000000,0.000000,4267.692383,4214.871582,4155.897461,4217.948730,4231.794922,450.000000,4.000000,86.000000,,,,0.000000,4.000000,4.000000,4.000000,0.000000,4.000000,66.666664,,,,,,,,,,,,,,,,,,,,,,,,,,,,,,,,,,,,,,,1.413920,3.515020,1.997547,1.282223,0.985077,0.978840,1.017016,0.919238,0.740388,0.565248,2.898842,2.338125,0.685146,0.431918,0.284942,0.009794,0.005146,0.004449,0.005716,0.008696,2.769374,3.222391,2.183688,0.808097,0.430603
1649887008.191596,118.000000,0.000000,4234.871582,4227.179688,4157.948730,4218.461426,4220.512695,450.000000,4.000000,86.000000,,,,0.000000,4.000000,4.000000,4.000000,0.000000,4.000000,66.666664,,,,,,,,,,,,,,,,,,,,,,,,,,,,,,,,,,,,,,,,,,,,,,,,,,,,,,,,,,,,,,,
1649887008.199411,119.000000,0.000000,4214.871582,4238.461426,4152.820313,4217.436035,4216.410156,16217.000000,4.000000,86.000000,,,,0.000000,4.000000,4.000000,4.000000,0.000000,4.000000,66.666664,,,,,,,,,,,,,,,,,,,,,,,,,,,,,,,,,,,,,,,,,,,,,,,,,,,,,,,,,,,,,,,
1649887008.207125,120.000000,0.000000,4237.436035,4229.230957,4149.743652,4216.922852,4219.487305,450.000000,4.000000,86.000000,,,,0.000000,4.000000,4.000000,4.000000,0.000000,4.000000,66.666664,,,,,,,,,,,,,,,,,,,,,,,,,,,,,,,,,,,,,,,,,,,,,,,,,,,,,,,,,,,,,,,
1649887008.214940,121.000000,0.000000,4251.794922,4210.769043,4146.153809,4216.410156,4222.051270,450.000000,4.000000,86.000000,,,,0.000000,4.000000,4.000000,4.000000,0.000000,4.000000,66.666664,,,,,,,,,,,,,,,,,,,,,,,,,,,,,,,,,,,,,,,,,,,,,,,,,,,,,,,,,,,,,,,
1649887008.222654,122.000000,0.000000,4247.692383,4216.922852,4150.769043,4216.410156,4232.307617,450.000000,4.000000,86.000000,,,,0.000000,4.000000,4.000000,4.000000,0.000000,4.000000,66.666664,,,,,,,,,,,,,,,,,,,,,,,,,,,,,,,,,,,,,,,,,,,,,,,,,,,,,,,,,,,,,,,
1649887008.230469,123.000000,0.000000,4252.307617,4231.794922,4161.538574,4217.436035,4241.025879,16217.000000,4.000000,86.000000,,,,0.000000,4.000000,4.000000,4.000000,0.000000,4.000000,66.666664,,,,,,,,,,,,,,,,,,,,,,,,,,,,,,,,,,,,,,,,,,,,,,,,,,,,,,,,,,,,,,,
1649887008.238183,124.000000,0.000000,4257.436035,4231.794922,4154.871582,4218.461426,4234.871582,450.000000,4.000000,86.000000,,,,0.000000,4.000000,4.000000,4.000000,0.000000,4.000000,66.666664,,,,,,,,,,,,,,,,,,,,,,,,,,,,,,,,,,,,,,,,,,,,,,,,,,,,,,,,,,,,,,,
1649887008.245997,125.000000,0.000000,4246.153809,4228.717773,4140.000000,4217.436035,4222.563965,450.000000,4.000000,86.000000,,,,0.000000,4.000000,4.000000,4.000000,0.000000,4.000000,66.666664,,,,,,,,,,,,,,,,,,,,,,,,,,,,,,,,,,,,,,,,,,,,,,,,,,,,,,,,,,,,,,,
1649887008.253712,126.000000,0.000000,4232.307617,4222.051270,4146.153809,4215.897461,4218.974121,450.000000,4.000000,86.000000,,,,0.000000,4.000000,4.000000,4.000000,0.000000,4.000000,66.666664,,,,,,,,,,,,,,,,,,,,,,,,,,,,,,,,,,,,,,,,,,,,,,,,,,,,,,,,,,,,,,,
1649887008.261526,127.000000,0.000000,4237.436035,4214.358887,4156.410156,4216.922852,4221.538574,241.000000,4.000000,86.000000,,,,0.000000,4.000000,4.000000,4.000000,0.000000,4.000000,66.666664,,,,,,,,,,,,,,,,,,,,,,,,,,,,,,,,,,,,,,,,,,,,,,,,,,,,,,,,,,,,,,,
1649887008.269241,0.000000,0.000000,4242.051270,4221.538574,4154.358887,4217.948730,4217.948730,450.000000,4.000000,86.000000,,,,0.000000,4.000000,4.000000,4.000000,0.000000,4.000000,66.666664,,,,,,,,,,,,,,,,,,,,,,,,,,,,,,,,,,,,,,,,,,,,,,,,,,,,,,,,,,,,,,,
1649887008.277055,1.000000,0.000000,4236.410156,4232.820313,4160.000000,4217.948730,4216.922852,450.000000,4.000000,86.000000,,,,0.000000,4.000000,4.000000,4.000000,0.000000,4.000000,66.666664,,,,,,,,,,,,,,,,,,,,,,,,,,,,,,,,,,,,,,,,,,,,,,,,,,,,,,,,,,,,,,,
1649887008.284870,2.000000,0.000000,4233.333496,4225.128418,4170.769043,4216.410156,4218.974121,16219.000000,4.000000,86.000000,,,,0.000000,4.000000,4.000000,4.000000,0.000000,4.000000,66.666664,,,,,,,,,,,,,,,,,,,,,,,,,,,,,,,,,,,,,,,,,,,,,,,,,,,,,,,,,,,,,,,
1649887008.292584,3.000000,0.000000,4235.897461,4221.538574,4166.153809,4215.897461,4208.717773,450.000000,4.000000,86.000000,,,,0.000000,4.000000,4.000000,4.000000,0.000000,4.000000,66.666664,,,,,,,,,,,,,,,,,,,,,,,,,,,,,,,,,,,,,,,,,,,,,,,,,,,,,,,,,,,,,,,
1649887008.300299,4.000000,0.000000,4237.436035,4235.897461,4153.846191,4216.410156,4203.589844,16201.000000,4.000000,86.000000,,,,0.000000,4.000000,4.000000,4.000000,0.000000,4.000000,66.666664,,,,,,,,,,,,,,,,,,,,,,,,,,,,,,,,,,,,,,,,,,,,,,,,,,,,,,,,,,,,,,,
1649887008.308113,5.000000,0.000000,4237.948730,4233.846191,4144.102539,4216.922852,4217.948730,450.000000,4.000000,86.000000,,,,0.000000,4.000000,4.000000,4.000000,0.000000,4.000000,66.666664,0.972656,66.666664,4.000000,4.000000,4.000000,0.000000,4.000000,,,,,,,,,,,,,,,,,,,,,,,,,,,,,,,,1.178853,2.975734,1.811151,1.263445,1.000303,1.012191,0.974747,0.838821,0.709529,0.625304,2.806268,2.332517,0.709519,0.369857,0.276835,0.008950,0.004629,0.004217,0.006174,0.009136,2.188775,2.956892,2.075085,0.878347,0.445704
1649887008.315828,6.000000,0.000000,4232.820313,4217.948730,4133.846191,4216.922852,4217.948730,16173.000000,4.000000,86.000000,,,,0.000000,4.000000,4.000000,4.000000,0.000000,4.000000,66.666664,,,,,,,,,,,,,,,,,,,,,,,,,,,,,,,,,,,,,,,,,,,,,,,,,,,,,,,,,,,,,,,
1649887008.323642,7.000000,0.000000,4217.436035,4223.589844,4129.230957,4215.384766,4197.948730,450.000000,4.000000,86.000000,,,,0.000000,4.000000,4.000000,4.000000,0.000000,4.000000,66.666664,,,,,,,,,,,,,,,,,,,,,,,,,,,,,,,,,,,,,,,,,,,,,,,,,,,,,,,,,,,,,,,
1649887008.331357,8.000000,0.000000,4220.000000,4230.256348,4133.333496,4215.384766,4197.436035,450.000000,4.000000,86.000000,,,,0.000000,4.000000,4.000000,4.000000,0.000000,4.000000,66.666664,,,,,,,,,,,,,,,,,,,,,,,,,,,,,,,,,,,,,,,,,,,,,,,,,,,,,,,,,,,,,,,
1649887008.339171,9.000000,0.000000,4235.897461,4205.641113,4136.922852,4217.436035,4217.436035,0.000000,4.000000,86.000000,,,,0.000000,4.000000,4.000000,4.000000,0.000000,4.000000,66.666664,,,,,,,,,,,,,,,,,,,,,,,,,,,,,,,,,,,,,,,,,,,,,,,,,,,,,,,,,,,,,,,
1649887008.346885,10.000000,0.000000,4232.820313,4197.436035,4141.538574,4217.948730,4226.153809,450.000000,4.000000,86.000000,,,,0.000000,4.000000,4.000000,4.000000,0.000000,4.000000,66.666664,,,,,,,,,,,,,,,,,,,,,,,,,,,,,,,,,,,,,,,,,,,,,,,,,,,,,,,,,,,,,,,
1649887008.354700,11.000000,0.000000,4229.230957,4230.256348,4151.282227,4216.922852,4221.538574,16229.000000,4.000000,86.000000,,,,0.000000,4.000000,4.000000,4.000000,0.000000,4.000000,66.666664,,,,,,,,,,,,,,,,,,,,,,,,,,,,,,,,,,,,,,,,,,,,,,,,,,,,,,,,,,,,,,,
1649887008.362414,12.000000,0.000000,4234.358887,4241.025879,4158.974121,4216.410156,4216.922852,450.000000,4.000000,86.000000,,,,0.000000,4.000000,4.000000,4.000000,0.000000,4.000000,66.666664,,,,,,,,,,,,,,,,,,,,,,,,,,,,,,,,,,,,,,,,,,,,,,,,,,,,,,,,,,,,,,,
1649887008.370129,13.000000,0.000000,4226.153809,4216.922852,4158.461426,4216.922852,4211.794922,450.000000,4.000000,86.000000,,,,0.000000,4.000000,4.000000,4.000000,0.000000,4.000000,66.666664,,,,,,,,,,,,,,,,,,,,,,,,,,,,,,,,,,,,,,,,,,,,,,,,,,,,,,,,,,,,,,,
1649887008.377943,14.000000,0.000000,4222.051270,4210.256348,4150.769043,4216.410156,4208.717773,450.000000,4.000000,86.000000,,,,0.000000,4.000000,4.000000,4.000000,0.000000,4.000000,66.666664,,,,,,,,,,,,,,,,,,,,,,,,,,,,,,,,,,,,,,,,,,,,,,,,,,,,,,,,,,,,,,,
1649887008.385658,15.000000,0.000000,4235.384766,4221.025879,4148.205078,4215.384766,4214.871582,16229.000000,4.000000,86.000000,,,,0.000000,4.000000,4.000000,4.000000,0.000000,4.000000,66.666664,,,,,,,,,,,,,,,,,,,,,,,,,,,,,,,,,,,,,,,,,,,,,,,,,,,,,,,,,,,,,,,
1649887008.393472,16.000000,0.000000,4236.922852,4215.897461,4155.384766,4215.384766,4223.077148,0.000000,4.000000,86.000000,,,,0.000000,4.000000,4.000000,4.000000,0.000000,4.000000,66.666664,,,,,,,,,,,,,,,,,,,,,,,,,,,,,,,,,,,,,,,,,,,,,,,,,,,,,,,,,,,,,,,
1649887008.401287,17.000000,0.000000,4241.025879,4210.769043,4162.051270,4216.922852,4223.589844,0.000000,4.000000,86.000000,,,,0.000000,4.000000,4.000000,4.000000,0.000000,4.000000,66.666664,,,,,,,,,,,,,,,,,,,,,,,,,,,,,,,,,,,,,,,,,,,,,,,,,,,,,,,,,,,,,,,
1649887008.409001,18.000000,0.000000,4264.615234,4225.641113,4161.025879,4218.461426,4230.769043,0.000000,4.000000,86.000000,,,,0.000000,4.000000,4.000000,4.000000,0.000000,4.000000,66.666664,,,,,,,,,,,,,,,,,,,,,,,,,,,,,,,,,,,,,,,,,,,,,,,,,,,,,,,,,,,,,,,
1649887008.416816,19.000000,0.000000,4265.641113,4231.794922,4158.461426,4217.948730,4240.512695,0.000000,4.000000,86.000000,,,,0.000000,4.000000,4.000000,4.000000,0.000000,4.000000,66.666664,,,,,,,,,,,,,,,,,,,,,,,,,,,,,,,,,,,,,,,,,,,,,,,,,,,,,,,,,,,,,,,
1649887008.424530,20.000000,0.000000,4254.871582,4225.641113,4159.487305,4217.948730,4245.128418,0.000000,4.000000,86.000000,,,,0.000000,4.000000,4.000000,4.000000,0.000000,4.000000,66.666664,,,,,,,,,,,,,,,,,,,,,,,,,,,,,,,,,,,,,,,,,,,,,,,,,,,,,,,,,,,,,,,
1649887008.432245,21.000000,0.000000,4272.820313,4234.871582,4166.666504,4218.461426,4247.692383,0.000000,4.000000,86.000000,,,,0.000000,4.000000,4.000000,4.000000,0.000000,4.000000,66.666664,,,,,,,,,,,,,,,,,,,,,,,,,,,,,,,,,,,,,,,1.288340,2.331869,1.493886,1.306868,1.074642,1.196025,0.869307,0.749763,0.679651,0.669675,2.894027,2.389736,0.767710,0.350782,0.277547,0.009325,0.004363,0.004054,0.006627,0.009462,1.967168,2.633435,1.796641,0.983980,0.475680
1649887008.440059,22.000000,0.000000,4277.436035,4246.666504,4167.692383,4218.461426,4237.948730,0.000000,4.000000,86.000000,,,,0.000000,4.000000,4.000000,4.000000,0.000000,4.000000,66.666664,,,,,,,,,,,,,,,,,,,,,,,,,,,,,,,,,,,,,,,,,,,,,,,,,,,,,,,,,,,,,,,
1649887008.447774,23.000000,0.000000,4254.871582,4236.922852,4163.589844,4217.948730,4227.692383,0.000000,4.000000,86.000000,,,,0.000000,4.000000,4.000000,4.000000,0.000000,4.000000,66.666664,,,,,,,,,,,,,,,,,,,,,,,,,,,,,,,,,,,,,,,,,,,,,,,,,,,,,,,,,,,,,,,
1649887008.455588,24.000000,0.000000,4255.897461,4228.717773,4173.333496,4218.461426,4237.436035,0.000000,4.000000,86.000000,,,,0.000000,4.000000,4.000000,4.000000,0.000000,4.000000,66.666664,,,,,,,,,,,,,,,,,,,,,,,,,,,,,,,,,,,,,,,,,,,,,,,,,,,,,,,,,,,,,,,
1649887008.463302,25.000000,0.000000,4257.948730,4235.384766,4185.128418,4217.948730,4240.512695,0.000000,4.000000,86.000000,,,,0.000000,4.000000,4.000000,4.000000,0.000000,4.000000,66.666664,,,,,,,,,,,,,,,,,,,,,,,,,,,,,,,,,,,,,,,,,,,,,,,,,,,,,,,,,,,,,,,
1649887008.471117,26.000000,0.000000,4241.025879,4232.820313,4171.282227,4216.410156,4218.461426,0.000000,4.000000,86.000000,,,,0.000000,4.000000,4.000000,4.000000,0.000000,4.000000,66.666664,,,,,,,,,,,,,,,,,,,,,,,,,,,,,,,,,,,,,,,,,,,,,,,,,,,,,,,,,,,,,,,
1649887008.478831,27.000000,0.000000,4252.307617,4226.153809,4164.102539,4216.410156,4222.051270,0.000000,4.000000,86.000000,,,,0.000000,4.000000,4.000000,4.000000,0.000000,4.000000,66.666664,,,,,,,,,,,,,,,,,,,,,,,,,,,,,,,,,,,,,,,,,,,,,,,,,,,,,,,,,,,,,,,
1649887008.486646,28.000000,0.000000,4277.436035,4231.282227,4181.538574,4217.436035,4253.333496,0.000000,4.000000,86.000000,,,,0.000000,4.000000,4.000000,4.000000,0.000000,4.000000,66.666664,,,,,,,,,,,,,,,,,,,,,,,,,,,,,,,,,,,,,,,,,,,,,,,,,,,,,,,,,,,,,,,
1649887008.494360,29.000000,0.000000,4271.282227,4230.256348,4180.512695,4217.436035,4254.871582,0.000000,4.000000,86.000000,,,,0.000000,4.000000,4.000000,4.000000,0.000000,4.000000,66.666664,,,,,,,,,,,,,,,,,,,,,,,,,,,,,,,,,,,,,,,,,,,,,,,,,,,,,,,,,,,,,,,
1649887008.502175,30.000000,0.000000,4251.282227,4221.538574,4163.589844,4217.436035,4232.820313,0.000000,4.000000,86.000000,,,,0.000000,4.000000,4.000000,4.000000,0.000000,4.000000,66.666664,,,,,,,,,,,,,,,,,,,,,,,,,,,,,,,,,,,,,,,,,,,,,,,,,,,,,,,,,,,,,,,
1649887008.509889,31.000000,0.000000,4244.615234,4223.589844,4169.230957,4218.974121,4232.307617,0.000000,4.000000,86.000000,,,,0.000000,4.000000,4.000000,4.000000,0.000000,4.000000,66.666664,,,,,,,,,,,,,,,,,,,,,,,,,,,,,,,,,,,,,,,,,,,,,,,,,,,,,,,,,,,,,,,
1649887008.517604,32.000000,0.000000,4249.743652,4222.051270,4183.077148,4218.974121,4238.974121,0.000000,4.000000,86.000000,,,,0.000000,4.000000,4.000000,4.000000,0.000000,4.000000,66.666664,,,,,,,,,,,,,,,,,,,,,,,,,,,,,,,,,,,,,,,,,,,,,,,,,,,,,,,,,,,,,,,
1649887008.525418,33.000000,0.000000,4255.384766,4215.384766,4181.538574,4216.922852,4232.307617,0.000000,4.000000,86.000000,,,,0.000000,4.000000,4.000000,4.000000,0.000000,4.000000,66.666664,,,,,,,,,,,,,,,,,,,,,,,,,,,,,,,,,,,,,,,,,,,,,,,,,,,,,,,,,,,,,,,
1649887008.533232,34.000000,0.000000,4249.230957,4226.153809,4179.487305,4216.922852,4230.769043,0.000000,4.000000,86.000000,,,,0.000000,4.000000,4.000000,4.000000,0.000000,4.000000,66.666664,,,,,,,,,,,,,,,,,,,,,,,,,,,,,,,,,,,,,,,,,,,,,,,,,,,,,,,,,,,,,,,
1649887008.540947,35.000000,0.000000,4243.077148,4232.307617,4177.436035,4218.461426,4235.384766,0.000000,4.000000,86.000000,,,,0.000000,4.000000,4.000000,4.000000,0.000000,4.000000,66.666664,,,,,,,,,,,,,,,,,,,,,,,,,,,,,,,,,,,,,,,,,,,,,,,,,,,,,,,,,,,,,,,
1649887008.548761,36.000000,0.000000,4255.384766,4226.153809,4168.717773,4218.974121,4240.512695,0.000000,4.000000,86.000000,,,,0.000000,4.000000,4.000000,4.000000,0.000000,4.000000,66.666664,,,,,,,,,,,,,,,,,,,,,,,,,,,,,,,,,,,,,,,,,,,,,,,,,,,,,,,,,,,,,,,
1649887008.556476,37.000000,0.000000,4270.769043,4234.871582,4167.692383,4219.487305,4246.153809,0.000000,4.000000,86.000000,,,,0.000000,4.000000,4.000000,4.000000,0.000000,4.000000,66.666664,,,,,,,,,,,,,,,,,,,,,,,,,,,,,,,,,,,,,,,1.731791,1.769853,1.143472,1.406648,1.171793,1.534529,0.750754,0.670767,0.663390,0.690014,3.089598,2.486507,0.836148,0.350085,0.279994,0.010102,0.004108,0.003893,0.006844,0.009586,2.065485,2.402233,1.468503,1.107399,0.506374
1649887008.564290,38.000000,0.000000,4267.179688,4235.897461,4173.333496,4218.974121,4246.666504,0.000000,4.000000,86.000000,,,,0.000000,4.000000,4.000000,4.000000,0.000000,4.000000,66.666664,,,,,,,,,,,,,,,,,,,,,,,,,,,,,,,,,,,,,,,,,,,,,,,,,,,,,,,,,,,,,,,
1649887008.572005,39.000000,0.000000,4261.538574,4231.282227,4174.358887,4217.436035,4245.128418,0.000000,4.000000,86.000000,,,,0.000000,4.000000,4.000000,4.000000,0.000000,4.000000,66.666664,,,,,,,,,,,,,,,,,,,,,,,,,,,,,,,,,,,,,,,,,,,,,,,,,,,,,,,,,,,,,,,
1649887008.579819,40.000000,0.000000,4272.820313,4246.153809,4169.743652,4218.461426,4246.666504,0.000000,4.000000,86.000000,,,,0.000000,4.000000,4.000000,4.000000,0.000000,4.000000,66.666664,,,,,,,,,,,,,,,,,,,,,,,,,,,,,,,,,,,,,,,,,,,,,,,,,,,,,,,,,,,,,,,
1649887008.587534,41.000000,0.000000,4278.461426,4257.436035,4171.282227,4220.000000,4249.743652,0.000000,4.000000,86.000000,,,,0.000000,4.000000,4.000000,4.000000,0.000000,4.000000,66.666664,,,,,,,,,,,,,,,,,,,,,,,,,,,,,,,,,,,,,,,,,,,,,,,,,,,,,,,,,,,,,,,
1649887008.595248,42.000000,0.000000,4255.384766,4247.179688,4179.487305,4217.436035,4247.179688,0.000000,4.000000,86.000000,,,,0.000000,4.000000,4.000000,4.000000,0.000000,4.000000,66.666664,,,,,,,,,,,,,,,,,,,,,,,,,,,,,,,,,,,,,,,,,,,,,,,,,,,,,,,,,,,,,,,
1649887008.603063,43.000000,0.000000,4242.563965,4241.025879,4185.128418,4216.410156,4246.666504,0.000000,4.000000,86.000000,,,,0.000000,4.000000,4.000000,4.000000,0.000000,4.000000,66.666664,,,,,,,,,,,,,,,,,,,,,,,,,,,,,,,,,,,,,,,,,,,,,,,,,,,,,,,,,,,,,,,
1649887008.610877,44.000000,0.000000,4257.948730,4246.153809,4179.487305,4218.974121,4246.153809,0.000000,4.000000,86.000000,,,,0.000000,4.000000,4.000000,4.000000,0.000000,4.000000,66.666664,,,,,,,,,,,,,,,,,,,,,,,,,,,,,,,,,,,,,,,,,,,,,,,,,,,,,,,,,,,,,,,
1649887008.618592,45.000000,0.000000,4263.077148,4242.051270,4169.743652,4219.487305,4246.153809,0.000000,4.000000,86.000000,,,,0.000000,4.000000,4.000000,4.000000,0.000000,4.000000,66.666664,,,,,,,,,,,,,,,,,,,,,,,,,,,,,,,,,,,,,,,,,,,,,,,,,,,,,,,,,,,,,,,
1649887008.626406,46.000000,0.000000,4253.846191,4236.922852,4165.641113,4218.974121,4249.743652,0.000000,4.000000,86.000000,,,,0.000000,4.000000,4.000000,4.000000,0.000000,4.000000,66.666664,,,,,,,,,,,,,,,,,,,,,,,,,,,,,,,,,,,,,,,,,,,,,,,,,,,,,,,,,,,,,,,
1649887008.634121,47.000000,0.000000,4243.077148,4241.025879,4167.692383,4218.461426,4246.666504,0.000000,4.000000,86.000000,,,,0.000000,4.000000,4.000000,4.000000,0.000000,4.000000,66.666664,,,,,,,,,,,,,,,,,,,,,,,,,,,,,,,,,,,,,,,,,,,,,,,,,,,,,,,,,,,,,,,
1649887008.641835,48.000000,0.000000,4241.538574,4245.128418,4177.948730,4216.922852,4242.563965,0.000000,4.000000,86.000000,,,,0.000000,4.000000,4.000000,4.000000,0.000000,4.000000,66.666664,,,,,,,,,,,,,,,,,,,,,,,,,,,,,,,,,,,,,,,,,,,,,,,,,,,,,,,,,,,,,,,
1649887008.649649,49.000000,0.000000,4255.384766,4245.128418,4184.615234,4216.922852,4242.051270,0.000000,4.000000,86.000000,,,,0.000000,4.000000,4.000000,4.000000,0.000000,4.000000,66.666664,,,,,,,,,,,,,,,,,,,,,,,,,,,,,,,,,,,,,,,,,,,,,,,,,,,,,,,,,,,,,,,
1649887008.657364,50.000000,0.000000,4258.461426,4246.153809,4178.461426,4221.025879,4243.077148,0.000000,4.000000,86.000000,,,,0.000000,4.000000,4.000000,4.000000,0.000000,4.000000,66.666664,,,,,,,,,,,,,,,,,,,,,,,,,,,,,,,,,,,,,,,,,,,,,,,,,,,,,,,,,,,,,,,
1649887008.665178,51.000000,0.000000,4252.307617,4244.102539,4173.846191,4218.974121,4248.717773,0.000000,4.000000,86.000000,,,,0.000000,4.000000,4.000000,4.000000,0.000000,4.000000,66.666664,,,,,,,,,,,,,,,,,,,,,,,,,,,,,,,,,,,,,,,,,,,,,,,,,,,,,,,,,,,,,,,
1649887008.672893,52.000000,0.000000,4272.820313,4241.538574,4178.461426,4215.897461,4270.769043,0.000000,4.000000,86.000000,,,,0.000000,4.000000,4.000000,4.000000,0.000000,4.000000,66.666664,,,,,,,,,,,,,,,,,,,,,,,,,,,,,,,,,,,,,,,,,,,,,,,,,,,,,,,,,,,,,,,
1649887008.680707,53.000000,0.000000,4290.256348,4246.153809,4182.051270,4224.102539,4287.179688,0.000000,4.000000,86.000000,,,,0.000000,4.000000,4.000000,4.000000,0.000000,4.000000,66.666664,,,,,,,,,,,,,,,,,,,,,,,,,,,,,,,,,,,,,,,2.448960,1.430413,0.849147,1.525957,1.245728,1.934352,0.661427,0.611801,0.665932,0.691496,3.287923,2.589891,0.904350,0.351275,0.279779,0.010872,0.003895,0.003752,0.006795,0.009498,2.409034,2.348619,1.200322,1.214104,0.526517
1649887008.688422,54.000000,0.000000,4262.563965,4245.128418,4173.333496,4226.666504,4268.717773,0.000000,4.000000,86.000000,,,,0.000000,4.000000,4.000000,4.000000,0.000000,4.000000,66.666664,,,,,,,,,,,,,,,,,,,,,,,,,,,,,,,,,,,,,,,,,,,,,,,,,,,,,,,,,,,,,,,
1649887008.696236,55.000000,0.000000,4241.538574,4241.025879,4166.153809,4216.922852,4242.563965,0.000000,4.000000,86.000000,,,,0.000000,4.000000,4.000000,4.000000,0.000000,4.000000,66.666664,,,,,,,,,,,,,,,,,,,,,,,,,,,,,,,,,,,,,,,,,,,,,,,,,,,,,,,,,,,,,,,
1649887008.703951,56.000000,0.000000,4241.538574,4239.487305,4163.589844,4213.333496,4227.179688,0.000000,4.000000,86.000000,,,,0.000000,4.000000,4.000000,4.000000,0.000000,4.000000,66.666664,,,,,,,,,,,,,,,,,,,,,,,,,,,,,,,,,,,,,,,,,,,,,,,,,,,,,,,,,,,,,,,
1649887008.711765,57.000000,0.000000,4225.641113,4234.358887,4156.922852,4217.436035,4213.333496,0.000000,4.000000,86.000000,,,,0.000000,4.000000,4.000000,4.000000,0.000000,4.000000,66.666664,,,,,,,,,,,,,,,,,,,,,,,,,,,,,,,,,,,,,,,,,,,,,,,,,,,,,,,,,,,,,,,
1649887008.719480,58.000000,0.000000,4214.358887,4234.871582,4154.871582,4217.436035,4208.205078,0.000000,4.000000,86.000000,,,,0.000000,4.000000,4.000000,4.000000,0.000000,4.000000,66.666664,,,,,,,,,,,,,,,,,,,,,,,,,,,,,,,,,,,,,,,,,,,,,,,,,,,,,,,,,,,,,,,
1649887008.727294,59.000000,0.000000,4225.641113,4235.384766,4163.077148,4216.410156,4216.410156,0.000000,4.000000,86.000000,,,,0.000000,4.000000,4.000000,4.000000,0.000000,4.000000,66.666664,,,,,,,,,,,,,,,,,,,,,,,,,,,,,,,,,,,,,,,,,,,,,,,,,,,,,,,,,,,,,,,
1649887008.735009,60.000000,0.000000,4233.846191,4229.230957,4162.051270,4216.922852,4216.410156,0.000000,4.000000,86.000000,,,,0.000000,4.000000,4.000000,4.000000,0.000000,4.000000,66.666664,,,,,,,,,,,,,,,,,,,,,,,,,,,,,,,,,,,,,,,,,,,,,,,,,,,,,,,,,,,,,,,
1649887008.742823,61.000000,0.000000,4224.615234,4226.666504,4146.153809,4215.897461,4207.692383,0.000000,4.000000,86.000000,,,,0.000000,4.000000,4.000000,4.000000,0.000000,4.000000,66.666664,,,,,,,,,,,,,,,,,,,,,,,,,,,,,,,,,,,,,,,,,,,,,,,,,,,,,,,,,,,,,,,
1649887008.750537,62.000000,0.000000,4222.051270,4223.077148,4141.025879,4216.922852,4209.230957,0.000000,4.000000,86.000000,,,,0.000000,4.000000,4.000000,4.000000,0.000000,4.000000,66.666664,,,,,,,,,,,,,,,,,,,,,,,,,,,,,,,,,,,,,,,,,,,,,,,,,,,,,,,,,,,,,,,
1649887008.758352,63.000000,0.000000,4234.871582,4216.922852,4150.769043,4217.948730,4218.461426,0.000000,4.000000,86.000000,,,,0.000000,4.000000,4.000000,4.000000,0.000000,4.000000,66.666664,,,,,,,,,,,,,,,,,,,,,,,,,,,,,,,,,,,,,,,,,,,,,,,,,,,,,,,,,,,,,,,
1649887008.766066,64.000000,0.000000,4244.615234,4224.102539,4157.948730,4217.436035,4229.743652,450.000000,4.000000,86.000000,,,,0.000000,4.000000,4.000000,4.000000,0.000000,4.000000,66.666664,,,,,,,,,,,,,,,,,,,,,,,,,,,,,,,,,,,,,,,,,,,,,,,,,,,,,,,,,,,,,,,
1649887008.773781,65.000000,0.000000,4253.846191,4237.948730,4159.487305,4216.410156,4238.461426,450.000000,4.000000,86.000000,,,,0.000000,4.000000,4.000000,4.000000,0.000000,4.000000,66.666664,,,,,,,,,,,,,,,,,,,,,,,,,,,,,,,,,,,,,,,,,,,,,,,,,,,,,,,,,,,,,,,
1649887008.781595,66.000000,0.000000,4264.615234,4241.025879,4163.077148,4217.436035,4244.615234,16181.000000,4.000000,86.000000,,,,0.000000,4.000000,4.000000,4.000000,0.000000,4.000000,66.666664,,,,,,,,,,,,,,,,,,,,,,,,,,,,,,,,,,,,,,,,,,,,,,,,,,,,,,,,,,,,,,,
1649887008.789310,67.000000,0.000000,4256.410156,4236.410156,4167.179688,4217.948730,4250.769043,450.000000,4.000000,86.000000,,,,0.000000,4.000000,4.000000,4.000000,0.000000,4.000000,66.666664,,,,,,,,,,,,,,,,,,,,,,,,,,,,,,,,,,,,,,,,,,,,,,,,,,,,,,,,,,,,,,,
1649887008.797124,68.000000,0.000000,4246.153809,4240.512695,4174.358887,4217.948730,4252.820313,16203.000000,4.000000,86.000000,,,,0.000000,4.000000,4.000000,4.000000,0.000000,4.000000,66.666664,,,,,,,,,,,,,,,,,,,,,,,,,,,,,,,,,,,,,,,,,,,,,,,,,,,,,,,,,,,,,,,
1649887008.804839,69.000000,0.000000,4260.512695,4246.153809,4186.666504,4218.974121,4252.307617,450.000000,4.000000,86.000000,,,,0.000000,4.000000,4.000000,4.000000,0.000000,4.000000,66.666664,0.972656,66.666664,4.000000,4.000000,4.000000,0.000000,4.000000,,,,,,,,,,,,,,,,,,,,,,,,,,,,,,,,3.348158,1.331395,0.674361,1.611274,1.264324,2.299485,0.609803,0.573909,0.685525,0.685807,3.394567,2.661991,0.966708,0.355051,0.276467,0.011558,0.003907,0.003652,0.006543,0.009238,2.902264,2.449494,1.050514,1.263690,0.531855
1649887008.812653,70.000000,0.000000,4263.077148,4233.333496,4189.743652,4218.461426,4253.333496,16139.000000,4.000000,86.000000,,,,0.000000,4.000000,4.000000,4.000000,0.000000,4.000000,66.666664,,,,,,,,,,,,,,,,,,,,,,,,,,,,,,,,,,,,,,,,,,,,,,,,,,,,,,,,,,,,,,,
1649887008.820368,71.000000,0.000000,4247.692383,4231.282227,4181.025879,4216.410156,4251.794922,450.000000,4.000000,86.000000,,,,0.000000,4.000000,4.000000,4.000000,0.000000,4.000000,66.666664,,,,,,,,,,,,,,,,,,,,,,,,,,,,,,,,,,,,,,,,,,,,,,,,,,,,,,,,,,,,,,,
1649887008.828182,72.000000,0.000000,4250.769043,4245.641113,4171.794922,4217.948730,4246.153809,450.000000,4.000000,86.000000,,,,0.000000,4.000000,4.000000,4.000000,0.000000,4.000000,66.666664,,,,,,,,,,,,,,,,,,,,,,,,,,,,,,,,,,,,,,,,,,,,,,,,,,,,,,,,,,,,,,,
1649887008.835897,73.000000,0.000000,4268.205078,4246.153809,4167.692383,4219.487305,4253.846191,0.000000,4.000000,86.000000,,,,0.000000,4.000000,4.000000,4.000000,0.000000,4.000000,66.666664,,,,,,,,,,,,,,,,,,,,,,,,,,,,,,,,,,,,,,,,,,,,,,,,,,,,,,,,,,,,,,,
1649887008.843711,74.000000,0.000000,4283.077148,4242.051270,4165.128418,4217.948730,4268.717773,450.000000,4.000000,86.000000,,,,0.000000,4.000000,4.000000,4.000000,0.000000,4.000000,66.666664,,,,,,,,,,,,,,,,,,,,,,,,,,,,,,,,,,,,,,,,,,,,,,,,,,,,,,,,,,,,,,,
1649887008.851425,75.000000,0.000000,4278.461426,4239.487305,4160.512695,4216.922852,4262.051270,16231.000000,4.000000,86.000000,,,,0.000000,4.000000,4.000000,4.000000,0.000000,4.000000,66.666664,,,,,,,,,,,,,,,,,,,,,,,,,,,,,,,,,,,,,,,,,,,,,,,,,,,,,,,,,,,,,,,
1649887008.859240,76.000000,0.000000,4255.384766,4228.717773,4161.538574,4217.948730,4251.794922,450.000000,4.000000,86.000000,,,,0.000000,4.000000,4.000000,4.000000,0.000000,4.000000,66.666664,,,,,,,,,,,,,,,,,,,,,,,,,,,,,,,,,,,,,,,,,,,,,,,,,,,,,,,,,,,,,,,
1649887008.866954,77.000000,0.000000,4261.025879,4229.743652,4166.666504,4219.487305,4258.974121,450.000000,4.000000,86.000000,,,,0.000000,4.000000,4.000000,4.000000,0.000000,4.000000,66.666664,,,,,,,,,,,,,,,,,,,,,,,,,,,,,,,,,,,,,,,,,,,,,,,,,,,,,,,,,,,,,,,
1649887008.874769,78.000000,0.000000,4283.077148,4242.051270,4169.230957,4220.000000,4257.948730,450.000000,4.000000,86.000000,,,,0.000000,4.000000,4.000000,4.000000,0.000000,4.000000,66.666664,,,,,,,,,,,,,,,,,,,,,,,,,,,,,,,,,,,,,,,,,,,,,,,,,,,,,,,,,,,,,,,
1649887008.882483,79.000000,0.000000,4268.205078,4238.974121,4167.179688,4217.948730,4241.025879,16231.000000,4.000000,86.000000,,,,0.000000,4.000000,4.000000,4.000000,0.000000,4.000000,66.666664,,,,,,,,,,,,,,,,,,,,,,,,,,,,,,,,,,,,,,,,,,,,,,,,,,,,,,,,,,,,,,,
1649887008.890298,80.000000,0.000000,4247.179688,4231.794922,4166.153809,4216.922852,4235.384766,450.000000,4.000000,86.000000,,,,0.000000,4.000000,4.000000,4.000000,0.000000,4.000000,66.666664,,,,,,,,,,,,,,,,,,,,,,,,,,,,,,,,,,,,,,,,,,,,,,,,,,,,,,,,,,,,,,,
1649887008.898012,81.000000,0.000000,4255.384766,4235.897461,4168.205078,4217.948730,4238.461426,450.000000,4.000000,86.000000,,,,0.000000,4.000000,4.000000,4.000000,0.000000,4.000000,66.666664,,,,,,,,,,,,,,,,,,,,,,,,,,,,,,,,,,,,,,,,,,,,,,,,,,,,,,,,,,,,,,,
1649887008.905827,82.000000,0.000000,4257.948730,4236.410156,4166.666504,4217.948730,4239.487305,450.000000,4.000000,86.000000,,,,0.000000,4.000000,4.000000,4.000000,0.000000,4.000000,66.666664,,,,,,,,,,,,,,,,,,,,,,,,,,,,,,,,,,,,,,,,,,,,,,,,,,,,,,,,,,,,,,,
1649887008.913541,83.000000,0.000000,4253.333496,4231.794922,4161.538574,4217.436035,4246.153809,16231.000000,4.000000,86.000000,,,,0.000000,4.000000,4.000000,4.000000,0.000000,4.000000,66.666664,,,,,,,,,,,,,,,,,,,,,,,,,,,,,,,,,,,,,,,,,,,,,,,,,,,,,,,,,,,,,,,
1649887008.921356,84.000000,0.000000,4260.512695,4225.128418,4152.820313,4217.436035,4250.256348,450.000000,4.000000,86.000000,,,,0.000000,4.000000,4.000000,4.000000,0.000000,4.000000,66.666664,,,,,,,,,,,,,,,,,,,,,,,,,,,,,,,,,,,,,,,,,,,,,,,,,,,,,,,,,,,,,,,
1649887008.929070,85.000000,0.000000,4260.000000,4222.563965,4142.563965,4218.461426,4247.692383,450.000000,4.000000,86.000000,,,,0.000000,4.000000,4.000000,4.000000,0.000000,4.000000,66.666664,,,,,,,,,,,,,,,,,,,,,,,,,,,,,,,,,,,,,,,4.239861,1.427469,0.641424,1.622529,1.225377,2.532211,0.588488,0.545163,0.710730,0.680459,3.293265,2.632913,1.009812,0.367808,0.272532,0.012246,0.004494,0.003920,0.006343,0.009149,3.448488,2.600631,1.021013,1.235228,0.524502
1649887008.936884,86.000000,0.000000,4246.153809,4225.128418,4139.487305,4218.974121,4245.128418,450.000000,4.000000,86.000000,,,,0.000000,4.000000,4.000000,4.000000,0.000000,4.000000,66.666664,,,,,,,,,,,,,,,,,,,,,,,,,,,,,,,,,,,,,,,,,,,,,,,,,,,,,,,,,,,,,,,
1649887008.944599,87.000000,0.000000,4231.282227,4211.794922,4137.948730,4216.922852,4230.256348,16231.000000,4.000000,86.000000,,,,0.000000,4.000000,4.000000,4.000000,0.000000,4.000000,66.666664,,,,,,,,,,,,,,,,,,,,,,,,,,,,,,,,,,,,,,,,,,,,,,,,,,,,,,,,,,,,,,,
1649887008.952313,88.000000,0.000000,4221.025879,4198.974121,4132.820313,4213.846191,4210.256348,450.000000,4.000000,86.000000,,,,0.000000,4.000000,4.000000,4.000000,0.000000,4.000000,66.666664,,,,,,,,,,,,,,,,,,,,,,,,,,,,,,,,,,,,,,,,,,,,,,,,,,,,,,,,,,,,,,,
1649887008.960128,89.000000,0.000000,4216.922852,4212.820313,4128.717773,4213.846191,4206.153809,450.000000,4.000000,86.000000,,,,0.000000,4.000000,4.000000,4.000000,0.000000,4.000000,66.666664,,,,,,,,,,,,,,,,,,,,,,,,,,,,,,,,,,,,,,,,,,,,,,,,,,,,,,,,,,,,,,,
1649887008.967942,90.000000,0.000000,4216.410156,4221.538574,4132.820313,4216.410156,4213.333496,450.000000,4.000000,86.000000,,,,0.000000,4.000000,4.000000,4.000000,0.000000,4.000000,66.666664,,,,,,,,,,,,,,,,,,,,,,,,,,,,,,,,,,,,,,,,,,,,,,,,,,,,,,,,,,,,,,,
1649887008.975657,91.000000,0.000000,4216.410156,4209.230957,4147.179688,4216.922852,4213.846191,16231.000000,4.000000,86.000000,,,,0.000000,4.000000,4.000000,4.000000,0.000000,4.000000,66.666664,,,,,,,,,,,,,,,,,,,,,,,,,,,,,,,,,,,,,,,,,,,,,,,,,,,,,,,,,,,,,,,
1649887008.983371,92.000000,0.000000,4218.461426,4217.948730,4157.436035,4216.922852,4211.794922,450.000000,4.000000,86.000000,,,,0.000000,4.000000,4.000000,4.000000,0.000000,4.000000,66.666664,,,,,,,,,,,,,,,,,,,,,,,,,,,,,,,,,,,,,,,,,,,,,,,,,,,,,,,,,,,,,,,
1649887008.991186,93.000000,0.000000,4228.205078,4241.538574,4155.384766,4217.436035,4221.538574,450.000000,4.000000,86.000000,,,,0.000000,4.000000,4.000000,4.000000,0.000000,4.000000,66.666664,,,,,,,,,,,,,,,,,,,,,,,,,,,,,,,,,,,,,,,,,,,,,,,,,,,,,,,,,,,,,,,
1649887008.998900,94.000000,0.000000,4241.025879,4237.948730,4151.794922,4217.436035,4228.717773,450.000000,4.000000,86.000000,,,,0.000000,4.000000,4.000000,4.000000,0.000000,4.000000,66.666664,,,,,,,,,,,,,,,,,,,,,,,,,,,,,,,,,,,,,,,,,,,,,,,,,,,,,,,,,,,,,,,
1649887009.006715,95.000000,0.000000,4245.128418,4228.205078,4153.846191,4215.897461,4226.153809,16231.000000,4.000000,86.000000,,,,0.000000,4.000000,4.000000,4.000000,0.000000,4.000000,66.666664,,,,,,,,,,,,,,,,,,,,,,,,,,,,,,,,,,,,,,,,,,,,,,,,,,,,,,,,,,,,,,,
1649887009.014429,96.000000,0.000000,4236.922852,4233.846191,4156.922852,4217.436035,4232.307617,450.000000,4.000000,86.000000,,,,0.000000,4.000000,4.000000,4.000000,0.000000,4.000000,66.666664,,,,,,,,,,,,,,,,,,,,,,,,,,,,,,,,,,,,,,,,,,,,,,,,,,,,,,,,,,,,,,,
1649887009.022244,97.000000,0.000000,4238.974121,4231.794922,4156.410156,4217.948730,4242.563965,450.000000,4.000000,86.000000,,,,0.000000,4.000000,4.000000,4.000000,0.000000,4.000000,66.666664,,,,,,,,,,,,,,,,,,,,,,,,,,,,,,,,,,,,,,,,,,,,,,,,,,,,,,,,,,,,,,,
1649887009.029958,98.000000,0.000000,4258.461426,4225.128418,4152.820313,4215.897461,4250.256348,450.000000,4.000000,86.000000,,,,0.000000,4.000000,4.000000,4.000000,0.000000,4.000000,66.666664,,,,,,,,,,,,,,,,,,,,,,,,,,,,,,,,,,,,,,,,,,,,,,,,,,,,,,,,,,,,,,,
1649887009.037772,99.000000,0.000000,4274.358887,4233.333496,4149.743652,4218.974121,4261.025879,16231.000000,4.000000,86.000000,,,,0.000000,4.000000,4.000000,4.000000,0.000000,4.000000,66.666664,,,,,,,,,,,,,,,,,,,,,,,,,,,,,,,,,,,,,,,,,,,,,,,,,,,,,,,,,,,,,,,
1649887009.045487,100.000000,0.000000,4268.205078,4235.384766,4154.871582,4222.051270,4258.461426,450.000000,4.000000,86.000000,,,,0.000000,4.000000,4.000000,4.000000,0.000000,4.000000,66.666664,,,,,,,,,,,,,,,,,,,,,,,,,,,,,,,,,,,,,,,,,,,,,,,,,,,,,,,,,,,,,,,
1649887009.053301,101.000000,0.000000,4243.077148,4227.692383,4164.615234,4217.948730,4237.436035,450.000000,4.000000,86.000000,,,,0.000000,4.000000,4.000000,4.000000,0.000000,4.000000,66.666664,,,,,,,,,,,,,,,,,,,,,,,,,,,,,,,,,,,,,,,4.942276,1.696336,0.705752,1.550223,1.150056,2.614030,0.581956,0.513138,0.723017,0.673035,2.996339,2.457663,1.018545,0.389181,0.270359,0.013221,0.006174,0.005120,0.006601,0.009940,4.005751,2.750609,1.053177,1.145870,0.509576
1649887009.061016,102.000000,0.000000,4231.794922,4229.743652,4172.820313,4213.846191,4232.307617,450.000000,4.000000,86.000000,,,,0.000000,4.000000,4.000000,4.000000,0.000000,4.000000,66.666664,,,,,,,,,,,,,,,,,,,,,,,,,,,,,,,,,,,,,,,,,,,,,,,,,,,,,,,,,,,,,,,
1649887009.068830,103.000000,0.000000,4243.077148,4235.384766,4181.025879,4217.436035,4236.410156,16231.000000,4.000000,86.000000,,,,0.000000,4.000000,4.000000,4.000000,0.000000,4.000000,66.666664,,,,,,,,,,,,,,,,,,,,,,,,,,,,,,,,,,,,,,,,,,,,,,,,,,,,,,,,,,,,,,,
1649887009.076545,104.000000,0.000000,4248.205078,4232.820313,4188.717773,4220.000000,4228.717773,450.000000,4.000000,86.000000,,,,0.000000,4.000000,4.000000,4.000000,0.000000,4.000000,66.666664,,,,,,,,,,,,,,,,,,,,,,,,,,,,,,,,,,,,,,,,,,,,,,,,,,,,,,,,,,,,,,,
1649887009.084359,105.000000,0.000000,4245.128418,4233.846191,4189.230957,4218.974121,4222.563965,450.000000,4.000000,86.000000,,,,0.000000,4.000000,4.000000,4.000000,0.000000,4.000000,66.666664,,,,,,,,,,,,,,,,,,,,,,,,,,,,,,,,,,,,,,,,,,,,,,,,,,,,,,,,,,,,,,,
1649887009.092074,106.000000,0.000000,4246.666504,4241.025879,4182.051270,4216.922852,4222.051270,450.000000,4.000000,86.000000,,,,0.000000,4.000000,4.000000,4.000000,0.000000,4.000000,66.666664,,,,,,,,,,,,,,,,,,,,,,,,,,,,,,,,,,,,,,,,,,,,,,,,,,,,,,,,,,,,,,,
1649887009.099788,107.000000,0.000000,4235.384766,4241.538574,4176.410156,4216.410156,4222.051270,16231.000000,4.000000,86.000000,,,,0.000000,4.000000,4.000000,4.000000,0.000000,4.000000,66.666664,,,,,,,,,,,,,,,,,,,,,,,,,,,,,,,,,,,,,,,,,,,,,,,,,,,,,,,,,,,,,,,
1649887009.107603,108.000000,0.000000,4233.846191,4245.128418,4177.436035,4217.948730,4231.794922,450.000000,4.000000,86.000000,,,,0.000000,4.000000,4.000000,4.000000,0.000000,4.000000,66.666664,,,,,,,,,,,,,,,,,,,,,,,,,,,,,,,,,,,,,,,,,,,,,,,,,,,,,,,,,,,,,,,
1649887009.115417,109.000000,0.000000,4263.589844,4249.743652,4184.102539,4219.487305,4249.230957,450.000000,4.000000,86.000000,,,,0.000000,4.000000,4.000000,4.000000,0.000000,4.000000,66.666664,,,,,,,,,,,,,,,,,,,,,,,,,,,,,,,,,,,,,,,,,,,,,,,,,,,,,,,,,,,,,,,
1649887009.123132,110.000000,0.000000,4278.974121,4248.205078,4186.153809,4218.974121,4256.410156,450.000000,4.000000,86.000000,,,,0.000000,4.000000,4.000000,4.000000,0.000000,4.000000,66.666664,,,,,,,,,,,,,,,,,,,,,,,,,,,,,,,,,,,,,,,,,,,,,,,,,,,,,,,,,,,,,,,
1649887009.130846,111.000000,0.000000,4268.205078,4242.051270,4182.563965,4218.461426,4249.743652,16231.000000,4.000000,86.000000,,,,0.000000,4.000000,4.000000,4.000000,0.000000,4.000000,66.666664,,,,,,,,,,,,,,,,,,,,,,,,,,,,,,,,,,,,,,,,,,,,,,,,,,,,,,,,,,,,,,,
1649887009.138660,112.000000,0.000000,4252.307617,4233.846191,4178.974121,4216.922852,4244.615234,450.000000,4.000000,86.000000,,,,0.000000,4.000000,4.000000,4.000000,0.000000,4.000000,66.666664,,,,,,,,,,,,,,,,,,,,,,,,,,,,,,,,,,,,,,,,,,,,,,,,,,,,,,,,,,,,,,,
1649887009.146475,113.000000,0.000000,4237.436035,4234.358887,4178.974121,4217.436035,4246.153809,450.000000,4.000000,86.000000,,,,0.000000,4.000000,4.000000,4.000000,0.000000,4.000000,66.666664,,,,,,,,,,,,,,,,,,,,,,,,,,,,,,,,,,,,,,,,,,,,,,,,,,,,,,,,,,,,,,,
1649887009.154189,114.000000,0.000000,4247.179688,4240.512695,4176.922852,4218.974121,4247.692383,450.000000,4.000000,86.000000,,,,0.000000,4.000000,4.000000,4.000000,0.000000,4.000000,66.666664,,,,,,,,,,,,,,,,,,,,,,,,,,,,,,,,,,,,,,,,,,,,,,,,,,,,,,,,,,,,,,,
1649887009.161904,115.000000,0.000000,4271.282227,4242.051270,4174.358887,4218.461426,4246.153809,16231.000000,4.000000,86.000000,,,,0.000000,4.000000,4.000000,4.000000,0.000000,4.000000,66.666664,,,,,,,,,,,,,,,,,,,,,,,,,,,,,,,,,,,,,,,,,,,,,,,,,,,,,,,,,,,,,,,
1649887009.169718,116.000000,0.000000,4260.512695,4235.384766,4182.563965,4216.410156,4242.051270,450.000000,4.000000,86.000000,,,,0.000000,4.000000,4.000000,4.000000,0.000000,4.000000,66.666664,,,,,,,,,,,,,,,,,,,,,,,,,,,,,,,,,,,,,,,,,,,,,,,,,,,,,,,,,,,,,,,
1649887009.177433,117.000000,0.000000,4236.922852,4241.538574,4198.461426,4217.436035,4236.922852,450.000000,4.000000,86.000000,,,,0.000000,4.000000,4.000000,4.000000,0.000000,4.000000,66.666664,,,,,,,,,,,,,,,,,,,,,,,,,,,,,,,,,,,,,,,5.347457,2.145898,0.816251,1.412815,1.067044,2.578563,0.587704,0.477584,0.707249,0.654439,2.636704,2.183651,0.993616,0.412527,0.269917,0.014882,0.009339,0.007621,0.007730,0.012234,4.611606,2.936826,1.113511,1.043483,0.491597
1649887009.185247,118.000000,0.000000,4244.102539,4252.820313,4202.563965,4218.974121,4236.410156,450.000000,4.000000,86.000000,,,,0.000000,4.000000,4.000000,4.000000,0.000000,4.000000,66.666664,,,,,,,,,,,,,,,,,,,,,,,,,,,,,,,,,,,,,,,,,,,,,,,,,,,,,,,,,,,,,,,
1649887009.192962,119.000000,0.000000,4261.025879,4232.820313,4193.333496,4220.000000,4245.641113,16231.000000,4.000000,86.000000,,,,0.000000,4.000000,4.000000,4.000000,0.000000,4.000000,66.666664,,,,,,,,,,,,,,,,,,,,,,,,,,,,,,,,,,,,,,,,,,,,,,,,,,,,,,,,,,,,,,,
1649887009.200776,120.000000,0.000000,4268.717773,4222.051270,4183.589844,4218.974121,4252.820313,450.000000,4.000000,86.000000,,,,0.000000,4.000000,4.000000,4.000000,0.000000,4.000000,66.666664,,,,,,,,,,,,,,,,,,,,,,,,,,,,,,,,,,,,,,,,,,,,,,,,,,,,,,,,,,,,,,,
1649887009.208491,121.000000,0.000000,4272.820313,4255.384766,4183.589844,4217.436035,4252.820313,450.000000,4.000000,86.000000,,,,0.000000,4.000000,4.000000,4.000000,0.000000,4.000000,66.666664,,,,,,,,,,,,,,,,,,,,,,,,,,,,,,,,,,,,,,,,,,,,,,,,,,,,,,,,,,,,,,,
1649887009.216305,122.000000,0.000000,4274.871582,4271.794922,4189.230957,4223.077148,4254.358887,450.000000,4.000000,86.000000,,,,0.000000,4.000000,4.000000,4.000000,0.000000,4.000000,66.666664,,,,,,,,,,,,,,,,,,,,,,,,,,,,,,,,,,,,,,,,,,,,,,,,,,,,,,,,,,,,,,,
1649887009.224119,123.000000,0.000000,4271.794922,4249.743652,4190.256348,4222.563965,4258.461426,16231.000000,4.000000,86.000000,,,,0.000000,4.000000,4.000000,4.000000,0.000000,4.000000,66.666664,,,,,,,,,,,,,,,,,,,,,,,,,,,,,,,,,,,,,,,,,,,,,,,,,,,,,,,,,,,,,,,
1649887009.231834,124.000000,0.000000,4272.820313,4246.153809,4191.794922,4218.461426,4266.153809,450.000000,4.000000,86.000000,,,,0.000000,4.000000,4.000000,4.000000,0.000000,4.000000,66.666664,,,,,,,,,,,,,,,,,,,,,,,,,,,,,,,,,,,,,,,,,,,,,,,,,,,,,,,,,,,,,,,
1649887009.239548,125.000000,0.000000,4270.769043,4257.948730,4193.846191,4223.589844,4267.692383,450.000000,4.000000,86.000000,,,,0.000000,4.000000,4.000000,4.000000,0.000000,4.000000,66.666664,,,,,,,,,,,,,,,,,,,,,,,,,,,,,,,,,,,,,,,,,,,,,,,,,,,,,,,,,,,,,,,
1649887009.247363,126.000000,0.000000,4259.487305,4250.769043,4189.743652,4225.128418,4250.769043,450.000000,4.000000,86.000000,,,,0.000000,4.000000,4.000000,4.000000,0.000000,4.000000,66.666664,,,,,,,,,,,,,,,,,,,,,,,,,,,,,,,,,,,,,,,,,,,,,,,,,,,,,,,,,,,,,,,
1649887009.255077,127.000000,0.000000,4255.384766,4243.077148,4178.461426,4218.461426,4233.846191,241.000000,4.000000,86.000000,,,,0.000000,4.000000,4.000000,4.000000,0.000000,4.000000,66.666664,,,,,,,,,,,,,,,,,,,,,,,,,,,,,,,,,,,,,,,,,,,,,,,,,,,,,,,,,,,,,,,
1649887009.262892,0.000000,0.000000,4250.256348,4231.282227,4169.230957,4215.384766,4232.307617,450.000000,4.000000,86.000000,,,,0.000000,4.000000,4.000000,4.000000,0.000000,4.000000,66.666664,,,,,,,,,,,,,,,,,,,,,,,,,,,,,,,,,,,,,,,,,,,,,,,,,,,,,,,,,,,,,,,
1649887009.270606,1.000000,0.000000,4228.717773,4221.538574,4164.102539,4217.436035,4230.769043,450.000000,4.000000,86.000000,,,,0.000000,4.000000,4.000000,4.000000,0.000000,4.000000,66.666664,,,,,,,,,,,,,,,,,,,,,,,,,,,,,,,,,,,,,,,,,,,,,,,,,,,,,,,,,,,,,,,
1649887009.278421,2.000000,0.000000,4234.358887,4236.922852,4164.102539,4221.025879,4234.358887,16179.000000,4.000000,86.000000,,,,0.000000,4.000000,4.000000,4.000000,0.000000,4.000000,66.666664,,,,,,,,,,,,,,,,,,,,,,,,,,,,,,,,,,,,,,,,,,,,,,,,,,,,,,,,,,,,,,,
1649887009.286135,3.000000,0.000000,4277.948730,4260.000000,4173.333496,4224.615234,4254.358887,450.000000,4.000000,86.000000,,,,0.000000,4.000000,4.000000,4.000000,0.000000,4.000000,66.666664,,,,,,,,,,,,,,,,,,,,,,,,,,,,,,,,,,,,,,,,,,,,,,,,,,,,,,,,,,,,,,,
1649887009.293950,4.000000,0.000000,4288.717773,4257.948730,4182.051270,4222.563965,4258.461426,16206.000000,4.000000,86.000000,,,,0.000000,4.000000,4.000000,4.000000,0.000000,4.000000,66.666664,,,,,,,,,,,,,,,,,,,,,,,,,,,,,,,,,,,,,,,,,,,,,,,,,,,,,,,,,,,,,,,
1649887009.301664,5.000000,0.000000,4251.282227,4244.102539,4181.538574,4216.922852,4237.436035,450.000000,4.000000,86.000000,,,,0.000000,4.000000,4.000000,4.000000,0.000000,4.000000,66.666664,1.000000,66.666664,4.000000,4.000000,4.000000,0.000000,4.000000,,,,,,,,,,,,,,,,,,,,,,,,,,,,,,,,5.562412,2.778309,0.942870,1.250655,0.999364,2.500592,0.621060,0.444756,0.660493,0.617321,2.374441,1.914338,0.947661,0.428164,0.268767,0.017533,0.013692,0.011200,0.009938,0.016174,5.347907,3.257238,1.206996,0.973823,0.471057
1649887009.309379,6.000000,0.000000,4228.205078,4237.948730,4177.436035,4218.974121,4231.282227,16127.000000,4.000000,86.000000,,,,0.000000,4.000000,4.000000,4.000000,0.000000,4.000000,66.666664,,,,,,,,,,,,,,,,,,,,,,,,,,,,,,,,,,,,,,,,,,,,,,,,,,,,,,,,,,,,,,,
1649887009.317193,7.000000,0.000000,4250.256348,4232.820313,4182.563965,4224.615234,4246.666504,450.000000,4.000000,86.000000,,,,0.000000,4.000000,4.000000,4.000000,0.000000,4.000000,66.666664,,,,,,,,,,,,,,,,,,,,,,,,,,,,,,,,,,,,,,,,,,,,,,,,,,,,,,,,,,,,,,,
1649887009.324908,8.000000,0.000000,4276.922852,4238.974121,4188.717773,4221.538574,4251.794922,450.000000,4.000000,86.000000,,,,0.000000,4.000000,4.000000,4.000000,0.000000,4.000000,66.666664,,,,,,,,,,,,,,,,,,,,,,,,,,,,,,,,,,,,,,,,,,,,,,,,,,,,,,,,,,,,,,,
1649887009.332722,9.000000,0.000000,4272.820313,4248.205078,4183.589844,4220.000000,4244.615234,0.000000,4.000000,86.000000,,,,0.000000,4.000000,4.000000,4.000000,0.000000,4.000000,66.666664,,,,,,,,,,,,,,,,,,,,,,,,,,,,,,,,,,,,,,,,,,,,,,,,,,,,,,,,,,,,,,,
1649887009.340536,10.000000,0.000000,4257.948730,4249.743652,4186.666504,4224.102539,4246.153809,450.000000,4.000000,86.000000,,,,0.000000,4.000000,4.000000,4.000000,0.000000,4.000000,66.666664,,,,,,,,,,,,,,,,,,,,,,,,,,,,,,,,,,,,,,,,,,,,,,,,,,,,,,,,,,,,,,,
1649887009.348251,11.000000,0.000000,4251.282227,4254.871582,4198.974121,4224.102539,4253.846191,16197.000000,4.000000,86.000000,,,,0.000000,4.000000,4.000000,4.000000,0.000000,4.000000,66.666664,,,,,,,,,,,,,,,,,,,,,,,,,,,,,,,,,,,,,,,,,,,,,,,,,,,,,,,,,,,,,,,
1649887009.355965,12.000000,0.000000,4253.846191,4258.461426,4195.384766,4220.512695,4254.358887,450.000000,4.000000,86.000000,,,,0.000000,4.000000,4.000000,4.000000,0.000000,4.000000,66.666664,,,,,,,,,,,,,,,,,,,,,,,,,,,,,,,,,,,,,,,,,,,,,,,,,,,,,,,,,,,,,,,
1649887009.363780,13.000000,0.000000,4260.000000,4253.846191,4183.589844,4220.000000,4253.333496,450.000000,4.000000,86.000000,,,,0.000000,4.000000,4.000000,4.000000,0.000000,4.000000,66.666664,,,,,,,,,,,,,,,,,,,,,,,,,,,,,,,,,,,,,,,,,,,,,,,,,,,,,,,,,,,,,,,
1649887009.371594,14.000000,0.000000,4269.230957,4255.384766,4183.589844,4225.128418,4263.077148,450.000000,4.000000,86.000000,,,,0.000000,4.000000,4.000000,4.000000,0.000000,4.000000,66.666664,,,,,,,,,,,,,,,,,,,,,,,,,,,,,,,,,,,,,,,,,,,,,,,,,,,,,,,,,,,,,,,
1649887009.379309,15.000000,0.000000,4278.974121,4255.384766,4183.077148,4227.179688,4276.410156,16197.000000,4.000000,86.000000,,,,0.000000,4.000000,4.000000,4.000000,0.000000,4.000000,66.666664,,,,,,,,,,,,,,,,,,,,,,,,,,,,,,,,,,,,,,,,,,,,,,,,,,,,,,,,,,,,,,,
1649887009.387123,16.000000,0.000000,4277.436035,4240.000000,4178.974121,4223.589844,4281.025879,0.000000,4.000000,86.000000,,,,0.000000,4.000000,4.000000,4.000000,0.000000,4.000000,66.666664,,,,,,,,,,,,,,,,,,,,,,,,,,,,,,,,,,,,,,,,,,,,,,,,,,,,,,,,,,,,,,,
1649887009.394838,17.000000,0.000000,4272.820313,4243.589844,4186.666504,4223.589844,4277.948730,0.000000,4.000000,86.000000,,,,0.000000,4.000000,4.000000,4.000000,0.000000,4.000000,66.666664,,,,,,,,,,,,,,,,,,,,,,,,,,,,,,,,,,,,,,,,,,,,,,,,,,,,,,,,,,,,,,,
1649887009.402552,18.000000,0.000000,4279.487305,4263.589844,4188.717773,4224.102539,4272.307617,0.000000,4.000000,86.000000,,,,0.000000,4.000000,4.000000,4.000000,0.000000,4.000000,66.666664,,,,,,,,,,,,,,,,,,,,,,,,,,,,,,,,,,,,,,,,,,,,,,,,,,,,,,,,,,,,,,,
1649887009.410367,19.000000,0.000000,4279.487305,4260.000000,4181.538574,4221.538574,4264.615234,0.000000,4.000000,86.000000,,,,0.000000,4.000000,4.000000,4.000000,0.000000,4.000000,66.666664,,,,,,,,,,,,,,,,,,,,,,,,,,,,,,,,,,,,,,,,,,,,,,,,,,,,,,,,,,,,,,,
1649887009.418181,20.000000,0.000000,4261.025879,4243.589844,4178.461426,4219.487305,4258.974121,0.000000,4.000000,86.000000,,,,0.000000,4.000000,4.000000,4.000000,0.000000,4.000000,66.666664,,,,,,,,,,,,,,,,,,,,,,,,,,,,,,,,,,,,,,,,,,,,,,,,,,,,,,,,,,,,,,,
1649887009.425896,21.000000,0.000000,4249.230957,4243.589844,4176.410156,4220.512695,4252.820313,0.000000,4.000000,86.000000,,,,0.000000,4.000000,4.000000,4.000000,0.000000,4.000000,66.666664,,,,,,,,,,,,,,,,,,,,,,,,,,,,,,,,,,,,,,,5.739663,3.526510,1.050108,1.132401,0.956808,2.441736,0.700334,0.420649,0.588274,0.561907,2.337849,1.755313,0.889486,0.430191,0.262146,0.020987,0.018084,0.014962,0.013165,0.021250,6.203358,3.768049,1.321810,0.959088,0.445042
1649887009.433610,22.000000,0.000000,4259.487305,4252.307617,4178.974121,4221.025879,4247.179688,0.000000,4.000000,86.000000,,,,0.000000,4.000000,4.000000,4.000000,0.000000,4.000000,66.666664,,,,,,,,,,,,,,,,,,,,,,,,,,,,,,,,,,,,,,,,,,,,,,,,,,,,,,,,,,,,,,,
1649887009.441325,23.000000,0.000000,4266.153809,4246.153809,4187.692383,4222.051270,4253.846191,0.000000,4.000000,86.000000,,,,0.000000,4.000000,4.000000,4.000000,0.000000,4.000000,66.666664,,,,,,,,,,,,,,,,,,,,,,,,,,,,,,,,,,,,,,,,,,,,,,,,,,,,,,,,,,,,,,,
1649887009.449139,24.000000,0.000000,4254.358887,4232.820313,4191.794922,4221.025879,4257.948730,0.000000,4.000000,86.000000,,,,0.000000,4.000000,4.000000,4.000000,0.000000,4.000000,66.666664,,,,,,,,,,,,,,,,,,,,,,,,,,,,,,,,,,,,,,,,,,,,,,,,,,,,,,,,,,,,,,,
1649887009.456853,25.000000,0.000000,4253.846191,4235.384766,4190.256348,4216.410156,4258.461426,0.000000,4.000000,86.000000,,,,0.000000,4.000000,4.000000,4.000000,0.000000,4.000000,66.666664,,,,,,,,,,,,,,,,,,,,,,,,,,,,,,,,,,,,,,,,,,,,,,,,,,,,,,,,,,,,,,,
1649887009.464668,26.000000,0.000000,4278.461426,4247.692383,4194.871582,4218.461426,4273.846191,0.000000,4.000000,86.000000,,,,0.000000,4.000000,4.000000,4.000000,0.000000,4.000000,66.666664,,,,,,,,,,,,,,,,,,,,,,,,,,,,,,,,,,,,,,,,,,,,,,,,,,,,,,,,,,,,,,,
1649887009.472382,27.000000,0.000000,4292.820313,4255.384766,4197.436035,4225.641113,4286.153809,0.000000,4.000000,86.000000,,,,0.000000,4.000000,4.000000,4.000000,0.000000,4.000000,66.666664,,,,,,,,,,,,,,,,,,,,,,,,,,,,,,,,,,,,,,,,,,,,,,,,,,,,,,,,,,,,,,,
1649887009.480197,28.000000,0.000000,4285.641113,4262.563965,4186.153809,4228.205078,4276.922852,0.000000,4.000000,86.000000,,,,0.000000,4.000000,4.000000,4.000000,0.000000,4.000000,66.666664,,,,,,,,,,,,,,,,,,,,,,,,,,,,,,,,,,,,,,,,,,,,,,,,,,,,,,,,,,,,,,,
1649887009.488011,29.000000,0.000000,4273.846191,4258.461426,4175.384766,4222.563965,4264.615234,0.000000,4.000000,86.000000,,,,0.000000,4.000000,4.000000,4.000000,0.000000,4.000000,66.666664,,,,,,,,,,,,,,,,,,,,,,,,,,,,,,,,,,,,,,,,,,,,,,,,,,,,,,,,,,,,,,,
1649887009.495726,30.000000,0.000000,4262.051270,4249.743652,4178.974121,4217.948730,4263.589844,0.000000,4.000000,86.000000,,,,0.000000,4.000000,4.000000,4.000000,0.000000,4.000000,66.666664,,,,,,,,,,,,,,,,,,,,,,,,,,,,,,,,,,,,,,,,,,,,,,,,,,,,,,,,,,,,,,,
1649887009.503540,31.000000,0.000000,4261.538574,4255.384766,4186.666504,4221.538574,4267.179688,0.000000,4.000000,86.000000,,,,0.000000,4.000000,4.000000,4.000000,0.000000,4.000000,66.666664,,,,,,,,,,,,,,,,,,,,,,,,,,,,,,,,,,,,,,,,,,,,,,,,,,,,,,,,,,,,,,,
1649887009.511255,32.000000,0.000000,4266.666504,4260.512695,4187.179688,4222.051270,4260.000000,0.000000,4.000000,86.000000,,,,0.000000,4.000000,4.000000,4.000000,0.000000,4.000000,66.666664,,,,,,,,,,,,,,,,,,,,,,,,,,,,,,,,,,,,,,,,,,,,,,,,,,,,,,,,,,,,,,,
1649887009.518969,33.000000,0.000000,4265.641113,4255.384766,4189.743652,4216.410156,4250.256348,0.000000,4.000000,86.000000,,,,0.000000,4.000000,4.000000,4.000000,0.000000,4.000000,66.666664,,,,,,,,,,,,,,,,,,,,,,,,,,,,,,,,,,,,,,,,,,,,,,,,,,,,,,,,,,,,,,,
1649887009.526784,34.000000,0.000000,4268.717773,4257.948730,4200.000000,4217.948730,4261.025879,0.000000,4.000000,86.000000,,,,0.000000,4.000000,4.000000,4.000000,0.000000,4.000000,66.666664,,,,,,,,,,,,,,,,,,,,,,,,,,,,,,,,,,,,,,,,,,,,,,,,,,,,,,,,,,,,,,,
1649887009.534598,35.000000,0.000000,4276.922852,4267.179688,4206.153809,4226.666504,4273.333496,0.000000,4.000000,86.000000,,,,0.000000,4.000000,4.000000,4.000000,0.000000,4.000000,66.666664,,,,,,,,,,,,,,,,,,,,,,,,,,,,,,,,,,,,,,,,,,,,,,,,,,,,,,,,,,,,,,,
1649887009.542312,36.000000,0.000000,4282.563965,4269.230957,4202.051270,4226.153809,4272.307617,0.000000,4.000000,86.000000,,,,0.000000,4.000000,4.000000,4.000000,0.000000,4.000000,66.666664,,,,,,,,,,,,,,,,,,,,,,,,,,,,,,,,,,,,,,,,,,,,,,,,,,,,,,,,,,,,,,,
1649887009.550027,37.000000,0.000000,4289.230957,4264.615234,4193.846191,4223.077148,4273.846191,0.000000,4.000000,86.000000,,,,0.000000,4.000000,4.000000,4.000000,0.000000,4.000000,66.666664,,,,,,,,,,,,,,,,,,,,,,,,,,,,,,,,,,,,,,,5.949995,4.277408,1.091882,1.134110,0.938113,2.398585,0.833573,0.418444,0.511249,0.502981,2.540297,1.763974,0.825036,0.426286,0.245890,0.024704,0.021336,0.017737,0.017275,0.026665,7.018185,4.449026,1.409387,0.987976,0.411167
1649887009.557841,38.000000,0.000000,4288.205078,4256.922852,4190.256348,4226.153809,4275.897461,0.000000,4.000000,86.000000,,,,0.000000,4.000000,4.000000,4.000000,0.000000,4.000000,66.666664,,,,,,,,,,,,,,,,,,,,,,,,,,,,,,,,,,,,,,,,,,,,,,,,,,,,,,,,,,,,,,,
1649887009.565556,39.000000,0.000000,4276.922852,4261.538574,4197.436035,4226.153809,4272.820313,0.000000,4.000000,86.000000,,,,0.000000,4.000000,4.000000,4.000000,0.000000,4.000000,66.666664,,,,,,,,,,,,,,,,,,,,,,,,,,,,,,,,,,,,,,,,,,,,,,,,,,,,,,,,,,,,,,,
1649887009.573370,40.000000,0.000000,4275.897461,4268.205078,4205.128418,4225.128418,4271.282227,0.000000,4.000000,86.000000,,,,0.000000,4.000000,4.000000,4.000000,0.000000,4.000000,66.666664,,,,,,,,,,,,,,,,,,,,,,,,,,,,,,,,,,,,,,,,,,,,,,,,,,,,,,,,,,,,,,,
1649887009.581085,41.000000,0.000000,4283.589844,4258.974121,4202.563965,4226.666504,4267.179688,0.000000,4.000000,86.000000,,,,0.000000,4.000000,4.000000,4.000000,0.000000,4.000000,66.666664,,,,,,,,,,,,,,,,,,,,,,,,,,,,,,,,,,,,,,,,,,,,,,,,,,,,,,,,,,,,,,,
1649887009.588799,42.000000,0.000000,4282.563965,4260.512695,4197.436035,4224.102539,4266.153809,0.000000,4.000000,86.000000,,,,0.000000,4.000000,4.000000,4.000000,0.000000,4.000000,66.666664,,,,,,,,,,,,,,,,,,,,,,,,,,,,,,,,,,,,,,,,,,,,,,,,,,,,,,,,,,,,,,,
1649887009.596614,43.000000,0.000000,4275.897461,4277.948730,4191.282227,4220.512695,4269.743652,0.000000,4.000000,86.000000,,,,0.000000,4.000000,4.000000,4.000000,0.000000,4.000000,66.666664,,,,,,,,,,,,,,,,,,,,,,,,,,,,,,,,,,,,,,,,,,,,,,,,,,,,,,,,,,,,,,,
1649887009.604428,44.000000,0.000000,4275.897461,4271.282227,4183.077148,4222.563965,4271.794922,0.000000,4.000000,86.000000,,,,0.000000,4.000000,4.000000,4.000000,0.000000,4.000000,66.666664,,,,,,,,,,,,,,,,,,,,,,,,,,,,,,,,,,,,,,,,,,,,,,,,,,,,,,,,,,,,,,,
1649887009.612143,45.000000,0.000000,4275.897461,4248.717773,4178.461426,4220.512695,4273.333496,0.000000,4.000000,86.000000,,,,0.000000,4.000000,4.000000,4.000000,0.000000,4.000000,66.666664,,,,,,,,,,,,,,,,,,,,,,,,,,,,,,,,,,,,,,,,,,,,,,,,,,,,,,,,,,,,,,,
1649887009.619957,46.000000,0.000000,4270.769043,4245.128418,4174.871582,4215.384766,4267.692383,0.000000,4.000000,86.000000,,,,0.000000,4.000000,4.000000,4.000000,0.000000,4.000000,66.666664,,,,,,,,,,,,,,,,,,,,,,,,,,,,,,,,,,,,,,,,,,,,,,,,,,,,,,,,,,,,,,,
1649887009.627672,47.000000,0.000000,4274.871582,4245.128418,4174.871582,4221.538574,4259.487305,0.000000,4.000000,86.000000,,,,0.000000,4.000000,4.000000,4.000000,0.000000,4.000000,66.666664,,,,,,,,,,,,,,,,,,,,,,,,,,,,,,,,,,,,,,,,,,,,,,,,,,,,,,,,,,,,,,,
1649887009.635486,48.000000,0.000000,4286.153809,4247.692383,4183.077148,4228.205078,4265.641113,0.000000,4.000000,86.000000,,,,0.000000,4.000000,4.000000,4.000000,0.000000,4.000000,66.666664,,,,,,,,,,,,,,,,,,,,,,,,,,,,,,,,,,,,,,,,,,,,,,,,,,,,,,,,,,,,,,,
1649887009.643200,49.000000,0.000000,4283.077148,4263.589844,4185.641113,4224.102539,4274.871582,0.000000,4.000000,86.000000,,,,0.000000,4.000000,4.000000,4.000000,0.000000,4.000000,66.666664,,,,,,,,,,,,,,,,,,,,,,,,,,,,,,,,,,,,,,,,,,,,,,,,,,,,,,,,,,,,,,,
1649887009.651015,50.000000,0.000000,4283.589844,4276.410156,4189.230957,4222.563965,4280.512695,0.000000,4.000000,86.000000,,,,0.000000,4.000000,4.000000,4.000000,0.000000,4.000000,66.666664,,,,,,,,,,,,,,,,,,,,,,,,,,,,,,,,,,,,,,,,,,,,,,,,,,,,,,,,,,,,,,,
1649887009.658729,51.000000,0.000000,4295.897461,4280.000000,4205.128418,4229.230957,4294.871582,0.000000,4.000000,86.000000,,,,0.000000,4.000000,4.000000,4.000000,0.000000,4.000000,66.666664,,,,,,,,,,,,,,,,,,,,,,,,,,,,,,,,,,,,,,,,,,,,,,,,,,,,,,,,,,,,,,,
1649887009.666544,52.000000,0.000000,4300.000000,4281.025879,4212.307617,4228.205078,4301.538574,0.000000,4.000000,86.000000,,,,0.000000,4.000000,4.000000,4.000000,0.000000,4.000000,66.666664,,,,,,,,,,,,,,,,,,,,,,,,,,,,,,,,,,,,,,,,,,,,,,,,,,,,,,,,,,,,,,,
1649887009.674258,53.000000,0.000000,4305.641113,4280.512695,4203.589844,4224.102539,4295.384766,0.000000,4.000000,86.000000,,,,0.000000,4.000000,4.000000,4.000000,0.000000,4.000000,66.666664,,,,,,,,,,,,,,,,,,,,,,,,,,,,,,,,,,,,,,,6.118190,4.867789,1.047023,1.297934,0.939710,2.336657,0.999086,0.454241,0.460777,0.463819,2.854351,1.906898,0.760033,0.432361,0.219861,0.028317,0.023043,0.018969,0.022329,0.031880,7.518750,5.154586,1.417924,1.033582,0.371366
1649887009.682073,54.000000,0.000000,4324.102539,4267.179688,4192.307617,4226.153809,4304.102539,0.000000,4.000000,86.000000,,,,0.000000,4.000000,4.000000,4.000000,0.000000,4.000000,66.666664,,,,,,,,,,,,,,,,,,,,,,,,,,,,,,,,,,,,,,,,,,,,,,,,,,,,,,,,,,,,,,,
1649887009.689787,55.000000,0.000000,4341.538574,4251.794922,4186.666504,4225.128418,4320.512695,0.000000,4.000000,86.000000,,,,0.000000,4.000000,4.000000,4.000000,0.000000,4.000000,66.666664,,,,,,,,,,,,,,,,,,,,,,,,,,,,,,,,,,,,,,,,,,,,,,,,,,,,,,,,,,,,,,,
1649887009.697602,56.000000,0.000000,4348.205078,4252.307617,4188.717773,4226.666504,4323.589844,0.000000,4.000000,86.000000,,,,0.000000,4.000000,4.000000,4.000000,0.000000,4.000000,66.666664,,,,,,,,,,,,,,,,,,,,,,,,,,,,,,,,,,,,,,,,,,,,,,,,,,,,,,,,,,,,,,,
1649887009.705316,57.000000,0.000000,4362.563965,4261.538574,4190.769043,4233.846191,4339.487305,0.000000,4.000000,86.000000,,,,0.000000,4.000000,4.000000,4.000000,0.000000,4.000000,66.666664,,,,,,,,,,,,,,,,,,,,,,,,,,,,,,,,,,,,,,,,,,,,,,,,,,,,,,,,,,,,,,,
1649887009.713031,58.000000,0.000000,4386.153809,4268.205078,4185.641113,4232.820313,4371.794922,0.000000,4.000000,86.000000,,,,0.000000,4.000000,4.000000,4.000000,0.000000,4.000000,66.666664,,,,,,,,,,,,,,,,,,,,,,,,,,,,,,,,,,,,,,,,,,,,,,,,,,,,,,,,,,,,,,,
1649887009.720745,59.000000,0.000000,4391.794922,4270.769043,4174.358887,4230.769043,4376.410156,0.000000,4.000000,86.000000,,,,0.000000,4.000000,4.000000,4.000000,0.000000,4.000000,66.666664,,,,,,,,,,,,,,,,,,,,,,,,,,,,,,,,,,,,,,,,,,,,,,,,,,,,,,,,,,,,,,,
1649887009.728560,60.000000,0.000000,4383.077148,4273.846191,4170.769043,4232.820313,4362.051270,0.000000,4.000000,86.000000,,,,0.000000,4.000000,4.000000,4.000000,0.000000,4.000000,66.666664,,,,,,,,,,,,,,,,,,,,,,,,,,,,,,,,,,,,,,,,,,,,,,,,,,,,,,,,,,,,,,,
1649887009.736374,61.000000,0.000000,4384.615234,4269.743652,4183.077148,4230.256348,4363.077148,0.000000,4.000000,86.000000,,,,0.000000,4.000000,4.000000,4.000000,0.000000,4.000000,66.666664,,,,,,,,,,,,,,,,,,,,,,,,,,,,,,,,,,,,,,,,,,,,,,,,,,,,,,,,,,,,,,,
1649887009.744088,62.000000,0.000000,4398.461426,4263.589844,4199.487305,4231.282227,4374.358887,0.000000,4.000000,86.000000,,,,0.000000,4.000000,4.000000,4.000000,0.000000,4.000000,66.666664,,,,,,,,,,,,,,,,,,,,,,,,,,,,,,,,,,,,,,,,,,,,,,,,,,,,,,,,,,,,,,,
1649887009.751903,63.000000,0.000000,4406.666504,4273.846191,4201.025879,4232.820313,4387.179688,0.000000,4.000000,86.000000,,,,0.000000,4.000000,4.000000,4.000000,0.000000,4.000000,66.666664,,,,,,,,,,,,,,,,,,,,,,,,,,,,,,,,,,,,,,,,,,,,,,,,,,,,,,,,,,,,,,,
1649887009.759617,64.000000,0.000000,4416.922852,4278.461426,4196.922852,4232.307617,4396.410156,450.000000,4.000000,86.000000,,,,0.000000,4.000000,4.000000,4.000000,0.000000,4.000000,66.666664,,,,,,,,,,,,,,,,,,,,,,,,,,,,,,,,,,,,,,,,,,,,,,,,,,,,,,,,,,,,,,,
1649887009.767432,65.000000,0.000000,4416.922852,4262.563965,4198.974121,4232.307617,4393.846191,450.000000,4.000000,86.000000,,,,0.000000,4.000000,4.000000,4.000000,0.000000,4.000000,66.666664,,,,,,,,,,,,,,,,,,,,,,,,,,,,,,,,,,,,,,,,,,,,,,,,,,,,,,,,,,,,,,,
1649887009.775146,66.000000,0.000000,4406.666504,4268.205078,4199.487305,4231.794922,4389.743652,16150.000000,4.000000,86.000000,,,,0.000000,4.000000,4.000000,4.000000,0.000000,4.000000,66.666664,,,,,,,,,,,,,,,,,,,,,,,,,,,,,,,,,,,,,,,,,,,,,,,,,,,,,,,,,,,,,,,
1649887009.782961,67.000000,0.000000,4412.820313,4293.846191,4201.025879,4232.307617,4396.922852,450.000000,4.000000,86.000000,,,,0.000000,4.000000,4.000000,4.000000,0.000000,4.000000,66.666664,,,,,,,,,,,,,,,,,,,,,,,,,,,,,,,,,,,,,,,,,,,,,,,,,,,,,,,,,,,,,,,
1649887009.790675,68.000000,0.000000,4411.282227,4280.000000,4203.077148,4233.333496,4388.717773,16182.000000,4.000000,86.000000,,,,0.000000,4.000000,4.000000,4.000000,0.000000,4.000000,66.666664,,,,,,,,,,,,,,,,,,,,,,,,,,,,,,,,,,,,,,,,,,,,,,,,,,,,,,,,,,,,,,,
1649887009.798490,69.000000,0.000000,4387.692383,4257.948730,4196.922852,4230.256348,4365.128418,450.000000,4.000000,86.000000,,,,0.000000,4.000000,4.000000,4.000000,0.000000,4.000000,66.666664,1.000000,66.666664,4.000000,4.000000,4.000000,0.000000,4.000000,,,,,,,,,,,,,,,,,,,,,,,,,,,,,,,,6.052385,5.156273,0.940006,1.596869,0.958099,2.224203,1.153106,0.538552,0.467020,0.462389,3.108840,2.096277,0.695345,0.460544,0.189237,0.032134,0.025157,0.018958,0.028259,0.037034,7.453677,5.687982,1.337699,1.065048,0.332900
1649887009.806204,70.000000,0.000000,4366.153809,4274.871582,4184.615234,4229.230957,4344.615234,16109.000000,4.000000,86.000000,,,,0.000000,4.000000,4.000000,4.000000,0.000000,4.000000,66.666664,,,,,,,,,,,,,,,,,,,,,,,,,,,,,,,,,,,,,,,,,,,,,,,,,,,,,,,,,,,,,,,
1649887009.814019,71.000000,0.000000,4354.358887,4276.410156,4183.589844,4232.820313,4332.307617,450.000000,4.000000,86.000000,,,,0.000000,4.000000,4.000000,4.000000,0.000000,4.000000,66.666664,,,,,,,,,,,,,,,,,,,,,,,,,,,,,,,,,,,,,,,,,,,,,,,,,,,,,,,,,,,,,,,
1649887009.821733,72.000000,0.000000,4336.410156,4250.256348,4190.256348,4226.666504,4324.102539,450.000000,4.000000,86.000000,,,,0.000000,4.000000,4.000000,4.000000,0.000000,4.000000,66.666664,,,,,,,,,,,,,,,,,,,,,,,,,,,,,,,,,,,,,,,,,,,,,,,,,,,,,,,,,,,,,,,
1649887009.829547,73.000000,0.000000,4317.948730,4244.615234,4182.563965,4220.000000,4298.461426,0.000000,4.000000,86.000000,,,,0.000000,4.000000,4.000000,4.000000,0.000000,4.000000,66.666664,,,,,,,,,,,,,,,,,,,,,,,,,,,,,,,,,,,,,,,,,,,,,,,,,,,,,,,,,,,,,,,
1649887009.837262,74.000000,0.000000,4295.897461,4250.769043,4169.230957,4221.538574,4262.563965,450.000000,4.000000,86.000000,,,,0.000000,4.000000,4.000000,4.000000,0.000000,4.000000,66.666664,,,,,,,,,,,,,,,,,,,,,,,,,,,,,,,,,,,,,,,,,,,,,,,,,,,,,,,,,,,,,,,
1649887009.845076,75.000000,0.000000,4260.000000,4253.333496,4174.358887,4219.487305,4241.025879,16232.000000,4.000000,86.000000,,,,0.000000,4.000000,4.000000,4.000000,0.000000,4.000000,66.666664,,,,,,,,,,,,,,,,,,,,,,,,,,,,,,,,,,,,,,,,,,,,,,,,,,,,,,,,,,,,,,,
1649887009.852791,76.000000,0.000000,4248.717773,4257.948730,4181.538574,4221.538574,4240.000000,450.000000,4.000000,86.000000,,,,0.000000,4.000000,4.000000,4.000000,0.000000,4.000000,66.666664,,,,,,,,,,,,,,,,,,,,,,,,,,,,,,,,,,,,,,,,,,,,,,,,,,,,,,,,,,,,,,,
1649887009.860605,77.000000,0.000000,4269.743652,4260.512695,4178.974121,4224.615234,4251.282227,450.000000,4.000000,86.000000,,,,0.000000,4.000000,4.000000,4.000000,0.000000,4.000000,66.666664,,,,,,,,,,,,,,,,,,,,,,,,,,,,,,,,,,,,,,,,,,,,,,,,,,,,,,,,,,,,,,,
1649887009.868320,78.000000,0.000000,4289.743652,4265.128418,4187.692383,4223.589844,4269.230957,450.000000,4.000000,86.000000,,,,0.000000,4.000000,4.000000,4.000000,0.000000,4.000000,66.666664,,,,,,,,,,,,,,,,,,,,,,,,,,,,,,,,,,,,,,,,,,,,,,,,,,,,,,,,,,,,,,,
1649887009.876134,79.000000,0.000000,4288.717773,4269.230957,4195.897461,4223.077148,4277.436035,16232.000000,4.000000,86.000000,,,,0.000000,4.000000,4.000000,4.000000,0.000000,4.000000,66.666664,,,,,,,,,,,,,,,,,,,,,,,,,,,,,,,,,,,,,,,,,,,,,,,,,,,,,,,,,,,,,,,
1649887009.883849,80.000000,0.000000,4278.974121,4260.512695,4180.512695,4223.589844,4265.128418,450.000000,4.000000,86.000000,,,,0.000000,4.000000,4.000000,4.000000,0.000000,4.000000,66.666664,,,,,,,,,,,,,,,,,,,,,,,,,,,,,,,,,,,,,,,,,,,,,,,,,,,,,,,,,,,,,,,
1649887009.891663,81.000000,0.000000,4279.487305,4243.589844,4169.230957,4223.589844,4258.461426,450.000000,4.000000,86.000000,,,,0.000000,4.000000,4.000000,4.000000,0.000000,4.000000,66.666664,,,,,,,,,,,,,,,,,,,,,,,,,,,,,,,,,,,,,,,,,,,,,,,,,,,,,,,,,,,,,,,
1649887009.899378,82.000000,0.000000,4282.051270,4240.512695,4172.820313,4222.051270,4261.538574,450.000000,4.000000,86.000000,,,,0.000000,4.000000,4.000000,4.000000,0.000000,4.000000,66.666664,,,,,,,,,,,,,,,,,,,,,,,,,,,,,,,,,,,,,,,,,,,,,,,,,,,,,,,,,,,,,,,
1649887009.907092,83.000000,0.000000,4268.717773,4255.384766,4174.358887,4220.512695,4252.820313,16232.000000,4.000000,86.000000,,,,0.000000,4.000000,4.000000,4.000000,0.000000,4.000000,66.666664,,,,,,,,,,,,,,,,,,,,,,,,,,,,,,,,,,,,,,,,,,,,,,,,,,,,,,,,,,,,,,,
1649887009.914907,84.000000,0.000000,4250.256348,4268.717773,4182.563965,4221.025879,4244.615234,450.000000,4.000000,86.000000,,,,0.000000,4.000000,4.000000,4.000000,0.000000,4.000000,66.666664,,,,,,,,,,,,,,,,,,,,,,,,,,,,,,,,,,,,,,,,,,,,,,,,,,,,,,,,,,,,,,,
1649887009.922621,85.000000,0.000000,4250.769043,4268.205078,4192.307617,4222.563965,4248.717773,450.000000,4.000000,86.000000,,,,0.000000,4.000000,4.000000,4.000000,0.000000,4.000000,66.666664,,,,,,,,,,,,,,,,,,,,,,,,,,,,,,,,,,,,,,,5.584623,5.085061,0.847238,1.939286,0.984573,2.035228,1.244828,0.686373,0.542875,0.498460,3.139171,2.253641,0.640558,0.511318,0.162124,0.036751,0.030835,0.019655,0.034793,0.042780,6.670550,5.883134,1.217711,1.061029,0.304312
1649887009.930435,86.000000,0.000000,4256.922852,4265.128418,4187.179688,4221.538574,4243.589844,450.000000,4.000000,86.000000,,,,0.000000,4.000000,4.000000,4.000000,0.000000,4.000000,66.666664,,,,,,,,,,,,,,,,,,,,,,,,,,,,,,,,,,,,,,,,,,,,,,,,,,,,,,,,,,,,,,,
1649887009.938150,87.000000,0.000000,4245.641113,4256.922852,4186.153809,4224.615234,4227.692383,16232.000000,4.000000,86.000000,,,,0.000000,4.000000,4.000000,4.000000,0.000000,4.000000,66.666664,,,,,,,,,,,,,,,,,,,,,,,,,,,,,,,,,,,,,,,,,,,,,,,,,,,,,,,,,,,,,,,
1649887009.945964,88.000000,0.000000,4229.743652,4248.717773,4198.974121,4225.128418,4221.025879,450.000000,4.000000,86.000000,,,,0.000000,4.000000,4.000000,4.000000,0.000000,4.000000,66.666664,,,,,,,,,,,,,,,,,,,,,,,,,,,,,,,,,,,,,,,,,,,,,,,,,,,,,,,,,,,,,,,
1649887009.953779,89.000000,0.000000,4232.307617,4253.333496,4200.000000,4215.384766,4225.128418,450.000000,4.000000,86.000000,,,,0.000000,4.000000,4.000000,4.000000,0.000000,4.000000,66.666664,,,,,,,,,,,,,,,,,,,,,,,,,,,,,,,,,,,,,,,,,,,,,,,,,,,,,,,,,,,,,,,
1649887009.961493,90.000000,0.000000,4241.025879,4257.436035,4190.256348,4216.922852,4226.666504,450.000000,4.000000,86.000000,,,,0.000000,4.000000,4.000000,4.000000,0.000000,4.000000,66.666664,,,,,,,,,,,,,,,,,,,,,,,,,,,,,,,,,,,,,,,,,,,,,,,,,,,,,,,,,,,,,,,
1649887009.969208,91.000000,0.000000,4233.846191,4251.282227,4186.666504,4221.025879,4218.974121,16232.000000,4.000000,86.000000,,,,0.000000,4.000000,4.000000,4.000000,0.000000,4.000000,66.666664,,,,,,,,,,,,,,,,,,,,,,,,,,,,,,,,,,,,,,,,,,,,,,,,,,,,,,,,,,,,,,,
1649887009.977022,92.000000,0.000000,4231.282227,4256.410156,4185.641113,4216.922852,4211.794922,450.000000,4.000000,86.000000,,,,0.000000,4.000000,4.000000,4.000000,0.000000,4.000000,66.666664,,,,,,,,,,,,,,,,,,,,,,,,,,,,,,,,,,,,,,,,,,,,,,,,,,,,,,,,,,,,,,,
1649887009.984737,93.000000,0.000000,4240.000000,4266.666504,4184.615234,4216.410156,4212.820313,450.000000,4.000000,86.000000,,,,0.000000,4.000000,4.000000,4.000000,0.000000,4.000000,66.666664,,,,,,,,,,,,,,,,,,,,,,,,,,,,,,,,,,,,,,,,,,,,,,,,,,,,,,,,,,,,,,,
1649887009.992551,94.000000,0.000000,4234.871582,4253.333496,4183.589844,4217.436035,4217.436035,450.000000,4.000000,86.000000,,,,0.000000,4.000000,4.000000,4.000000,0.000000,4.000000,66.666664,,,,,,,,,,,,,,,,,,,,,,,,,,,,,,,,,,,,,,,,,,,,,,,,,,,,,,,,,,,,,,,
1649887010.000266,95.000000,0.000000,4227.179688,4231.794922,4181.538574,4218.461426,4218.461426,16232.000000,4.000000,86.000000,,,,0.000000,4.000000,4.000000,4.000000,0.000000,4.000000,66.666664,,,,,,,,,,,,,,,,,,,,,,,,,,,,,,,,,,,,,,,,,,,,,,,,,,,,,,,,,,,,,,,
1649887010.008080,96.000000,0.000000,4226.153809,4237.948730,4183.077148,4218.461426,4217.436035,450.000000,4.000000,86.000000,,,,0.000000,4.000000,4.000000,4.000000,0.000000,4.000000,66.666664,,,,,,,,,,,,,,,,,,,,,,,,,,,,,,,,,,,,,,,,,,,,,,,,,,,,,,,,,,,,,,,
1649887010.015795,97.000000,0.000000,4232.307617,4256.922852,4187.692383,4216.922852,4215.897461,450.000000,4.000000,86.000000,,,,0.000000,4.000000,4.000000,4.000000,0.000000,4.000000,66.666664,,,,,,,,,,,,,,,,,,,,,,,,,,,,,,,,,,,,,,,,,,,,,,,,,,,,,,,,,,,,,,,
1649887010.023609,98.000000,0.000000,4239.487305,4246.666504,4189.230957,4217.948730,4206.153809,450.000000,4.000000,86.000000,,,,0.000000,4.000000,4.000000,4.000000,0.000000,4.000000,66.666664,,,,,,,,,,,,,,,,,,,,,,,,,,,,,,,,,,,,,,,,,,,,,,,,,,,,,,,,,,,,,,,
1649887010.031323,99.000000,0.000000,4224.102539,4234.358887,4189.230957,4219.487305,4189.743652,16232.000000,4.000000,86.000000,,,,0.000000,4.000000,4.000000,4.000000,0.000000,4.000000,66.666664,,,,,,,,,,,,,,,,,,,,,,,,,,,,,,,,,,,,,,,,,,,,,,,,,,,,,,,,,,,,,,,
1649887010.039138,100.000000,0.000000,4207.692383,4252.307617,4186.153809,4217.436035,4189.743652,450.000000,4.000000,86.000000,,,,0.000000,4.000000,4.000000,4.000000,0.000000,4.000000,66.666664,,,,,,,,,,,,,,,,,,,,,,,,,,,,,,,,,,,,,,,,,,,,,,,,,,,,,,,,,,,,,,,
1649887010.046852,101.000000,0.000000,4235.897461,4261.538574,4190.256348,4217.436035,4213.333496,450.000000,4.000000,86.000000,,,,0.000000,4.000000,4.000000,4.000000,0.000000,4.000000,66.666664,,,,,,,,,,,,,,,,,,,,,,,,,,,,,,,,,,,,,,,5.174768,4.749600,0.851997,2.194024,1.001865,1.804496,1.251605,0.914386,0.667644,0.555444,2.912486,2.357065,0.609181,0.573750,0.145234,0.045408,0.042550,0.024310,0.041254,0.049505,5.698207,5.723216,1.142823,1.021833,0.291507
1649887010.054567,102.000000,0.000000,4265.128418,4253.333496,4194.871582,4221.538574,4229.743652,450.000000,4.000000,86.000000,,,,0.000000,4.000000,4.000000,4.000000,0.000000,4.000000,66.666664,,,,,,,,,,,,,,,,,,,,,,,,,,,,,,,,,,,,,,,,,,,,,,,,,,,,,,,,,,,,,,,
1649887010.062381,103.000000,0.000000,4261.025879,4252.307617,4181.025879,4222.051270,4229.230957,16232.000000,4.000000,86.000000,,,,0.000000,4.000000,4.000000,4.000000,0.000000,4.000000,66.666664,,,,,,,,,,,,,,,,,,,,,,,,,,,,,,,,,,,,,,,,,,,,,,,,,,,,,,,,,,,,,,,
1649887010.070196,104.000000,0.000000,4265.641113,4257.948730,4165.641113,4219.487305,4238.974121,450.000000,4.000000,86.000000,,,,0.000000,4.000000,4.000000,4.000000,0.000000,4.000000,66.666664,,,,,,,,,,,,,,,,,,,,,,,,,,,,,,,,,,,,,,,,,,,,,,,,,,,,,,,,,,,,,,,
1649887010.077910,105.000000,0.000000,4288.717773,4259.487305,4172.820313,4216.922852,4260.512695,450.000000,4.000000,86.000000,,,,0.000000,4.000000,4.000000,4.000000,0.000000,4.000000,66.666664,,,,,,,,,,,,,,,,,,,,,,,,,,,,,,,,,,,,,,,,,,,,,,,,,,,,,,,,,,,,,,,
1649887010.085625,106.000000,0.000000,4298.974121,4264.102539,4190.769043,4218.974121,4276.410156,450.000000,4.000000,86.000000,,,,0.000000,4.000000,4.000000,4.000000,0.000000,4.000000,66.666664,,,,,,,,,,,,,,,,,,,,,,,,,,,,,,,,,,,,,,,,,,,,,,,,,,,,,,,,,,,,,,,
1649887010.093439,107.000000,0.000000,4297.436035,4264.615234,4202.563965,4226.666504,4283.589844,16232.000000,4.000000,86.000000,,,,0.000000,4.000000,4.000000,4.000000,0.000000,4.000000,66.666664,,,,,,,,,,,,,,,,,,,,,,,,,,,,,,,,,,,,,,,,,,,,,,,,,,,,,,,,,,,,,,,
1649887010.101154,108.000000,0.000000,4317.436035,4250.256348,4199.487305,4224.615234,4296.922852,450.000000,4.000000,86.000000,,,,0.000000,4.000000,4.000000,4.000000,0.000000,4.000000,66.666664,,,,,,,,,,,,,,,,,,,,,,,,,,,,,,,,,,,,,,,,,,,,,,,,,,,,,,,,,,,,,,,
1649887010.108968,109.000000,0.000000,4352.307617,4245.641113,4188.205078,4221.538574,4312.820313,450.000000,4.000000,86.000000,,,,0.000000,4.000000,4.000000,4.000000,0.000000,4.000000,66.666664,,,,,,,,,,,,,,,,,,,,,,,,,,,,,,,,,,,,,,,,,,,,,,,,,,,,,,,,,,,,,,,
1649887010.116683,110.000000,0.000000,4366.153809,4258.461426,4186.153809,4228.205078,4316.410156,450.000000,4.000000,86.000000,,,,0.000000,4.000000,4.000000,4.000000,0.000000,4.000000,66.666664,,,,,,,,,,,,,,,,,,,,,,,,,,,,,,,,,,,,,,,,,,,,,,,,,,,,,,,,,,,,,,,
1649887010.124497,111.000000,0.000000,4371.794922,4269.230957,4190.769043,4231.794922,4324.102539,16232.000000,4.000000,86.000000,,,,0.000000,4.000000,4.000000,4.000000,0.000000,4.000000,66.666664,,,,,,,,,,,,,,,,,,,,,,,,,,,,,,,,,,,,,,,,,,,,,,,,,,,,,,,,,,,,,,,
1649887010.132211,112.000000,0.000000,4389.743652,4262.563965,4181.538574,4229.743652,4350.256348,450.000000,4.000000,86.000000,,,,0.000000,4.000000,4.000000,4.000000,0.000000,4.000000,66.666664,,,,,,,,,,,,,,,,,,,,,,,,,,,,,,,,,,,,,,,,,,,,,,,,,,,,,,,,,,,,,,,
1649887010.140026,113.000000,0.000000,4405.128418,4247.692383,4166.153809,4231.282227,4377.436035,450.000000,4.000000,86.000000,,,,0.000000,4.000000,4.000000,4.000000,0.000000,4.000000,66.666664,,,,,,,,,,,,,,,,,,,,,,,,,,,,,,,,,,,,,,,,,,,,,,,,,,,,,,,,,,,,,,,
1649887010.147740,114.000000,0.000000,4420.000000,4239.487305,4167.179688,4232.307617,4389.743652,450.000000,4.000000,86.000000,,,,0.000000,4.000000,4.000000,4.000000,0.000000,4.000000,66.666664,,,,,,,,,,,,,,,,,,,,,,,,,,,,,,,,,,,,,,,,,,,,,,,,,,,,,,,,,,,,,,,
1649887010.155555,115.000000,0.000000,4443.589844,4245.641113,4174.871582,4229.230957,4392.820313,16232.000000,4.000000,86.000000,,,,0.000000,4.000000,4.000000,4.000000,0.000000,4.000000,66.666664,,,,,,,,,,,,,,,,,,,,,,,,,,,,,,,,,,,,,,,,,,,,,,,,,,,,,,,,,,,,,,,
1649887010.163269,116.000000,0.000000,4452.307617,4251.282227,4177.436035,4231.794922,4395.897461,450.000000,4.000000,86.000000,,,,0.000000,4.000000,4.000000,4.000000,0.000000,4.000000,66.666664,,,,,,,,,,,,,,,,,,,,,,,,,,,,,,,,,,,,,,,,,,,,,,,,,,,,,,,,,,,,,,,
1649887010.171084,117.000000,0.000000,4443.077148,4246.666504,4186.666504,4233.333496,4403.077148,450.000000,4.000000,86.000000,,,,0.000000,4.000000,4.000000,4.000000,0.000000,4.000000,66.666664,,,,,,,,,,,,,,,,,,,,,,,,,,,,,,,,,,,,,,,5.810071,4.363525,1.001000,2.258243,0.994870,1.574245,1.195114,1.230189,0.798995,0.610044,2.481112,2.433412,0.597250,0.630412,0.141420,0.062353,0.059964,0.035212,0.046525,0.056722,5.681352,5.342223,1.172465,0.969817,0.295008
1649887010.178798,118.000000,0.000000,4439.487305,4256.410156,4194.871582,4232.820313,4403.589844,450.000000,4.000000,86.000000,,,,0.000000,4.000000,4.000000,4.000000,0.000000,4.000000,66.666664,,,,,,,,,,,,,,,,,,,,,,,,,,,,,,,,,,,,,,,,,,,,,,,,,,,,,,,,,,,,,,,
1649887010.186613,119.000000,0.000000,4427.179688,4268.205078,4190.769043,4232.820313,4375.897461,16232.000000,4.000000,86.000000,,,,0.000000,4.000000,4.000000,4.000000,0.000000,4.000000,66.666664,,,,,,,,,,,,,,,,,,,,,,,,,,,,,,,,,,,,,,,,,,,,,,,,,,,,,,,,,,,,,,,
1649887010.194327,120.000000,0.000000,4389.743652,4258.974121,4184.102539,4230.256348,4340.000000,450.000000,4.000000,86.000000,,,,0.000000,4.000000,4.000000,4.000000,0.000000,4.000000,66.666664,,,,,,,,,,,,,,,,,,,,,,,,,,,,,,,,,,,,,,,,,,,,,,,,,,,,,,,,,,,,,,,
1649887010.202142,121.000000,0.000000,4365.128418,4252.307617,4183.077148,4228.205078,4328.205078,450.000000,4.000000,86.000000,,,,0.000000,4.000000,4.000000,4.000000,0.000000,4.000000,66.666664,,,,,,,,,,,,,,,,,,,,,,,,,,,,,,,,,,,,,,,,,,,,,,,,,,,,,,,,,,,,,,,
1649887010.209856,122.000000,0.000000,4370.769043,4263.589844,4181.025879,4232.820313,4328.205078,450.000000,4.000000,86.000000,,,,0.000000,4.000000,4.000000,4.000000,0.000000,4.000000,66.666664,,,,,,,,,,,,,,,,,,,,,,,,,,,,,,,,,,,,,,,,,,,,,,,,,,,,,,,,,,,,,,,
1649887010.217670,123.000000,0.000000,4348.717773,4274.871582,4182.563965,4230.769043,4310.256348,16232.000000,4.000000,86.000000,,,,0.000000,4.000000,4.000000,4.000000,0.000000,4.000000,66.666664,,,,,,,,,,,,,,,,,,,,,,,,,,,,,,,,,,,,,,,,,,,,,,,,,,,,,,,,,,,,,,,
1649887010.225385,124.000000,0.000000,4303.589844,4263.077148,4190.769043,4221.538574,4283.077148,450.000000,4.000000,86.000000,,,,0.000000,4.000000,4.000000,4.000000,0.000000,4.000000,66.666664,,,,,,,,,,,,,,,,,,,,,,,,,,,,,,,,,,,,,,,,,,,,,,,,,,,,,,,,,,,,,,,
1649887010.233100,125.000000,0.000000,4298.974121,4246.666504,4192.820313,4224.102539,4267.692383,450.000000,4.000000,86.000000,,,,0.000000,4.000000,4.000000,4.000000,0.000000,4.000000,66.666664,,,,,,,,,,,,,,,,,,,,,,,,,,,,,,,,,,,,,,,,,,,,,,,,,,,,,,,,,,,,,,,
1649887010.240914,126.000000,0.000000,4300.512695,4247.692383,4180.512695,4227.179688,4258.974121,450.000000,4.000000,86.000000,,,,0.000000,4.000000,4.000000,4.000000,0.000000,4.000000,66.666664,,,,,,,,,,,,,,,,,,,,,,,,,,,,,,,,,,,,,,,,,,,,,,,,,,,,,,,,,,,,,,,
1649887010.248628,127.000000,0.000000,4273.846191,4244.615234,4165.128418,4218.461426,4252.307617,241.000000,4.000000,86.000000,,,,0.000000,4.000000,4.000000,4.000000,0.000000,4.000000,66.666664,,,,,,,,,,,,,,,,,,,,,,,,,,,,,,,,,,,,,,,,,,,,,,,,,,,,,,,,,,,,,,,
1649887010.256443,0.000000,0.000000,4255.897461,4236.410156,4158.461426,4214.358887,4238.974121,450.000000,4.000000,86.000000,,,,0.000000,4.000000,4.000000,4.000000,0.000000,4.000000,66.666664,,,,,,,,,,,,,,,,,,,,,,,,,,,,,,,,,,,,,,,,,,,,,,,,,,,,,,,,,,,,,,,
1649887010.264157,1.000000,0.000000,4250.256348,4245.128418,4156.410156,4218.974121,4217.948730,450.000000,4.000000,86.000000,,,,0.000000,4.000000,4.000000,4.000000,0.000000,4.000000,66.666664,,,,,,,,,,,,,,,,,,,,,,,,,,,,,,,,,,,,,,,,,,,,,,,,,,,,,,,,,,,,,,,
1649887010.271972,2.000000,0.000000,4243.589844,4257.436035,4157.436035,4216.922852,4204.615234,16248.000000,4.000000,86.000000,,,,0.000000,4.000000,4.000000,4.000000,0.000000,4.000000,66.666664,,,,,,,,,,,,,,,,,,,,,,,,,,,,,,,,,,,,,,,,,,,,,,,,,,,,,,,,,,,,,,,
1649887010.279686,3.000000,0.000000,4251.282227,4264.615234,4170.256348,4216.922852,4208.717773,450.000000,4.000000,86.000000,,,,0.000000,4.000000,4.000000,4.000000,0.000000,4.000000,66.666664,,,,,,,,,,,,,,,,,,,,,,,,,,,,,,,,,,,,,,,,,,,,,,,,,,,,,,,,,,,,,,,
1649887010.287501,4.000000,0.000000,4255.384766,4266.153809,4179.487305,4221.025879,4218.974121,16236.000000,4.000000,86.000000,,,,0.000000,4.000000,4.000000,4.000000,0.000000,4.000000,66.666664,,,,,,,,,,,,,,,,,,,,,,,,,,,,,,,,,,,,,,,,,,,,,,,,,,,,,,,,,,,,,,,
1649887010.295315,5.000000,0.000000,4235.897461,4246.153809,4172.820313,4219.487305,4214.358887,450.000000,4.000000,86.000000,,,,0.000000,4.000000,4.000000,4.000000,0.000000,4.000000,66.666664,1.000000,66.666664,4.000000,4.000000,4.000000,0.000000,4.000000,,,,,,,,,,,,,,,,,,,,,,,,,,,,,,,,8.228087,4.178917,1.240222,2.108545,0.959688,1.414067,1.109520,1.602064,0.896699,0.646002,2.025100,2.512385,0.600471,0.666519,0.150189,0.089383,0.079604,0.052188,0.049482,0.063080,7.560836,4.983727,1.280973,0.938328,0.309870
1649887010.303030,6.000000,0.000000,4226.666504,4236.922852,4174.871582,4218.461426,4204.102539,16188.000000,4.000000,86.000000,,,,0.000000,4.000000,4.000000,4.000000,0.000000,4.000000,66.666664,,,,,,,,,,,,,,,,,,,,,,,,,,,,,,,,,,,,,,,,,,,,,,,,,,,,,,,,,,,,,,,
1649887010.310744,7.000000,0.000000,4228.717773,4257.436035,4184.615234,4217.948730,4200.000000,450.000000,4.000000,86.000000,,,,0.000000,4.000000,4.000000,4.000000,0.000000,4.000000,66.666664,,,,,,,,,,,,,,,,,,,,,,,,,,,,,,,,,,,,,,,,,,,,,,,,,,,,,,,,,,,,,,,
1649887010.318559,8.000000,0.000000,4224.102539,4260.512695,4181.025879,4217.948730,4197.436035,450.000000,4.000000,86.000000,,,,0.000000,4.000000,4.000000,4.000000,0.000000,4.000000,66.666664,,,,,,,,,,,,,,,,,,,,,,,,,,,,,,,,,,,,,,,,,,,,,,,,,,,,,,,,,,,,,,,
1649887010.326373,9.000000,0.000000,4220.000000,4246.153809,4172.820313,4217.948730,4197.948730,0.000000,4.000000,86.000000,,,,0.000000,4.000000,4.000000,4.000000,0.000000,4.000000,66.666664,,,,,,,,,,,,,,,,,,,,,,,,,,,,,,,,,,,,,,,,,,,,,,,,,,,,,,,,,,,,,,,
1649887010.334087,10.000000,0.000000,4221.025879,4244.615234,4167.692383,4217.436035,4197.948730,450.000000,4.000000,86.000000,,,,0.000000,4.000000,4.000000,4.000000,0.000000,4.000000,66.666664,,,,,,,,,,,,,,,,,,,,,,,,,,,,,,,,,,,,,,,,,,,,,,,,,,,,,,,,,,,,,,,
1649887010.341802,11.000000,0.000000,4218.974121,4241.025879,4157.948730,4216.410156,4188.717773,16171.000000,4.000000,86.000000,,,,0.000000,4.000000,4.000000,4.000000,0.000000,4.000000,66.666664,,,,,,,,,,,,,,,,,,,,,,,,,,,,,,,,,,,,,,,,,,,,,,,,,,,,,,,,,,,,,,,
1649887010.349616,12.000000,0.000000,4207.179688,4228.205078,4149.743652,4215.897461,4182.051270,450.000000,4.000000,86.000000,,,,0.000000,4.000000,4.000000,4.000000,0.000000,4.000000,66.666664,,,,,,,,,,,,,,,,,,,,,,,,,,,,,,,,,,,,,,,,,,,,,,,,,,,,,,,,,,,,,,,
1649887010.357331,13.000000,0.000000,4200.512695,4224.102539,4156.922852,4216.410156,4185.128418,450.000000,4.000000,86.000000,,,,0.000000,4.000000,4.000000,4.000000,0.000000,4.000000,66.666664,,,,,,,,,,,,,,,,,,,,,,,,,,,,,,,,,,,,,,,,,,,,,,,,,,,,,,,,,,,,,,,
1649887010.365045,14.000000,0.000000,4202.563965,4241.025879,4170.769043,4216.410156,4181.538574,450.000000,4.000000,86.000000,,,,0.000000,4.000000,4.000000,4.000000,0.000000,4.000000,66.666664,,,,,,,,,,,,,,,,,,,,,,,,,,,,,,,,,,,,,,,,,,,,,,,,,,,,,,,,,,,,,,,
1649887010.372860,15.000000,0.000000,4192.820313,4260.512695,4174.871582,4216.410156,4164.615234,16171.000000,4.000000,86.000000,,,,0.000000,4.000000,4.000000,4.000000,0.000000,4.000000,66.666664,,,,,,,,,,,,,,,,,,,,,,,,,,,,,,,,,,,,,,,,,,,,,,,,,,,,,,,,,,,,,,,
1649887010.380574,16.000000,0.000000,4173.333496,4250.256348,4167.692383,4216.410156,4149.230957,0.000000,4.000000,86.000000,,,,0.000000,4.000000,4.000000,4.000000,0.000000,4.000000,66.666664,,,,,,,,,,,,,,,,,,,,,,,,,,,,,,,,,,,,,,,,,,,,,,,,,,,,,,,,,,,,,,,
1649887010.388389,17.000000,0.000000,4177.436035,4237.948730,4167.692383,4216.410156,4154.871582,0.000000,4.000000,86.000000,,,,0.000000,4.000000,4.000000,4.000000,0.000000,4.000000,66.666664,,,,,,,,,,,,,,,,,,,,,,,,,,,,,,,,,,,,,,,,,,,,,,,,,,,,,,,,,,,,,,,
1649887010.396103,18.000000,0.000000,4200.512695,4254.871582,4178.461426,4217.436035,4175.384766,0.000000,4.000000,86.000000,,,,0.000000,4.000000,4.000000,4.000000,0.000000,4.000000,66.666664,,,,,,,,,,,,,,,,,,,,,,,,,,,,,,,,,,,,,,,,,,,,,,,,,,,,,,,,,,,,,,,
1649887010.403918,19.000000,0.000000,4209.230957,4259.487305,4185.128418,4217.948730,4181.025879,0.000000,4.000000,86.000000,,,,0.000000,4.000000,4.000000,4.000000,0.000000,4.000000,66.666664,,,,,,,,,,,,,,,,,,,,,,,,,,,,,,,,,,,,,,,,,,,,,,,,,,,,,,,,,,,,,,,
1649887010.411632,20.000000,0.000000,4214.871582,4248.717773,4184.615234,4217.436035,4178.974121,0.000000,4.000000,86.000000,,,,0.000000,4.000000,4.000000,4.000000,0.000000,4.000000,66.666664,,,,,,,,,,,,,,,,,,,,,,,,,,,,,,,,,,,,,,,,,,,,,,,,,,,,,,,,,,,,,,,
1649887010.419447,21.000000,0.000000,4221.025879,4247.692383,4181.538574,4217.436035,4188.205078,0.000000,4.000000,86.000000,,,,0.000000,4.000000,4.000000,4.000000,0.000000,4.000000,66.666664,,,,,,,,,,,,,,,,,,,,,,,,,,,,,,,,,,,,,,,12.951200,4.294317,1.448436,1.801774,0.903761,1.327640,1.017877,1.960701,0.944140,0.660372,1.680334,2.617991,0.637774,0.677593,0.167973,0.127453,0.096172,0.072255,0.049590,0.067204,11.948725,4.811944,1.391482,0.947139,0.330485
1649887010.427261,22.000000,0.000000,4216.410156,4247.179688,4178.461426,4217.436035,4194.358887,0.000000,4.000000,86.000000,,,,0.000000,4.000000,4.000000,4.000000,0.000000,4.000000,66.666664,,,,,,,,,,,,,,,,,,,,,,,,,,,,,,,,,,,,,,,,,,,,,,,,,,,,,,,,,,,,,,,
1649887010.434975,23.000000,0.000000,4221.538574,4251.282227,4180.512695,4217.436035,4202.563965,0.000000,4.000000,86.000000,,,,0.000000,4.000000,4.000000,4.000000,0.000000,4.000000,66.666664,,,,,,,,,,,,,,,,,,,,,,,,,,,,,,,,,,,,,,,,,,,,,,,,,,,,,,,,,,,,,,,
1649887010.442790,24.000000,0.000000,4227.692383,4254.871582,4186.153809,4217.436035,4212.307617,0.000000,4.000000,86.000000,,,,0.000000,4.000000,4.000000,4.000000,0.000000,4.000000,66.666664,,,,,,,,,,,,,,,,,,,,,,,,,,,,,,,,,,,,,,,,,,,,,,,,,,,,,,,,,,,,,,,
1649887010.450504,25.000000,0.000000,4214.358887,4250.769043,4186.666504,4217.436035,4195.897461,0.000000,4.000000,86.000000,,,,0.000000,4.000000,4.000000,4.000000,0.000000,4.000000,66.666664,,,,,,,,,,,,,,,,,,,,,,,,,,,,,,,,,,,,,,,,,,,,,,,,,,,,,,,,,,,,,,,
1649887010.458219,26.000000,0.000000,4203.589844,4248.205078,4187.692383,4217.436035,4174.358887,0.000000,4.000000,86.000000,,,,0.000000,4.000000,4.000000,4.000000,0.000000,4.000000,66.666664,,,,,,,,,,,,,,,,,,,,,,,,,,,,,,,,,,,,,,,,,,,,,,,,,,,,,,,,,,,,,,,
1649887010.466033,27.000000,0.000000,4206.666504,4253.333496,4194.358887,4217.948730,4178.461426,0.000000,4.000000,86.000000,,,,0.000000,4.000000,4.000000,4.000000,0.000000,4.000000,66.666664,,,,,,,,,,,,,,,,,,,,,,,,,,,,,,,,,,,,,,,,,,,,,,,,,,,,,,,,,,,,,,,
1649887010.473748,28.000000,0.000000,4203.077148,4260.512695,4195.384766,4218.461426,4185.641113,0.000000,4.000000,86.000000,,,,0.000000,4.000000,4.000000,4.000000,0.000000,4.000000,66.666664,,,,,,,,,,,,,,,,,,,,,,,,,,,,,,,,,,,,,,,,,,,,,,,,,,,,,,,,,,,,,,,
1649887010.481562,29.000000,0.000000,4201.538574,4268.205078,4186.153809,4218.461426,4183.589844,0.000000,4.000000,86.000000,,,,0.000000,4.000000,4.000000,4.000000,0.000000,4.000000,66.666664,,,,,,,,,,,,,,,,,,,,,,,,,,,,,,,,,,,,,,,,,,,,,,,,,,,,,,,,,,,,,,,
1649887010.489277,30.000000,0.000000,4213.846191,4267.179688,4182.051270,4218.974121,4194.871582,0.000000,4.000000,86.000000,,,,0.000000,4.000000,4.000000,4.000000,0.000000,4.000000,66.666664,,,,,,,,,,,,,,,,,,,,,,,,,,,,,,,,,,,,,,,,,,,,,,,,,,,,,,,,,,,,,,,
1649887010.497091,31.000000,0.000000,4226.153809,4255.897461,4184.102539,4217.436035,4209.743652,0.000000,4.000000,86.000000,,,,0.000000,4.000000,4.000000,4.000000,0.000000,4.000000,66.666664,,,,,,,,,,,,,,,,,,,,,,,,,,,,,,,,,,,,,,,,,,,,,,,,,,,,,,,,,,,,,,,
1649887010.504806,32.000000,0.000000,4234.871582,4257.436035,4187.179688,4218.974121,4215.384766,0.000000,4.000000,86.000000,,,,0.000000,4.000000,4.000000,4.000000,0.000000,4.000000,66.666664,,,,,,,,,,,,,,,,,,,,,,,,,,,,,,,,,,,,,,,,,,,,,,,,,,,,,,,,,,,,,,,
1649887010.512620,33.000000,0.000000,4243.589844,4262.051270,4189.743652,4224.102539,4215.384766,0.000000,4.000000,86.000000,,,,0.000000,4.000000,4.000000,4.000000,0.000000,4.000000,66.666664,,,,,,,,,,,,,,,,,,,,,,,,,,,,,,,,,,,,,,,,,,,,,,,,,,,,,,,,,,,,,,,
1649887010.520434,34.000000,0.000000,4239.487305,4252.307617,4188.717773,4223.077148,4210.769043,0.000000,4.000000,86.000000,,,,0.000000,4.000000,4.000000,4.000000,0.000000,4.000000,66.666664,,,,,,,,,,,,,,,,,,,,,,,,,,,,,,,,,,,,,,,,,,,,,,,,,,,,,,,,,,,,,,,
1649887010.528149,35.000000,0.000000,4228.717773,4251.794922,4184.615234,4216.922852,4209.743652,0.000000,4.000000,86.000000,,,,0.000000,4.000000,4.000000,4.000000,0.000000,4.000000,66.666664,,,,,,,,,,,,,,,,,,,,,,,,,,,,,,,,,,,,,,,,,,,,,,,,,,,,,,,,,,,,,,,
1649887010.535863,36.000000,0.000000,4225.641113,4260.512695,4183.077148,4216.410156,4211.794922,0.000000,4.000000,86.000000,,,,0.000000,4.000000,4.000000,4.000000,0.000000,4.000000,66.666664,,,,,,,,,,,,,,,,,,,,,,,,,,,,,,,,,,,,,,,,,,,,,,,,,,,,,,,,,,,,,,,
1649887010.543778,37.000000,0.000000,4226.153809,4260.000000,4184.615234,4219.487305,4212.307617,0.000000,4.000000,86.000000,,,,0.000000,4.000000,4.000000,4.000000,0.000000,4.000000,66.666664,,,,,,,,,,,,,,,,,,,,,,,,,,,,,,,,,,,,,,,20.097446,4.620427,1.503931,1.442340,0.843610,1.300546,0.954242,2.207551,0.942639,0.661250,1.524588,2.733303,0.723532,0.668733,0.190251,0.176982,0.105193,0.089927,0.047003,0.068463,18.794289,4.832518,1.431233,0.986467,0.355869
1649887010.551592,38.000000,0.000000,4221.538574,4257.436035,4186.666504,4217.948730,4208.205078,0.000000,4.000000,86.000000,,,,0.000000,4.000000,4.000000,4.000000,0.000000,4.000000,66.666664,,,,,,,,,,,,,,,,,,,,,,,,,,,,,,,,,,,,,,,,,,,,,,,,,,,,,,,,,,,,,,,
1649887010.559407,39.000000,0.000000,4217.948730,4259.487305,4186.153809,4215.897461,4198.461426,0.000000,4.000000,86.000000,,,,0.000000,4.000000,4.000000,4.000000,0.000000,4.000000,66.666664,,,,,,,,,,,,,,,,,,,,,,,,,,,,,,,,,,,,,,,,,,,,,,,,,,,,,,,,,,,,,,,
1649887010.567121,40.000000,0.000000,4210.769043,4253.333496,4182.051270,4217.436035,4188.205078,0.000000,4.000000,86.000000,,,,0.000000,4.000000,4.000000,4.000000,0.000000,4.000000,66.666664,,,,,,,,,,,,,,,,,,,,,,,,,,,,,,,,,,,,,,,,,,,,,,,,,,,,,,,,,,,,,,,
1649887010.574935,41.000000,0.000000,4195.384766,4248.717773,4172.307617,4218.461426,4182.051270,0.000000,4.000000,86.000000,,,,0.000000,4.000000,4.000000,4.000000,0.000000,4.000000,66.666664,,,,,,,,,,,,,,,,,,,,,,,,,,,,,,,,,,,,,,,,,,,,,,,,,,,,,,,,,,,,,,,
1649887010.582650,42.000000,0.000000,4193.846191,4256.410156,4160.512695,4217.948730,4177.948730,0.000000,4.000000,86.000000,,,,0.000000,4.000000,4.000000,4.000000,0.000000,4.000000,66.666664,,,,,,,,,,,,,,,,,,,,,,,,,,,,,,,,,,,,,,,,,,,,,,,,,,,,,,,,,,,,,,,
1649887010.590464,43.000000,0.000000,4207.692383,4254.871582,4155.384766,4216.922852,4181.025879,0.000000,4.000000,86.000000,,,,0.000000,4.000000,4.000000,4.000000,0.000000,4.000000,66.666664,,,,,,,,,,,,,,,,,,,,,,,,,,,,,,,,,,,,,,,,,,,,,,,,,,,,,,,,,,,,,,,
1649887010.598179,44.000000,0.000000,4218.974121,4249.743652,4157.948730,4217.948730,4198.974121,0.000000,4.000000,86.000000,,,,0.000000,4.000000,4.000000,4.000000,0.000000,4.000000,66.666664,,,,,,,,,,,,,,,,,,,,,,,,,,,,,,,,,,,,,,,,,,,,,,,,,,,,,,,,,,,,,,,
1649887010.605993,45.000000,0.000000,4225.128418,4251.794922,4153.846191,4218.461426,4205.641113,0.000000,4.000000,86.000000,,,,0.000000,4.000000,4.000000,4.000000,0.000000,4.000000,66.666664,,,,,,,,,,,,,,,,,,,,,,,,,,,,,,,,,,,,,,,,,,,,,,,,,,,,,,,,,,,,,,,
1649887010.613708,46.000000,0.000000,4218.461426,4242.563965,4145.641113,4217.948730,4192.820313,0.000000,4.000000,86.000000,,,,0.000000,4.000000,4.000000,4.000000,0.000000,4.000000,66.666664,,,,,,,,,,,,,,,,,,,,,,,,,,,,,,,,,,,,,,,,,,,,,,,,,,,,,,,,,,,,,,,
1649887010.621422,47.000000,0.000000,4210.256348,4237.948730,4148.717773,4216.922852,4193.333496,0.000000,4.000000,86.000000,,,,0.000000,4.000000,4.000000,4.000000,0.000000,4.000000,66.666664,,,,,,,,,,,,,,,,,,,,,,,,,,,,,,,,,,,,,,,,,,,,,,,,,,,,,,,,,,,,,,,
1649887010.629237,48.000000,0.000000,4213.333496,4236.922852,4158.461426,4217.436035,4204.102539,0.000000,4.000000,86.000000,,,,0.000000,4.000000,4.000000,4.000000,0.000000,4.000000,66.666664,,,,,,,,,,,,,,,,,,,,,,,,,,,,,,,,,,,,,,,,,,,,,,,,,,,,,,,,,,,,,,,
1649887010.637051,49.000000,0.000000,4206.153809,4230.256348,4163.077148,4218.461426,4194.871582,0.000000,4.000000,86.000000,,,,0.000000,4.000000,4.000000,4.000000,0.000000,4.000000,66.666664,,,,,,,,,,,,,,,,,,,,,,,,,,,,,,,,,,,,,,,,,,,,,,,,,,,,,,,,,,,,,,,
1649887010.644766,50.000000,0.000000,4202.051270,4230.769043,4162.051270,4217.948730,4185.128418,0.000000,4.000000,86.000000,,,,0.000000,4.000000,4.000000,4.000000,0.000000,4.000000,66.666664,,,,,,,,,,,,,,,,,,,,,,,,,,,,,,,,,,,,,,,,,,,,,,,,,,,,,,,,,,,,,,,
1649887010.652480,51.000000,0.000000,4213.846191,4236.410156,4153.333496,4216.922852,4191.794922,0.000000,4.000000,86.000000,,,,0.000000,4.000000,4.000000,4.000000,0.000000,4.000000,66.666664,,,,,,,,,,,,,,,,,,,,,,,,,,,,,,,,,,,,,,,,,,,,,,,,,,,,,,,,,,,,,,,
1649887010.660295,52.000000,0.000000,4212.820313,4238.461426,4148.717773,4215.897461,4196.410156,0.000000,4.000000,86.000000,,,,0.000000,4.000000,4.000000,4.000000,0.000000,4.000000,66.666664,,,,,,,,,,,,,,,,,,,,,,,,,,,,,,,,,,,,,,,,,,,,,,,,,,,,,,,,,,,,,,,
1649887010.668009,53.000000,0.000000,4213.846191,4241.025879,4152.820313,4216.922852,4197.948730,0.000000,4.000000,86.000000,,,,0.000000,4.000000,4.000000,4.000000,0.000000,4.000000,66.666664,,,,,,,,,,,,,,,,,,,,,,,,,,,,,,,,,,,,,,,28.983896,5.005409,1.353934,1.132639,0.796856,1.287887,0.953671,2.263826,0.917227,0.658919,1.516462,2.809836,0.849583,0.652661,0.212916,0.234343,0.104778,0.099263,0.042369,0.067196,27.185623,4.972290,1.364442,1.023142,0.387717
1649887010.675823,54.000000,0.000000,4222.563965,4237.436035,4148.205078,4218.461426,4203.589844,0.000000,4.000000,86.000000,,,,0.000000,4.000000,4.000000,4.000000,0.000000,4.000000,66.666664,,,,,,,,,,,,,,,,,,,,,,,,,,,,,,,,,,,,,,,,,,,,,,,,,,,,,,,,,,,,,,,
1649887010.683538,55.000000,0.000000,4224.615234,4234.871582,4136.410156,4218.461426,4211.794922,0.000000,4.000000,86.000000,,,,0.000000,4.000000,4.000000,4.000000,0.000000,4.000000,66.666664,,,,,,,,,,,,,,,,,,,,,,,,,,,,,,,,,,,,,,,,,,,,,,,,,,,,,,,,,,,,,,,
1649887010.691452,56.000000,0.000000,4243.077148,4246.666504,4136.922852,4217.948730,4220.512695,0.000000,4.000000,86.000000,,,,0.000000,4.000000,4.000000,4.000000,0.000000,4.000000,66.666664,,,,,,,,,,,,,,,,,,,,,,,,,,,,,,,,,,,,,,,,,,,,,,,,,,,,,,,,,,,,,,,
1649887010.699267,57.000000,0.000000,4272.820313,4232.307617,4134.358887,4217.436035,4225.641113,0.000000,4.000000,86.000000,,,,0.000000,4.000000,4.000000,4.000000,0.000000,4.000000,66.666664,,,,,,,,,,,,,,,,,,,,,,,,,,,,,,,,,,,,,,,,,,,,,,,,,,,,,,,,,,,,,,,
1649887010.707081,58.000000,0.000000,4288.717773,4206.666504,4127.692383,4218.461426,4245.641113,0.000000,4.000000,86.000000,,,,0.000000,4.000000,4.000000,4.000000,0.000000,4.000000,66.666664,,,,,,,,,,,,,,,,,,,,,,,,,,,,,,,,,,,,,,,,,,,,,,,,,,,,,,,,,,,,,,,
1649887010.714796,59.000000,0.000000,4314.358887,4234.358887,4139.487305,4218.461426,4286.153809,0.000000,4.000000,86.000000,,,,0.000000,4.000000,4.000000,4.000000,0.000000,4.000000,66.666664,,,,,,,,,,,,,,,,,,,,,,,,,,,,,,,,,,,,,,,,,,,,,,,,,,,,,,,,,,,,,,,
1649887010.722610,60.000000,0.000000,4349.230957,4268.717773,4153.846191,4220.512695,4311.282227,0.000000,4.000000,86.000000,,,,0.000000,4.000000,4.000000,4.000000,0.000000,4.000000,66.666664,,,,,,,,,,,,,,,,,,,,,,,,,,,,,,,,,,,,,,,,,,,,,,,,,,,,,,,,,,,,,,,
1649887010.730325,61.000000,0.000000,4355.897461,4249.230957,4149.743652,4224.102539,4316.410156,0.000000,4.000000,86.000000,,,,0.000000,4.000000,4.000000,4.000000,0.000000,4.000000,66.666664,,,,,,,,,,,,,,,,,,,,,,,,,,,,,,,,,,,,,,,,,,,,,,,,,,,,,,,,,,,,,,,
1649887010.738139,62.000000,0.000000,4351.794922,4231.794922,4146.153809,4222.051270,4329.743652,0.000000,4.000000,86.000000,,,,0.000000,4.000000,4.000000,4.000000,0.000000,4.000000,66.666664,,,,,,,,,,,,,,,,,,,,,,,,,,,,,,,,,,,,,,,,,,,,,,,,,,,,,,,,,,,,,,,
1649887010.745853,63.000000,0.000000,4367.692383,4249.230957,4151.282227,4224.102539,4344.102539,0.000000,4.000000,86.000000,,,,0.000000,4.000000,4.000000,4.000000,0.000000,4.000000,66.666664,,,,,,,,,,,,,,,,,,,,,,,,,,,,,,,,,,,,,,,,,,,,,,,,,,,,,,,,,,,,,,,
1649887010.753668,64.000000,0.000000,4395.384766,4253.846191,4152.307617,4229.230957,4346.153809,450.000000,4.000000,86.000000,,,,0.000000,4.000000,4.000000,4.000000,0.000000,4.000000,66.666664,,,,,,,,,,,,,,,,,,,,,,,,,,,,,,,,,,,,,,,,,,,,,,,,,,,,,,,,,,,,,,,
1649887010.761382,65.000000,0.000000,4406.666504,4238.974121,4154.871582,4226.666504,4346.153809,450.000000,4.000000,86.000000,,,,0.000000,4.000000,4.000000,4.000000,0.000000,4.000000,66.666664,,,,,,,,,,,,,,,,,,,,,,,,,,,,,,,,,,,,,,,,,,,,,,,,,,,,,,,,,,,,,,,
1649887010.769197,66.000000,0.000000,4402.563965,4231.794922,4161.538574,4227.179688,4349.743652,16224.000000,4.000000,86.000000,,,,0.000000,4.000000,4.000000,4.000000,0.000000,4.000000,66.666664,,,,,,,,,,,,,,,,,,,,,,,,,,,,,,,,,,,,,,,,,,,,,,,,,,,,,,,,,,,,,,,
1649887010.776911,67.000000,0.000000,4406.666504,4242.051270,4164.102539,4229.230957,4356.922852,450.000000,4.000000,86.000000,,,,0.000000,4.000000,4.000000,4.000000,0.000000,4.000000,66.666664,,,,,,,,,,,,,,,,,,,,,,,,,,,,,,,,,,,,,,,,,,,,,,,,,,,,,,,,,,,,,,,
1649887010.784726,68.000000,0.000000,4410.256348,4255.897461,4166.666504,4229.743652,4368.717773,16225.000000,4.000000,86.000000,,,,0.000000,4.000000,4.000000,4.000000,0.000000,4.000000,66.666664,,,,,,,,,,,,,,,,,,,,,,,,,,,,,,,,,,,,,,,,,,,,,,,,,,,,,,,,,,,,,,,
1649887010.792440,69.000000,0.000000,4405.128418,4256.410156,4172.820313,4229.743652,4368.717773,450.000000,4.000000,86.000000,,,,0.000000,4.000000,4.000000,4.000000,0.000000,4.000000,66.666664,1.000000,66.666664,4.000000,4.000000,4.000000,0.000000,4.000000,,,,,,,,,,,,,,,,,,,,,,,,,,,,,,,,37.877377,5.362316,1.060735,0.934127,0.772568,1.252041,1.024728,2.104037,0.895929,0.657979,1.553830,2.815917,0.989225,0.639478,0.231644,0.289468,0.096613,0.097054,0.036604,0.064414,35.330250,5.171257,1.236225,1.025419,0.426008
1649887010.800255,70.000000,0.000000,4383.077148,4253.333496,4173.333496,4227.692383,4341.538574,16165.000000,4.000000,86.000000,,,,0.000000,4.000000,4.000000,4.000000,0.000000,4.000000,66.666664,,,,,,,,,,,,,,,,,,,,,,,,,,,,,,,,,,,,,,,,,,,,,,,,,,,,,,,,,,,,,,,
1649887010.807969,71.000000,0.000000,4354.358887,4258.974121,4176.922852,4227.179688,4320.512695,450.000000,4.000000,86.000000,,,,0.000000,4.000000,4.000000,4.000000,0.000000,4.000000,66.666664,,,,,,,,,,,,,,,,,,,,,,,,,,,,,,,,,,,,,,,,,,,,,,,,,,,,,,,,,,,,,,,
1649887010.815684,72.000000,0.000000,4351.282227,4266.153809,4187.179688,4226.666504,4323.589844,450.000000,4.000000,86.000000,,,,0.000000,4.000000,4.000000,4.000000,0.000000,4.000000,66.666664,,,,,,,,,,,,,,,,,,,,,,,,,,,,,,,,,,,,,,,,,,,,,,,,,,,,,,,,,,,,,,,
1649887010.823498,73.000000,0.000000,4346.666504,4270.256348,4186.666504,4225.641113,4306.666504,0.000000,4.000000,86.000000,,,,0.000000,4.000000,4.000000,4.000000,0.000000,4.000000,66.666664,,,,,,,,,,,,,,,,,,,,,,,,,,,,,,,,,,,,,,,,,,,,,,,,,,,,,,,,,,,,,,,
1649887010.831312,74.000000,0.000000,4316.410156,4268.717773,4184.102539,4226.666504,4277.436035,450.000000,4.000000,86.000000,,,,0.000000,4.000000,4.000000,4.000000,0.000000,4.000000,66.666664,,,,,,,,,,,,,,,,,,,,,,,,,,,,,,,,,,,,,,,,,,,,,,,,,,,,,,,,,,,,,,,
