title:david_g_Left, start timestamp:1649887068.079979, stop timestamp:1649887073.120904, headset type:INSIGHT, headset serial:A2D201AE, headset firmware:932, channels:84, sampling rate:eeg_128;pm_0.1;pow_8, samples:643       , version:2.1, 
Timestamp,EEG.Counter,EEG.Interpolated,EEG.AF3,EEG.T7,EEG.Pz,EEG.T8,EEG.AF4,EEG.RawCq,EEG.Battery,EEG.BatteryPercent,MarkerIndex,MarkerType,MarkerValueInt,EEG.MarkerHardware,CQ.AF3,CQ.T7,CQ.Pz,CQ.T8,CQ.AF4,CQ.Overall,EQ.SampleRateQuality,EQ.OVERALL,EQ.AF3,EQ.T7,EQ.Pz,EQ.T8,EQ.AF4,PM.Engagement.IsActive,PM.Engagement.Scaled,PM.Engagement.Raw,PM.Engagement.Min,PM.Engagement.Max,PM.Excitement.IsActive,PM.Excitement.Scaled,PM.Excitement.Raw,PM.Excitement.Min,PM.Excitement.Max,PM.LongTermExcitement,PM.Stress.IsActive,PM.Stress.Scaled,PM.Stress.Raw,PM.Stress.Min,PM.Stress.Max,PM.Relaxation.IsActive,PM.Relaxation.Scaled,PM.Relaxation.Raw,PM.Relaxation.Min,PM.Relaxation.Max,PM.Interest.IsActive,PM.Interest.Scaled,PM.Interest.Raw,PM.Interest.Min,PM.Interest.Max,PM.Focus.IsActive,PM.Focus.Scaled,PM.Focus.Raw,PM.Focus.Min,PM.Focus.Max,POW.AF3.Theta,POW.AF3.Alpha,POW.AF3.BetaL,POW.AF3.BetaH,POW.AF3.Gamma,POW.T7.Theta,POW.T7.Alpha,POW.T7.BetaL,POW.T7.BetaH,POW.T7.Gamma,POW.Pz.Theta,POW.Pz.Alpha,POW.Pz.BetaL,POW.Pz.BetaH,POW.Pz.Gamma,POW.T8.Theta,POW.T8.Alpha,POW.T8.BetaL,POW.T8.BetaH,POW.T8.Gamma,POW.AF4.Theta,POW.AF4.Alpha,POW.AF4.BetaL,POW.AF4.BetaH,POW.AF4.Gamma
1649887068.079979,100.000000,0.000000,4261.025879,4256.922852,4154.358887,4222.051270,4223.589844,450.000000,4.000000,86.000000,,,,0.000000,4.000000,4.000000,4.000000,0.000000,4.000000,66.666664,,,,,,,,,,,,,,,,,,,,,,,,,,,,,,,,,,,,,,,,,,,,,,,,,,,,,,,,,,,,,,,
1649887068.087894,101.000000,0.000000,4260.512695,4261.025879,4166.666504,4221.538574,4228.205078,450.000000,4.000000,86.000000,,,,0.000000,4.000000,4.000000,4.000000,0.000000,4.000000,66.666664,,,,,,,,,,,,,,,,,,,,,,,,,,,,,,,,,,,,,,,,,,,,,,,,,,,,,,,,,,,,,,,
1649887068.095708,102.000000,0.000000,4238.974121,4254.871582,4178.461426,4214.871582,4224.102539,450.000000,4.000000,86.000000,,,,0.000000,4.000000,4.000000,4.000000,0.000000,4.000000,66.666664,,,,,,,,,,,,,,,,,,,,,,,,,,,,,,,,,,,,,,,,,,,,,,,,,,,,,,,,,,,,,,,
1649887068.103622,103.000000,0.000000,4237.436035,4249.743652,4182.563965,4216.922852,4223.589844,16220.000000,4.000000,86.000000,,,,0.000000,4.000000,4.000000,4.000000,0.000000,4.000000,66.666664,,,,,,,,,,,,,,,,,,,,,,,,,,,,,,,,,,,,,,,,,,,,,,,,,,,,,,,,,,,,,,,
1649887068.111437,104.000000,0.000000,4265.128418,4259.487305,4189.743652,4225.128418,4232.820313,450.000000,4.000000,86.000000,,,,0.000000,4.000000,4.000000,4.000000,0.000000,4.000000,66.666664,,,,,,,,,,,,,,,,,,,,,,,,,,,,,,,,,,,,,,,,,,,,,,,,,,,,,,,,,,,,,,,
1649887068.119251,105.000000,0.000000,4267.179688,4257.436035,4189.230957,4225.128418,4235.897461,450.000000,4.000000,86.000000,,,,0.000000,4.000000,4.000000,4.000000,0.000000,4.000000,66.666664,,,,,,,,,,,,,,,,,,,,,,,,,,,,,,,,,,,,,,,,,,,,,,,,,,,,,,,,,,,,,,,
1649887068.127166,106.000000,0.000000,4243.077148,4247.179688,4177.948730,4222.051270,4219.487305,450.000000,4.000000,86.000000,,,,0.000000,4.000000,4.000000,4.000000,0.000000,4.000000,66.666664,,,,,,,,,,,,,,,,,,,,,,,,,,,,,,,,,,,,,,,,,,,,,,,,,,,,,,,,,,,,,,,
1649887068.135080,107.000000,0.000000,4251.282227,4254.871582,4174.871582,4223.589844,4215.384766,16220.000000,4.000000,86.000000,,,,0.000000,4.000000,4.000000,4.000000,0.000000,4.000000,66.666664,,,,,,,,,,,,,,,,,,,,,,,,,,,,,,,,,,,,,,,3.934623,1.415381,1.142049,0.856701,0.653436,0.632640,1.050312,0.786122,1.006829,0.469796,0.881587,2.308667,1.478787,0.506171,0.275236,0.061948,0.038145,0.024022,0.028697,0.032627,6.897908,0.989966,0.983529,0.837995,0.275363
1649887068.142894,108.000000,0.000000,4269.743652,4255.897461,4177.948730,4222.563965,4236.410156,450.000000,4.000000,86.000000,,,,0.000000,4.000000,4.000000,4.000000,0.000000,4.000000,66.666664,,,,,,,,,,,,,,,,,,,,,,,,,,,,,,,,,,,,,,,,,,,,,,,,,,,,,,,,,,,,,,,
1649887068.150809,109.000000,0.000000,4255.384766,4244.102539,4176.922852,4222.051270,4250.769043,450.000000,4.000000,86.000000,,,,0.000000,4.000000,4.000000,4.000000,0.000000,4.000000,66.666664,,,,,,,,,,,,,,,,,,,,,,,,,,,,,,,,,,,,,,,,,,,,,,,,,,,,,,,,,,,,,,,
1649887068.158723,110.000000,0.000000,4252.307617,4248.717773,4173.333496,4222.563965,4243.077148,450.000000,4.000000,86.000000,,,,0.000000,4.000000,4.000000,4.000000,0.000000,4.000000,66.666664,,,,,,,,,,,,,,,,,,,,,,,,,,,,,,,,,,,,,,,,,,,,,,,,,,,,,,,,,,,,,,,
1649887068.166537,111.000000,0.000000,4271.282227,4249.230957,4167.692383,4222.051270,4234.871582,16220.000000,4.000000,86.000000,,,,0.000000,4.000000,4.000000,4.000000,0.000000,4.000000,66.666664,,,,,,,,,,,,,,,,,,,,,,,,,,,,,,,,,,,,,,,,,,,,,,,,,,,,,,,,,,,,,,,
1649887068.174352,112.000000,0.000000,4266.153809,4236.410156,4164.102539,4222.051270,4241.025879,450.000000,4.000000,86.000000,,,,0.000000,4.000000,4.000000,4.000000,0.000000,4.000000,66.666664,,,,,,,,,,,,,,,,,,,,,,,,,,,,,,,,,,,,,,,,,,,,,,,,,,,,,,,,,,,,,,,
1649887068.182266,113.000000,0.000000,4256.922852,4245.128418,4168.717773,4222.563965,4249.743652,450.000000,4.000000,86.000000,,,,0.000000,4.000000,4.000000,4.000000,0.000000,4.000000,66.666664,,,,,,,,,,,,,,,,,,,,,,,,,,,,,,,,,,,,,,,,,,,,,,,,,,,,,,,,,,,,,,,
1649887068.190080,114.000000,0.000000,4257.436035,4259.487305,4177.436035,4221.025879,4242.051270,450.000000,4.000000,86.000000,,,,0.000000,4.000000,4.000000,4.000000,0.000000,4.000000,66.666664,,,,,,,,,,,,,,,,,,,,,,,,,,,,,,,,,,,,,,,,,,,,,,,,,,,,,,,,,,,,,,,
1649887068.197995,115.000000,0.000000,4251.794922,4252.307617,4176.410156,4219.487305,4221.025879,16220.000000,4.000000,86.000000,,,,0.000000,4.000000,4.000000,4.000000,0.000000,4.000000,66.666664,,,,,,,,,,,,,,,,,,,,,,,,,,,,,,,,,,,,,,,,,,,,,,,,,,,,,,,,,,,,,,,
1649887068.205809,116.000000,0.000000,4248.205078,4242.563965,4170.769043,4221.538574,4217.436035,450.000000,4.000000,86.000000,,,,0.000000,4.000000,4.000000,4.000000,0.000000,4.000000,66.666664,,,,,,,,,,,,,,,,,,,,,,,,,,,,,,,,,,,,,,,,,,,,,,,,,,,,,,,,,,,,,,,
1649887068.213723,117.000000,0.000000,4259.487305,4240.512695,4176.922852,4222.051270,4236.922852,450.000000,4.000000,86.000000,,,,0.000000,4.000000,4.000000,4.000000,0.000000,4.000000,66.666664,,,,,,,,,,,,,,,,,,,,,,,,,,,,,,,,,,,,,,,,,,,,,,,,,,,,,,,,,,,,,,,
1649887068.221538,118.000000,0.000000,4270.256348,4241.025879,4186.666504,4220.512695,4244.615234,450.000000,4.000000,86.000000,,,,0.000000,4.000000,4.000000,4.000000,0.000000,4.000000,66.666664,,,,,,,,,,,,,,,,,,,,,,,,,,,,,,,,,,,,,,,,,,,,,,,,,,,,,,,,,,,,,,,
1649887068.229452,119.000000,0.000000,4256.410156,4240.512695,4177.948730,4221.025879,4232.820313,16220.000000,4.000000,86.000000,,,,0.000000,4.000000,4.000000,4.000000,0.000000,4.000000,66.666664,,,,,,,,,,,,,,,,,,,,,,,,,,,,,,,,,,,,,,,,,,,,,,,,,,,,,,,,,,,,,,,
1649887068.237267,120.000000,0.000000,4248.205078,4242.051270,4171.794922,4221.025879,4233.333496,450.000000,4.000000,86.000000,,,,0.000000,4.000000,4.000000,4.000000,0.000000,4.000000,66.666664,,,,,,,,,,,,,,,,,,,,,,,,,,,,,,,,,,,,,,,,,,,,,,,,,,,,,,,,,,,,,,,
1649887068.245181,121.000000,0.000000,4280.000000,4253.846191,4185.641113,4224.102539,4255.384766,450.000000,4.000000,86.000000,,,,0.000000,4.000000,4.000000,4.000000,0.000000,4.000000,66.666664,,,,,,,,,,,,,,,,,,,,,,,,,,,,,,,,,,,,,,,,,,,,,,,,,,,,,,,,,,,,,,,
1649887068.252995,122.000000,0.000000,4313.333496,4271.282227,4191.282227,4227.179688,4272.307617,450.000000,4.000000,86.000000,,,,0.000000,4.000000,4.000000,4.000000,0.000000,4.000000,66.666664,,,,,,,,,,,,,,,,,,,,,,,,,,,,,,,,,,,,,,,,,,,,,,,,,,,,,,,,,,,,,,,
1649887068.260910,123.000000,0.000000,4288.717773,4263.589844,4172.820313,4225.128418,4260.512695,16220.000000,4.000000,86.000000,,,,0.000000,4.000000,4.000000,4.000000,0.000000,4.000000,66.666664,,,,,,,,,,,,,,,,,,,,,,,,,,,,,,,,,,,,,,,3.318183,1.564203,1.163949,0.926266,0.682509,0.780977,1.204164,0.761831,0.921795,0.444745,1.037065,1.854059,1.241780,0.536951,0.289750,0.064806,0.052671,0.022572,0.030079,0.033728,5.321740,1.533099,0.810606,0.901967,0.296007
1649887068.268824,124.000000,0.000000,4246.153809,4232.307617,4155.897461,4221.538574,4236.922852,450.000000,4.000000,86.000000,,,,0.000000,4.000000,4.000000,4.000000,0.000000,4.000000,66.666664,,,,,,,,,,,,,,,,,,,,,,,,,,,,,,,,,,,,,,,,,,,,,,,,,,,,,,,,,,,,,,,
1649887068.276638,125.000000,0.000000,4254.358887,4228.205078,4158.461426,4222.051270,4238.974121,450.000000,4.000000,86.000000,,,,0.000000,4.000000,4.000000,4.000000,0.000000,4.000000,66.666664,,,,,,,,,,,,,,,,,,,,,,,,,,,,,,,,,,,,,,,,,,,,,,,,,,,,,,,,,,,,,,,
1649887068.284453,126.000000,0.000000,4289.230957,4252.307617,4173.846191,4222.563965,4254.871582,450.000000,4.000000,86.000000,,,,0.000000,4.000000,4.000000,4.000000,0.000000,4.000000,66.666664,,,,,,,,,,,,,,,,,,,,,,,,,,,,,,,,,,,,,,,,,,,,,,,,,,,,,,,,,,,,,,,
1649887068.292367,127.000000,0.000000,4294.358887,4252.307617,4180.512695,4220.000000,4250.256348,241.000000,4.000000,86.000000,,,,0.000000,4.000000,4.000000,4.000000,0.000000,4.000000,66.666664,,,,,,,,,,,,,,,,,,,,,,,,,,,,,,,,,,,,,,,,,,,,,,,,,,,,,,,,,,,,,,,
1649887068.300281,0.000000,0.000000,4266.666504,4238.461426,4172.307617,4220.512695,4232.307617,450.000000,4.000000,86.000000,,,,0.000000,4.000000,4.000000,4.000000,0.000000,4.000000,66.666664,,,,,,,,,,,,,,,,,,,,,,,,,,,,,,,,,,,,,,,,,,,,,,,,,,,,,,,,,,,,,,,
1649887068.308096,1.000000,0.000000,4246.666504,4244.615234,4169.743652,4220.512695,4221.538574,450.000000,4.000000,86.000000,,,,0.000000,4.000000,4.000000,4.000000,0.000000,4.000000,66.666664,,,,,,,,,,,,,,,,,,,,,,,,,,,,,,,,,,,,,,,,,,,,,,,,,,,,,,,,,,,,,,,
1649887068.315910,2.000000,0.000000,4248.717773,4251.794922,4175.897461,4215.897461,4218.974121,16245.000000,4.000000,86.000000,,,,0.000000,4.000000,4.000000,4.000000,0.000000,4.000000,66.666664,,,,,,,,,,,,,,,,,,,,,,,,,,,,,,,,,,,,,,,,,,,,,,,,,,,,,,,,,,,,,,,
1649887068.323824,3.000000,0.000000,4257.436035,4245.641113,4174.871582,4217.948730,4225.128418,450.000000,4.000000,86.000000,,,,0.000000,4.000000,4.000000,4.000000,0.000000,4.000000,66.666664,,,,,,,,,,,,,,,,,,,,,,,,,,,,,,,,,,,,,,,,,,,,,,,,,,,,,,,,,,,,,,,
1649887068.331739,4.000000,0.000000,4266.666504,4244.615234,4169.230957,4222.563965,4238.461426,16175.000000,4.000000,86.000000,,,,0.000000,4.000000,4.000000,4.000000,0.000000,4.000000,66.666664,,,,,,,,,,,,,,,,,,,,,,,,,,,,,,,,,,,,,,,,,,,,,,,,,,,,,,,,,,,,,,,
1649887068.339553,5.000000,0.000000,4270.769043,4242.563965,4169.230957,4221.025879,4247.179688,450.000000,4.000000,86.000000,,,,0.000000,4.000000,4.000000,4.000000,0.000000,4.000000,66.666664,,,,,,,,,,,,,,,,,,,,,,,,,,,,,,,,,,,,,,,,,,,,,,,,,,,,,,,,,,,,,,,
1649887068.347467,6.000000,0.000000,4267.692383,4243.589844,4168.205078,4220.000000,4245.128418,16222.000000,4.000000,86.000000,,,,0.000000,4.000000,4.000000,4.000000,0.000000,4.000000,66.666664,,,,,,,,,,,,,,,,,,,,,,,,,,,,,,,,,,,,,,,,,,,,,,,,,,,,,,,,,,,,,,,
1649887068.355282,7.000000,0.000000,4264.615234,4248.205078,4161.538574,4225.128418,4237.436035,450.000000,4.000000,86.000000,,,,0.000000,4.000000,4.000000,4.000000,0.000000,4.000000,66.666664,,,,,,,,,,,,,,,,,,,,,,,,,,,,,,,,,,,,,,,,,,,,,,,,,,,,,,,,,,,,,,,
1649887068.363196,8.000000,0.000000,4261.538574,4240.000000,4150.256348,4225.128418,4233.333496,450.000000,4.000000,86.000000,,,,0.000000,4.000000,4.000000,4.000000,0.000000,4.000000,66.666664,,,,,,,,,,,,,,,,,,,,,,,,,,,,,,,,,,,,,,,,,,,,,,,,,,,,,,,,,,,,,,,
1649887068.371011,9.000000,0.000000,4255.897461,4236.922852,4144.615234,4221.025879,4234.358887,0.000000,4.000000,86.000000,,,,0.000000,4.000000,4.000000,4.000000,0.000000,4.000000,66.666664,,,,,,,,,,,,,,,,,,,,,,,,,,,,,,,,,,,,,,,,,,,,,,,,,,,,,,,,,,,,,,,
1649887068.378925,10.000000,0.000000,4246.153809,4245.641113,4144.615234,4221.538574,4231.794922,450.000000,4.000000,86.000000,,,,0.000000,4.000000,4.000000,4.000000,0.000000,4.000000,66.666664,,,,,,,,,,,,,,,,,,,,,,,,,,,,,,,,,,,,,,,,,,,,,,,,,,,,,,,,,,,,,,,
1649887068.386739,11.000000,0.000000,4242.051270,4242.051270,4144.615234,4220.000000,4222.563965,16213.000000,4.000000,86.000000,,,,0.000000,4.000000,4.000000,4.000000,0.000000,4.000000,66.666664,,,,,,,,,,,,,,,,,,,,,,,,,,,,,,,,,,,,,,,3.484674,2.013098,1.221371,1.040138,0.756249,1.065038,1.371185,0.745776,0.875962,0.452907,1.371124,1.792755,1.071863,0.590682,0.300914,0.076056,0.070498,0.023896,0.030601,0.034585,4.730470,2.235359,0.700522,0.976923,0.323284
1649887068.394654,12.000000,0.000000,4255.384766,4232.820313,4150.769043,4217.948730,4222.051270,450.000000,4.000000,86.000000,,,,0.000000,4.000000,4.000000,4.000000,0.000000,4.000000,66.666664,,,,,,,,,,,,,,,,,,,,,,,,,,,,,,,,,,,,,,,,,,,,,,,,,,,,,,,,,,,,,,,
1649887068.402468,13.000000,0.000000,4273.333496,4238.461426,4165.128418,4222.563965,4235.384766,450.000000,4.000000,86.000000,,,,0.000000,4.000000,4.000000,4.000000,0.000000,4.000000,66.666664,,,,,,,,,,,,,,,,,,,,,,,,,,,,,,,,,,,,,,,,,,,,,,,,,,,,,,,,,,,,,,,
1649887068.410382,14.000000,0.000000,4264.615234,4244.102539,4174.871582,4219.487305,4240.512695,450.000000,4.000000,86.000000,,,,0.000000,4.000000,4.000000,4.000000,0.000000,4.000000,66.666664,,,,,,,,,,,,,,,,,,,,,,,,,,,,,,,,,,,,,,,,,,,,,,,,,,,,,,,,,,,,,,,
1649887068.418197,15.000000,0.000000,4233.846191,4237.436035,4172.820313,4214.358887,4225.641113,16213.000000,4.000000,86.000000,,,,0.000000,4.000000,4.000000,4.000000,0.000000,4.000000,66.666664,,,,,,,,,,,,,,,,,,,,,,,,,,,,,,,,,,,,,,,,,,,,,,,,,,,,,,,,,,,,,,,
1649887068.426111,16.000000,0.000000,4223.077148,4231.794922,4163.589844,4217.436035,4208.717773,0.000000,4.000000,86.000000,,,,0.000000,4.000000,4.000000,4.000000,0.000000,4.000000,66.666664,,,,,,,,,,,,,,,,,,,,,,,,,,,,,,,,,,,,,,,,,,,,,,,,,,,,,,,,,,,,,,,
1649887068.433925,17.000000,0.000000,4250.256348,4239.487305,4160.000000,4218.461426,4212.307617,0.000000,4.000000,86.000000,,,,0.000000,4.000000,4.000000,4.000000,0.000000,4.000000,66.666664,,,,,,,,,,,,,,,,,,,,,,,,,,,,,,,,,,,,,,,,,,,,,,,,,,,,,,,,,,,,,,,
1649887068.441840,18.000000,0.000000,4278.461426,4252.820313,4165.128418,4217.436035,4227.179688,0.000000,4.000000,86.000000,,,,0.000000,4.000000,4.000000,4.000000,0.000000,4.000000,66.666664,,,,,,,,,,,,,,,,,,,,,,,,,,,,,,,,,,,,,,,,,,,,,,,,,,,,,,,,,,,,,,,
1649887068.449754,19.000000,0.000000,4276.410156,4256.410156,4168.205078,4219.487305,4234.358887,0.000000,4.000000,86.000000,,,,0.000000,4.000000,4.000000,4.000000,0.000000,4.000000,66.666664,,,,,,,,,,,,,,,,,,,,,,,,,,,,,,,,,,,,,,,,,,,,,,,,,,,,,,,,,,,,,,,
1649887068.457568,20.000000,0.000000,4253.846191,4251.282227,4162.563965,4219.487305,4229.743652,0.000000,4.000000,86.000000,,,,0.000000,4.000000,4.000000,4.000000,0.000000,4.000000,66.666664,,,,,,,,,,,,,,,,,,,,,,,,,,,,,,,,,,,,,,,,,,,,,,,,,,,,,,,,,,,,,,,
1649887068.465483,21.000000,0.000000,4248.205078,4240.000000,4157.436035,4216.922852,4229.743652,0.000000,4.000000,86.000000,,,,0.000000,4.000000,4.000000,4.000000,0.000000,4.000000,66.666664,,,,,,,,,,,,,,,,,,,,,,,,,,,,,,,,,,,,,,,,,,,,,,,,,,,,,,,,,,,,,,,
1649887068.473297,22.000000,0.000000,4270.769043,4238.974121,4158.461426,4218.974121,4241.025879,0.000000,4.000000,86.000000,,,,0.000000,4.000000,4.000000,4.000000,0.000000,4.000000,66.666664,,,,,,,,,,,,,,,,,,,,,,,,,,,,,,,,,,,,,,,,,,,,,,,,,,,,,,,,,,,,,,,
1649887068.481211,23.000000,0.000000,4289.743652,4250.256348,4165.128418,4220.512695,4243.077148,0.000000,4.000000,86.000000,,,,0.000000,4.000000,4.000000,4.000000,0.000000,4.000000,66.666664,,,,,,,,,,,,,,,,,,,,,,,,,,,,,,,,,,,,,,,,,,,,,,,,,,,,,,,,,,,,,,,
1649887068.489026,24.000000,0.000000,4289.743652,4254.871582,4173.333496,4222.563965,4238.974121,0.000000,4.000000,86.000000,,,,0.000000,4.000000,4.000000,4.000000,0.000000,4.000000,66.666664,,,,,,,,,,,,,,,,,,,,,,,,,,,,,,,,,,,,,,,,,,,,,,,,,,,,,,,,,,,,,,,
1649887068.496940,25.000000,0.000000,4275.384766,4250.769043,4172.307617,4225.641113,4246.153809,0.000000,4.000000,86.000000,,,,0.000000,4.000000,4.000000,4.000000,0.000000,4.000000,66.666664,,,,,,,,,,,,,,,,,,,,,,,,,,,,,,,,,,,,,,,,,,,,,,,,,,,,,,,,,,,,,,,
1649887068.504755,26.000000,0.000000,4248.717773,4245.641113,4163.589844,4221.538574,4244.102539,0.000000,4.000000,86.000000,,,,0.000000,4.000000,4.000000,4.000000,0.000000,4.000000,66.666664,,,,,,,,,,,,,,,,,,,,,,,,,,,,,,,,,,,,,,,,,,,,,,,,,,,,,,,,,,,,,,,
1649887068.512669,27.000000,0.000000,4231.282227,4242.563965,4159.487305,4220.000000,4224.615234,0.000000,4.000000,86.000000,,,,0.000000,4.000000,4.000000,4.000000,0.000000,4.000000,66.666664,0.968750,66.666664,4.000000,4.000000,4.000000,0.000000,4.000000,,,,,,,,,,,,,,,,,,,,,,,,,,,,,,,,4.222715,2.683060,1.338749,1.159011,0.873965,1.441298,1.473913,0.734637,0.875770,0.494210,1.784726,1.873742,1.021658,0.652682,0.309685,0.095246,0.089237,0.027965,0.030373,0.034999,4.909390,3.008703,0.700674,1.025543,0.363456
1649887068.520483,28.000000,0.000000,4240.000000,4231.794922,4159.487305,4224.102539,4214.358887,0.000000,4.000000,86.000000,,,,0.000000,4.000000,4.000000,4.000000,0.000000,4.000000,66.666664,,,,,,,,,,,,,,,,,,,,,,,,,,,,,,,,,,,,,,,,,,,,,,,,,,,,,,,,,,,,,,,
1649887068.528398,29.000000,0.000000,4254.358887,4222.051270,4156.410156,4220.000000,4220.512695,0.000000,4.000000,86.000000,,,,0.000000,4.000000,4.000000,4.000000,0.000000,4.000000,66.666664,,,,,,,,,,,,,,,,,,,,,,,,,,,,,,,,,,,,,,,,,,,,,,,,,,,,,,,,,,,,,,,
1649887068.536212,30.000000,0.000000,4248.205078,4236.410156,4152.307617,4213.846191,4223.077148,0.000000,4.000000,86.000000,,,,0.000000,4.000000,4.000000,4.000000,0.000000,4.000000,66.666664,,,,,,,,,,,,,,,,,,,,,,,,,,,,,,,,,,,,,,,,,,,,,,,,,,,,,,,,,,,,,,,
1649887068.544126,31.000000,0.000000,4235.384766,4256.410156,4149.230957,4217.948730,4216.410156,0.000000,4.000000,86.000000,,,,0.000000,4.000000,4.000000,4.000000,0.000000,4.000000,66.666664,,,,,,,,,,,,,,,,,,,,,,,,,,,,,,,,,,,,,,,,,,,,,,,,,,,,,,,,,,,,,,,
1649887068.551941,32.000000,0.000000,4240.000000,4251.282227,4145.128418,4218.974121,4214.358887,0.000000,4.000000,86.000000,,,,0.000000,4.000000,4.000000,4.000000,0.000000,4.000000,66.666664,,,,,,,,,,,,,,,,,,,,,,,,,,,,,,,,,,,,,,,,,,,,,,,,,,,,,,,,,,,,,,,
1649887068.559855,33.000000,0.000000,4255.384766,4233.846191,4138.461426,4215.384766,4222.563965,0.000000,4.000000,86.000000,,,,0.000000,4.000000,4.000000,4.000000,0.000000,4.000000,66.666664,,,,,,,,,,,,,,,,,,,,,,,,,,,,,,,,,,,,,,,,,,,,,,,,,,,,,,,,,,,,,,,
1649887068.567669,34.000000,0.000000,4257.948730,4231.794922,4136.410156,4217.948730,4223.589844,0.000000,4.000000,86.000000,,,,0.000000,4.000000,4.000000,4.000000,0.000000,4.000000,66.666664,,,,,,,,,,,,,,,,,,,,,,,,,,,,,,,,,,,,,,,,,,,,,,,,,,,,,,,,,,,,,,,
1649887068.575584,35.000000,0.000000,4251.794922,4236.410156,4141.538574,4218.974121,4224.102539,0.000000,4.000000,86.000000,,,,0.000000,4.000000,4.000000,4.000000,0.000000,4.000000,66.666664,,,,,,,,,,,,,,,,,,,,,,,,,,,,,,,,,,,,,,,,,,,,,,,,,,,,,,,,,,,,,,,
1649887068.583398,36.000000,0.000000,4250.769043,4227.692383,4148.205078,4217.948730,4231.794922,0.000000,4.000000,86.000000,,,,0.000000,4.000000,4.000000,4.000000,0.000000,4.000000,66.666664,,,,,,,,,,,,,,,,,,,,,,,,,,,,,,,,,,,,,,,,,,,,,,,,,,,,,,,,,,,,,,,
1649887068.591312,37.000000,0.000000,4243.589844,4220.512695,4153.333496,4217.436035,4225.641113,0.000000,4.000000,86.000000,,,,0.000000,4.000000,4.000000,4.000000,0.000000,4.000000,66.666664,,,,,,,,,,,,,,,,,,,,,,,,,,,,,,,,,,,,,,,,,,,,,,,,,,,,,,,,,,,,,,,
1649887068.599227,38.000000,0.000000,4242.051270,4229.743652,4155.897461,4217.948730,4217.436035,0.000000,4.000000,86.000000,,,,0.000000,4.000000,4.000000,4.000000,0.000000,4.000000,66.666664,,,,,,,,,,,,,,,,,,,,,,,,,,,,,,,,,,,,,,,,,,,,,,,,,,,,,,,,,,,,,,,
1649887068.607041,39.000000,0.000000,4256.410156,4238.974121,4160.512695,4218.974121,4233.333496,0.000000,4.000000,86.000000,,,,0.000000,4.000000,4.000000,4.000000,0.000000,4.000000,66.666664,,,,,,,,,,,,,,,,,,,,,,,,,,,,,,,,,,,,,,,,,,,,,,,,,,,,,,,,,,,,,,,
1649887068.614955,40.000000,0.000000,4263.589844,4234.871582,4162.051270,4218.974121,4243.077148,0.000000,4.000000,86.000000,,,,0.000000,4.000000,4.000000,4.000000,0.000000,4.000000,66.666664,,,,,,,,,,,,,,,,,,,,,,,,,,,,,,,,,,,,,,,,,,,,,,,,,,,,,,,,,,,,,,,
1649887068.622770,41.000000,0.000000,4255.384766,4225.128418,4149.743652,4218.974121,4232.307617,0.000000,4.000000,86.000000,,,,0.000000,4.000000,4.000000,4.000000,0.000000,4.000000,66.666664,,,,,,,,,,,,,,,,,,,,,,,,,,,,,,,,,,,,,,,,,,,,,,,,,,,,,,,,,,,,,,,
1649887068.630684,42.000000,0.000000,4241.538574,4222.051270,4140.512695,4217.436035,4231.794922,0.000000,4.000000,86.000000,,,,0.000000,4.000000,4.000000,4.000000,0.000000,4.000000,66.666664,,,,,,,,,,,,,,,,,,,,,,,,,,,,,,,,,,,,,,,,,,,,,,,,,,,,,,,,,,,,,,,
1649887068.638499,43.000000,0.000000,4227.692383,4229.743652,4145.128418,4217.436035,4230.256348,0.000000,4.000000,86.000000,,,,0.000000,4.000000,4.000000,4.000000,0.000000,4.000000,66.666664,,,,,,,,,,,,,,,,,,,,,,,,,,,,,,,,,,,,,,,5.230155,3.378913,1.502871,1.274585,1.039852,1.804517,1.464612,0.740278,0.916070,0.559501,2.221045,2.010019,1.090315,0.708974,0.318270,0.118438,0.107080,0.034236,0.029787,0.035325,5.531051,3.695755,0.822246,1.028072,0.424333
1649887068.646413,44.000000,0.000000,4232.307617,4235.897461,4138.974121,4217.948730,4211.794922,0.000000,4.000000,86.000000,,,,0.000000,4.000000,4.000000,4.000000,0.000000,4.000000,66.666664,,,,,,,,,,,,,,,,,,,,,,,,,,,,,,,,,,,,,,,,,,,,,,,,,,,,,,,,,,,,,,,
1649887068.654227,45.000000,0.000000,4249.743652,4228.717773,4129.230957,4218.461426,4210.256348,0.000000,4.000000,86.000000,,,,0.000000,4.000000,4.000000,4.000000,0.000000,4.000000,66.666664,,,,,,,,,,,,,,,,,,,,,,,,,,,,,,,,,,,,,,,,,,,,,,,,,,,,,,,,,,,,,,,
1649887068.662142,46.000000,0.000000,4255.897461,4228.717773,4140.000000,4218.461426,4226.153809,0.000000,4.000000,86.000000,,,,0.000000,4.000000,4.000000,4.000000,0.000000,4.000000,66.666664,,,,,,,,,,,,,,,,,,,,,,,,,,,,,,,,,,,,,,,,,,,,,,,,,,,,,,,,,,,,,,,
1649887068.669956,47.000000,0.000000,4244.102539,4233.333496,4151.794922,4217.436035,4225.641113,0.000000,4.000000,86.000000,,,,0.000000,4.000000,4.000000,4.000000,0.000000,4.000000,66.666664,,,,,,,,,,,,,,,,,,,,,,,,,,,,,,,,,,,,,,,,,,,,,,,,,,,,,,,,,,,,,,,
1649887068.677870,48.000000,0.000000,4237.948730,4230.256348,4151.282227,4216.410156,4216.922852,0.000000,4.000000,86.000000,,,,0.000000,4.000000,4.000000,4.000000,0.000000,4.000000,66.666664,,,,,,,,,,,,,,,,,,,,,,,,,,,,,,,,,,,,,,,,,,,,,,,,,,,,,,,,,,,,,,,
1649887068.685685,49.000000,0.000000,4243.589844,4238.461426,4156.922852,4216.922852,4215.897461,0.000000,4.000000,86.000000,,,,0.000000,4.000000,4.000000,4.000000,0.000000,4.000000,66.666664,,,,,,,,,,,,,,,,,,,,,,,,,,,,,,,,,,,,,,,,,,,,,,,,,,,,,,,,,,,,,,,
1649887068.693599,50.000000,0.000000,4238.461426,4243.589844,4165.128418,4219.487305,4215.384766,0.000000,4.000000,86.000000,,,,0.000000,4.000000,4.000000,4.000000,0.000000,4.000000,66.666664,,,,,,,,,,,,,,,,,,,,,,,,,,,,,,,,,,,,,,,,,,,,,,,,,,,,,,,,,,,,,,,
1649887068.701413,51.000000,0.000000,4238.461426,4232.307617,4166.153809,4221.025879,4221.025879,0.000000,4.000000,86.000000,,,,0.000000,4.000000,4.000000,4.000000,0.000000,4.000000,66.666664,,,,,,,,,,,,,,,,,,,,,,,,,,,,,,,,,,,,,,,,,,,,,,,,,,,,,,,,,,,,,,,
1649887068.709328,52.000000,0.000000,4245.641113,4231.794922,4165.128418,4218.974121,4224.615234,0.000000,4.000000,86.000000,,,,0.000000,4.000000,4.000000,4.000000,0.000000,4.000000,66.666664,,,,,,,,,,,,,,,,,,,,,,,,,,,,,,,,,,,,,,,,,,,,,,,,,,,,,,,,,,,,,,,
1649887068.717142,53.000000,0.000000,4233.846191,4227.692383,4160.512695,4215.897461,4210.769043,0.000000,4.000000,86.000000,,,,0.000000,4.000000,4.000000,4.000000,0.000000,4.000000,66.666664,,,,,,,,,,,,,,,,,,,,,,,,,,,,,,,,,,,,,,,,,,,,,,,,,,,,,,,,,,,,,,,
1649887068.725056,54.000000,0.000000,4216.922852,4208.205078,4147.692383,4216.922852,4194.358887,0.000000,4.000000,86.000000,,,,0.000000,4.000000,4.000000,4.000000,0.000000,4.000000,66.666664,,,,,,,,,,,,,,,,,,,,,,,,,,,,,,,,,,,,,,,,,,,,,,,,,,,,,,,,,,,,,,,
1649887068.732871,55.000000,0.000000,4219.487305,4211.794922,4142.563965,4216.922852,4198.461426,0.000000,4.000000,86.000000,,,,0.000000,4.000000,4.000000,4.000000,0.000000,4.000000,66.666664,,,,,,,,,,,,,,,,,,,,,,,,,,,,,,,,,,,,,,,,,,,,,,,,,,,,,,,,,,,,,,,
1649887068.740785,56.000000,0.000000,4228.205078,4237.436035,4150.256348,4216.922852,4214.871582,0.000000,4.000000,86.000000,,,,0.000000,4.000000,4.000000,4.000000,0.000000,4.000000,66.666664,,,,,,,,,,,,,,,,,,,,,,,,,,,,,,,,,,,,,,,,,,,,,,,,,,,,,,,,,,,,,,,
1649887068.748699,57.000000,0.000000,4229.230957,4239.487305,4150.256348,4218.461426,4219.487305,0.000000,4.000000,86.000000,,,,0.000000,4.000000,4.000000,4.000000,0.000000,4.000000,66.666664,,,,,,,,,,,,,,,,,,,,,,,,,,,,,,,,,,,,,,,,,,,,,,,,,,,,,,,,,,,,,,,
1649887068.756514,58.000000,0.000000,4232.820313,4220.512695,4141.538574,4217.436035,4209.230957,0.000000,4.000000,86.000000,,,,0.000000,4.000000,4.000000,4.000000,0.000000,4.000000,66.666664,,,,,,,,,,,,,,,,,,,,,,,,,,,,,,,,,,,,,,,,,,,,,,,,,,,,,,,,,,,,,,,
1649887068.764328,59.000000,0.000000,4235.897461,4216.922852,4140.000000,4216.922852,4202.051270,0.000000,4.000000,86.000000,,,,0.000000,4.000000,4.000000,4.000000,0.000000,4.000000,66.666664,,,,,,,,,,,,,,,,,,,,,,,,,,,,,,,,,,,,,,,6.108431,3.858974,1.665327,1.413608,1.251051,2.045018,1.342451,0.765195,0.987430,0.631641,2.633800,2.191213,1.208490,0.748624,0.326916,0.139043,0.123102,0.041308,0.029232,0.036013,6.194333,4.129103,1.031507,0.988204,0.506722
1649887068.772243,60.000000,0.000000,4236.922852,4229.230957,4150.769043,4217.948730,4207.692383,0.000000,4.000000,86.000000,,,,0.000000,4.000000,4.000000,4.000000,0.000000,4.000000,66.666664,,,,,,,,,,,,,,,,,,,,,,,,,,,,,,,,,,,,,,,,,,,,,,,,,,,,,,,,,,,,,,,
1649887068.780057,61.000000,0.000000,4230.769043,4233.333496,4165.641113,4217.948730,4209.230957,0.000000,4.000000,86.000000,,,,0.000000,4.000000,4.000000,4.000000,0.000000,4.000000,66.666664,,,,,,,,,,,,,,,,,,,,,,,,,,,,,,,,,,,,,,,,,,,,,,,,,,,,,,,,,,,,,,,
1649887068.787971,62.000000,0.000000,4223.589844,4230.769043,4170.769043,4216.410156,4203.589844,0.000000,4.000000,86.000000,,,,0.000000,4.000000,4.000000,4.000000,0.000000,4.000000,66.666664,,,,,,,,,,,,,,,,,,,,,,,,,,,,,,,,,,,,,,,,,,,,,,,,,,,,,,,,,,,,,,,
1649887068.795886,63.000000,0.000000,4236.410156,4243.589844,4170.256348,4216.922852,4209.230957,0.000000,4.000000,86.000000,,,,0.000000,4.000000,4.000000,4.000000,0.000000,4.000000,66.666664,,,,,,,,,,,,,,,,,,,,,,,,,,,,,,,,,,,,,,,,,,,,,,,,,,,,,,,,,,,,,,,
1649887068.803700,64.000000,0.000000,4249.743652,4250.769043,4171.282227,4218.461426,4222.051270,450.000000,4.000000,86.000000,,,,0.000000,4.000000,4.000000,4.000000,0.000000,4.000000,66.666664,,,,,,,,,,,,,,,,,,,,,,,,,,,,,,,,,,,,,,,,,,,,,,,,,,,,,,,,,,,,,,,
1649887068.811614,65.000000,0.000000,4248.205078,4235.897461,4172.820313,4220.000000,4228.205078,450.000000,4.000000,86.000000,,,,0.000000,4.000000,4.000000,4.000000,0.000000,4.000000,66.666664,,,,,,,,,,,,,,,,,,,,,,,,,,,,,,,,,,,,,,,,,,,,,,,,,,,,,,,,,,,,,,,
1649887068.819429,66.000000,0.000000,4255.897461,4237.948730,4174.358887,4220.512695,4229.743652,16217.000000,4.000000,86.000000,,,,0.000000,4.000000,4.000000,4.000000,0.000000,4.000000,66.666664,,,,,,,,,,,,,,,,,,,,,,,,,,,,,,,,,,,,,,,,,,,,,,,,,,,,,,,,,,,,,,,
1649887068.827343,67.000000,0.000000,4261.025879,4253.333496,4173.846191,4217.436035,4228.717773,450.000000,4.000000,86.000000,,,,0.000000,4.000000,4.000000,4.000000,0.000000,4.000000,66.666664,,,,,,,,,,,,,,,,,,,,,,,,,,,,,,,,,,,,,,,,,,,,,,,,,,,,,,,,,,,,,,,
1649887068.835157,68.000000,0.000000,4248.205078,4248.205078,4167.179688,4218.974121,4223.589844,16157.000000,4.000000,86.000000,,,,0.000000,4.000000,4.000000,4.000000,0.000000,4.000000,66.666664,,,,,,,,,,,,,,,,,,,,,,,,,,,,,,,,,,,,,,,,,,,,,,,,,,,,,,,,,,,,,,,
1649887068.843072,69.000000,0.000000,4249.743652,4236.922852,4158.974121,4220.512695,4228.717773,450.000000,4.000000,86.000000,,,,0.000000,4.000000,4.000000,4.000000,0.000000,4.000000,66.666664,,,,,,,,,,,,,,,,,,,,,,,,,,,,,,,,,,,,,,,,,,,,,,,,,,,,,,,,,,,,,,,
1649887068.850886,70.000000,0.000000,4266.666504,4234.358887,4152.820313,4218.461426,4241.025879,16196.000000,4.000000,86.000000,,,,0.000000,4.000000,4.000000,4.000000,0.000000,4.000000,66.666664,,,,,,,,,,,,,,,,,,,,,,,,,,,,,,,,,,,,,,,,,,,,,,,,,,,,,,,,,,,,,,,
1649887068.858800,71.000000,0.000000,4262.051270,4233.333496,4154.871582,4221.538574,4241.538574,450.000000,4.000000,86.000000,,,,0.000000,4.000000,4.000000,4.000000,0.000000,4.000000,66.666664,,,,,,,,,,,,,,,,,,,,,,,,,,,,,,,,,,,,,,,,,,,,,,,,,,,,,,,,,,,,,,,
1649887068.866615,72.000000,0.000000,4245.641113,4235.897461,4165.128418,4223.589844,4226.153809,450.000000,4.000000,86.000000,,,,0.000000,4.000000,4.000000,4.000000,0.000000,4.000000,66.666664,,,,,,,,,,,,,,,,,,,,,,,,,,,,,,,,,,,,,,,,,,,,,,,,,,,,,,,,,,,,,,,
1649887068.874529,73.000000,0.000000,4244.102539,4235.384766,4172.307617,4217.436035,4215.384766,0.000000,4.000000,86.000000,,,,0.000000,4.000000,4.000000,4.000000,0.000000,4.000000,66.666664,,,,,,,,,,,,,,,,,,,,,,,,,,,,,,,,,,,,,,,,,,,,,,,,,,,,,,,,,,,,,,,
1649887068.882344,74.000000,0.000000,4246.666504,4229.230957,4171.794922,4215.384766,4217.436035,450.000000,4.000000,86.000000,,,,0.000000,4.000000,4.000000,4.000000,0.000000,4.000000,66.666664,,,,,,,,,,,,,,,,,,,,,,,,,,,,,,,,,,,,,,,,,,,,,,,,,,,,,,,,,,,,,,,
1649887068.890258,75.000000,0.000000,4246.666504,4233.846191,4170.769043,4218.974121,4222.051270,16241.000000,4.000000,86.000000,,,,0.000000,4.000000,4.000000,4.000000,0.000000,4.000000,66.666664,,,,,,,,,,,,,,,,,,,,,,,,,,,,,,,,,,,,,,,6.505045,4.015001,1.768441,1.616458,1.477128,2.096578,1.143230,0.793533,1.071271,0.689147,2.902753,2.402143,1.283490,0.764394,0.332590,0.150508,0.136921,0.047364,0.028862,0.037165,6.521678,4.264082,1.254650,0.928580,0.598641
1649887068.898072,76.000000,0.000000,4254.358887,4241.538574,4168.717773,4217.436035,4223.077148,450.000000,4.000000,86.000000,,,,0.000000,4.000000,4.000000,4.000000,0.000000,4.000000,66.666664,,,,,,,,,,,,,,,,,,,,,,,,,,,,,,,,,,,,,,,,,,,,,,,,,,,,,,,,,,,,,,,
1649887068.905987,77.000000,0.000000,4255.897461,4238.974121,4166.666504,4216.410156,4217.436035,450.000000,4.000000,86.000000,,,,0.000000,4.000000,4.000000,4.000000,0.000000,4.000000,66.666664,,,,,,,,,,,,,,,,,,,,,,,,,,,,,,,,,,,,,,,,,,,,,,,,,,,,,,,,,,,,,,,
1649887068.913801,78.000000,0.000000,4243.589844,4230.256348,4171.282227,4217.948730,4208.205078,450.000000,4.000000,86.000000,,,,0.000000,4.000000,4.000000,4.000000,0.000000,4.000000,66.666664,,,,,,,,,,,,,,,,,,,,,,,,,,,,,,,,,,,,,,,,,,,,,,,,,,,,,,,,,,,,,,,
1649887068.921715,79.000000,0.000000,4235.897461,4230.256348,4170.769043,4216.410156,4203.077148,16241.000000,4.000000,86.000000,,,,0.000000,4.000000,4.000000,4.000000,0.000000,4.000000,66.666664,,,,,,,,,,,,,,,,,,,,,,,,,,,,,,,,,,,,,,,,,,,,,,,,,,,,,,,,,,,,,,,
1649887068.929530,80.000000,0.000000,4241.538574,4236.922852,4160.512695,4216.410156,4209.743652,450.000000,4.000000,86.000000,,,,0.000000,4.000000,4.000000,4.000000,0.000000,4.000000,66.666664,,,,,,,,,,,,,,,,,,,,,,,,,,,,,,,,,,,,,,,,,,,,,,,,,,,,,,,,,,,,,,,
1649887068.937444,81.000000,0.000000,4250.256348,4235.897461,4151.794922,4217.948730,4221.025879,450.000000,4.000000,86.000000,,,,0.000000,4.000000,4.000000,4.000000,0.000000,4.000000,66.666664,,,,,,,,,,,,,,,,,,,,,,,,,,,,,,,,,,,,,,,,,,,,,,,,,,,,,,,,,,,,,,,
1649887068.945358,82.000000,0.000000,4256.410156,4227.692383,4147.692383,4218.461426,4223.589844,450.000000,4.000000,86.000000,,,,0.000000,4.000000,4.000000,4.000000,0.000000,4.000000,66.666664,,,,,,,,,,,,,,,,,,,,,,,,,,,,,,,,,,,,,,,,,,,,,,,,,,,,,,,,,,,,,,,
1649887068.953173,83.000000,0.000000,4259.487305,4226.666504,4152.820313,4217.948730,4217.436035,16241.000000,4.000000,86.000000,,,,0.000000,4.000000,4.000000,4.000000,0.000000,4.000000,66.666664,,,,,,,,,,,,,,,,,,,,,,,,,,,,,,,,,,,,,,,,,,,,,,,,,,,,,,,,,,,,,,,
1649887068.961087,84.000000,0.000000,4250.769043,4232.820313,4159.487305,4217.436035,4213.846191,450.000000,4.000000,86.000000,,,,0.000000,4.000000,4.000000,4.000000,0.000000,4.000000,66.666664,,,,,,,,,,,,,,,,,,,,,,,,,,,,,,,,,,,,,,,,,,,,,,,,,,,,,,,,,,,,,,,
1649887068.968901,85.000000,0.000000,4234.358887,4230.256348,4161.538574,4216.410156,4213.846191,450.000000,4.000000,86.000000,,,,0.000000,4.000000,4.000000,4.000000,0.000000,4.000000,66.666664,,,,,,,,,,,,,,,,,,,,,,,,,,,,,,,,,,,,,,,,,,,,,,,,,,,,,,,,,,,,,,,
1649887068.976816,86.000000,0.000000,4232.307617,4223.589844,4165.128418,4216.410156,4209.743652,450.000000,4.000000,86.000000,,,,0.000000,4.000000,4.000000,4.000000,0.000000,4.000000,66.666664,,,,,,,,,,,,,,,,,,,,,,,,,,,,,,,,,,,,,,,,,,,,,,,,,,,,,,,,,,,,,,,
1649887068.984630,87.000000,0.000000,4235.897461,4230.769043,4170.769043,4217.436035,4207.179688,16241.000000,4.000000,86.000000,,,,0.000000,4.000000,4.000000,4.000000,0.000000,4.000000,66.666664,,,,,,,,,,,,,,,,,,,,,,,,,,,,,,,,,,,,,,,,,,,,,,,,,,,,,,,,,,,,,,,
1649887068.992544,88.000000,0.000000,4227.179688,4238.461426,4174.358887,4216.922852,4207.179688,450.000000,4.000000,86.000000,,,,0.000000,4.000000,4.000000,4.000000,0.000000,4.000000,66.666664,,,,,,,,,,,,,,,,,,,,,,,,,,,,,,,,,,,,,,,,,,,,,,,,,,,,,,,,,,,,,,,
1649887069.000359,89.000000,0.000000,4226.666504,4230.769043,4181.538574,4215.897461,4204.102539,450.000000,4.000000,86.000000,,,,0.000000,4.000000,4.000000,4.000000,0.000000,4.000000,66.666664,,,,,,,,,,,,,,,,,,,,,,,,,,,,,,,,,,,,,,,,,,,,,,,,,,,,,,,,,,,,,,,
1649887069.008273,90.000000,0.000000,4243.077148,4229.230957,4191.794922,4216.410156,4208.717773,450.000000,4.000000,86.000000,,,,0.000000,4.000000,4.000000,4.000000,0.000000,4.000000,66.666664,,,,,,,,,,,,,,,,,,,,,,,,,,,,,,,,,,,,,,,,,,,,,,,,,,,,,,,,,,,,,,,
1649887069.016088,91.000000,0.000000,4247.179688,4236.922852,4189.230957,4217.948730,4217.948730,16241.000000,4.000000,86.000000,,,,0.000000,4.000000,4.000000,4.000000,0.000000,4.000000,66.666664,1.000000,66.666664,4.000000,4.000000,4.000000,0.000000,4.000000,,,,,,,,,,,,,,,,,,,,,,,,,,,,,,,,6.233276,3.880657,1.773053,1.903430,1.665248,1.935413,0.919130,0.805623,1.142359,0.714237,2.949080,2.636889,1.261958,0.752331,0.330464,0.149277,0.147454,0.050935,0.028775,0.038437,6.239439,4.150885,1.418250,0.878399,0.680557
1649887069.023902,92.000000,0.000000,4233.333496,4231.282227,4178.461426,4217.436035,4220.000000,450.000000,4.000000,86.000000,,,,0.000000,4.000000,4.000000,4.000000,0.000000,4.000000,66.666664,,,,,,,,,,,,,,,,,,,,,,,,,,,,,,,,,,,,,,,,,,,,,,,,,,,,,,,,,,,,,,,
1649887069.031616,93.000000,0.000000,4244.615234,4230.769043,4177.436035,4217.436035,4223.589844,450.000000,4.000000,86.000000,,,,0.000000,4.000000,4.000000,4.000000,0.000000,4.000000,66.666664,,,,,,,,,,,,,,,,,,,,,,,,,,,,,,,,,,,,,,,,,,,,,,,,,,,,,,,,,,,,,,,
1649887069.039531,94.000000,0.000000,4268.717773,4243.589844,4172.307617,4221.025879,4226.666504,450.000000,4.000000,86.000000,,,,0.000000,4.000000,4.000000,4.000000,0.000000,4.000000,66.666664,,,,,,,,,,,,,,,,,,,,,,,,,,,,,,,,,,,,,,,,,,,,,,,,,,,,,,,,,,,,,,,
1649887069.047345,95.000000,0.000000,4254.871582,4240.512695,4151.794922,4221.025879,4219.487305,16241.000000,4.000000,86.000000,,,,0.000000,4.000000,4.000000,4.000000,0.000000,4.000000,66.666664,,,,,,,,,,,,,,,,,,,,,,,,,,,,,,,,,,,,,,,,,,,,,,,,,,,,,,,,,,,,,,,
1649887069.055260,96.000000,0.000000,4232.307617,4224.102539,4138.974121,4217.948730,4214.358887,450.000000,4.000000,86.000000,,,,0.000000,4.000000,4.000000,4.000000,0.000000,4.000000,66.666664,,,,,,,,,,,,,,,,,,,,,,,,,,,,,,,,,,,,,,,,,,,,,,,,,,,,,,,,,,,,,,,
1649887069.063074,97.000000,0.000000,4236.922852,4224.615234,4143.077148,4217.948730,4218.461426,450.000000,4.000000,86.000000,,,,0.000000,4.000000,4.000000,4.000000,0.000000,4.000000,66.666664,,,,,,,,,,,,,,,,,,,,,,,,,,,,,,,,,,,,,,,,,,,,,,,,,,,,,,,,,,,,,,,
1649887069.070988,98.000000,0.000000,4246.153809,4232.307617,4148.717773,4220.000000,4220.512695,450.000000,4.000000,86.000000,,,,0.000000,4.000000,4.000000,4.000000,0.000000,4.000000,66.666664,,,,,,,,,,,,,,,,,,,,,,,,,,,,,,,,,,,,,,,,,,,,,,,,,,,,,,,,,,,,,,,
1649887069.078803,99.000000,0.000000,4249.743652,4233.333496,4157.436035,4217.948730,4221.538574,16241.000000,4.000000,86.000000,,,,0.000000,4.000000,4.000000,4.000000,0.000000,4.000000,66.666664,,,,,,,,,,,,,,,,,,,,,,,,,,,,,,,,,,,,,,,,,,,,,,,,,,,,,,,,,,,,,,,
1649887069.086717,100.000000,0.000000,4259.487305,4235.384766,4175.897461,4213.846191,4228.205078,450.000000,4.000000,86.000000,,,,0.000000,4.000000,4.000000,4.000000,0.000000,4.000000,66.666664,,,,,,,,,,,,,,,,,,,,,,,,,,,,,,,,,,,,,,,,,,,,,,,,,,,,,,,,,,,,,,,
1649887069.094631,101.000000,0.000000,4255.897461,4248.205078,4194.358887,4220.000000,4233.333496,450.000000,4.000000,86.000000,,,,0.000000,4.000000,4.000000,4.000000,0.000000,4.000000,66.666664,,,,,,,,,,,,,,,,,,,,,,,,,,,,,,,,,,,,,,,,,,,,,,,,,,,,,,,,,,,,,,,
1649887069.102446,102.000000,0.000000,4250.769043,4256.922852,4204.102539,4223.589844,4233.846191,450.000000,4.000000,86.000000,,,,0.000000,4.000000,4.000000,4.000000,0.000000,4.000000,66.666664,,,,,,,,,,,,,,,,,,,,,,,,,,,,,,,,,,,,,,,,,,,,,,,,,,,,,,,,,,,,,,,
1649887069.110360,103.000000,0.000000,4255.384766,4245.128418,4207.179688,4218.974121,4234.871582,16241.000000,4.000000,86.000000,,,,0.000000,4.000000,4.000000,4.000000,0.000000,4.000000,66.666664,,,,,,,,,,,,,,,,,,,,,,,,,,,,,,,,,,,,,,,,,,,,,,,,,,,,,,,,,,,,,,,
1649887069.118174,104.000000,0.000000,4237.948730,4240.000000,4208.717773,4221.538574,4230.256348,450.000000,4.000000,86.000000,,,,0.000000,4.000000,4.000000,4.000000,0.000000,4.000000,66.666664,,,,,,,,,,,,,,,,,,,,,,,,,,,,,,,,,,,,,,,,,,,,,,,,,,,,,,,,,,,,,,,
1649887069.126089,105.000000,0.000000,4242.563965,4251.794922,4205.128418,4224.102539,4229.230957,450.000000,4.000000,86.000000,,,,0.000000,4.000000,4.000000,4.000000,0.000000,4.000000,66.666664,,,,,,,,,,,,,,,,,,,,,,,,,,,,,,,,,,,,,,,,,,,,,,,,,,,,,,,,,,,,,,,
1649887069.133903,106.000000,0.000000,4285.128418,4260.512695,4194.871582,4224.615234,4243.077148,450.000000,4.000000,86.000000,,,,0.000000,4.000000,4.000000,4.000000,0.000000,4.000000,66.666664,,,,,,,,,,,,,,,,,,,,,,,,,,,,,,,,,,,,,,,,,,,,,,,,,,,,,,,,,,,,,,,
1649887069.141717,107.000000,0.000000,4294.358887,4266.666504,4184.615234,4225.641113,4247.692383,16241.000000,4.000000,86.000000,,,,0.000000,4.000000,4.000000,4.000000,0.000000,4.000000,66.666664,,,,,,,,,,,,,,,,,,,,,,,,,,,,,,,,,,,,,,,5.407717,3.577961,1.670528,2.237596,1.755412,1.639748,0.731677,0.793239,1.176914,0.701313,2.780180,2.922405,1.135947,0.708680,0.316798,0.135798,0.152596,0.050927,0.028813,0.039149,5.397747,3.884091,1.470899,0.852647,0.731028
1649887069.149432,108.000000,0.000000,4277.948730,4271.282227,4178.461426,4221.538574,4235.384766,450.000000,4.000000,86.000000,,,,0.000000,4.000000,4.000000,4.000000,0.000000,4.000000,66.666664,,,,,,,,,,,,,,,,,,,,,,,,,,,,,,,,,,,,,,,,,,,,,,,,,,,,,,,,,,,,,,,
1649887069.157246,109.000000,0.000000,4298.974121,4272.820313,4168.205078,4219.487305,4239.487305,450.000000,4.000000,86.000000,,,,0.000000,4.000000,4.000000,4.000000,0.000000,4.000000,66.666664,,,,,,,,,,,,,,,,,,,,,,,,,,,,,,,,,,,,,,,,,,,,,,,,,,,,,,,,,,,,,,,
1649887069.164961,110.000000,0.000000,4324.615234,4270.769043,4155.897461,4224.102539,4246.153809,450.000000,4.000000,86.000000,,,,0.000000,4.000000,4.000000,4.000000,0.000000,4.000000,66.666664,,,,,,,,,,,,,,,,,,,,,,,,,,,,,,,,,,,,,,,,,,,,,,,,,,,,,,,,,,,,,,,
1649887069.172775,111.000000,0.000000,4310.256348,4263.589844,4156.922852,4221.538574,4226.153809,16241.000000,4.000000,86.000000,,,,0.000000,4.000000,4.000000,4.000000,0.000000,4.000000,66.666664,,,,,,,,,,,,,,,,,,,,,,,,,,,,,,,,,,,,,,,,,,,,,,,,,,,,,,,,,,,,,,,
1649887069.180490,112.000000,0.000000,4288.205078,4255.384766,4168.205078,4213.846191,4206.666504,450.000000,4.000000,86.000000,,,,0.000000,4.000000,4.000000,4.000000,0.000000,4.000000,66.666664,,,,,,,,,,,,,,,,,,,,,,,,,,,,,,,,,,,,,,,,,,,,,,,,,,,,,,,,,,,,,,,
1649887069.188404,113.000000,0.000000,4278.974121,4257.948730,4177.436035,4217.948730,4203.077148,450.000000,4.000000,86.000000,,,,0.000000,4.000000,4.000000,4.000000,0.000000,4.000000,66.666664,,,,,,,,,,,,,,,,,,,,,,,,,,,,,,,,,,,,,,,,,,,,,,,,,,,,,,,,,,,,,,,
1649887069.196219,114.000000,0.000000,4285.641113,4264.102539,4182.563965,4220.000000,4207.692383,450.000000,4.000000,86.000000,,,,0.000000,4.000000,4.000000,4.000000,0.000000,4.000000,66.666664,,,,,,,,,,,,,,,,,,,,,,,,,,,,,,,,,,,,,,,,,,,,,,,,,,,,,,,,,,,,,,,
1649887069.204133,115.000000,0.000000,4293.333496,4268.717773,4184.102539,4216.410156,4218.974121,16241.000000,4.000000,86.000000,,,,0.000000,4.000000,4.000000,4.000000,0.000000,4.000000,66.666664,,,,,,,,,,,,,,,,,,,,,,,,,,,,,,,,,,,,,,,,,,,,,,,,,,,,,,,,,,,,,,,
1649887069.211947,116.000000,0.000000,4284.102539,4275.384766,4182.051270,4218.461426,4221.538574,450.000000,4.000000,86.000000,,,,0.000000,4.000000,4.000000,4.000000,0.000000,4.000000,66.666664,,,,,,,,,,,,,,,,,,,,,,,,,,,,,,,,,,,,,,,,,,,,,,,,,,,,,,,,,,,,,,,
1649887069.219862,117.000000,0.000000,4276.922852,4272.820313,4184.102539,4221.538574,4209.743652,450.000000,4.000000,86.000000,,,,0.000000,4.000000,4.000000,4.000000,0.000000,4.000000,66.666664,,,,,,,,,,,,,,,,,,,,,,,,,,,,,,,,,,,,,,,,,,,,,,,,,,,,,,,,,,,,,,,
1649887069.227676,118.000000,0.000000,4273.333496,4267.692383,4190.256348,4220.512695,4201.025879,450.000000,4.000000,86.000000,,,,0.000000,4.000000,4.000000,4.000000,0.000000,4.000000,66.666664,,,,,,,,,,,,,,,,,,,,,,,,,,,,,,,,,,,,,,,,,,,,,,,,,,,,,,,,,,,,,,,
1649887069.235590,119.000000,0.000000,4270.769043,4272.307617,4194.871582,4217.948730,4195.897461,16241.000000,4.000000,86.000000,,,,0.000000,4.000000,4.000000,4.000000,0.000000,4.000000,66.666664,,,,,,,,,,,,,,,,,,,,,,,,,,,,,,,,,,,,,,,,,,,,,,,,,,,,,,,,,,,,,,,
1649887069.243405,120.000000,0.000000,4276.922852,4272.820313,4207.179688,4218.461426,4196.410156,450.000000,4.000000,86.000000,,,,0.000000,4.000000,4.000000,4.000000,0.000000,4.000000,66.666664,,,,,,,,,,,,,,,,,,,,,,,,,,,,,,,,,,,,,,,,,,,,,,,,,,,,,,,,,,,,,,,
1649887069.251219,121.000000,0.000000,4275.897461,4271.282227,4220.512695,4218.974121,4199.487305,450.000000,4.000000,86.000000,,,,0.000000,4.000000,4.000000,4.000000,0.000000,4.000000,66.666664,,,,,,,,,,,,,,,,,,,,,,,,,,,,,,,,,,,,,,,,,,,,,,,,,,,,,,,,,,,,,,,
1649887069.258934,122.000000,0.000000,4270.769043,4279.487305,4223.077148,4217.948730,4204.102539,450.000000,4.000000,86.000000,,,,0.000000,4.000000,4.000000,4.000000,0.000000,4.000000,66.666664,,,,,,,,,,,,,,,,,,,,,,,,,,,,,,,,,,,,,,,,,,,,,,,,,,,,,,,,,,,,,,,
1649887069.266848,123.000000,0.000000,4279.487305,4278.974121,4210.256348,4217.436035,4214.358887,16241.000000,4.000000,86.000000,,,,0.000000,4.000000,4.000000,4.000000,0.000000,4.000000,66.666664,,,,,,,,,,,,,,,,,,,,,,,,,,,,,,,,,,,,,,,4.297054,3.229802,1.491115,2.528260,1.708859,1.300290,0.616060,0.748385,1.159400,0.657760,2.473331,3.309118,0.941292,0.640064,0.290241,0.115542,0.150629,0.046948,0.028750,0.038687,4.252328,3.531896,1.400000,0.846452,0.734546
1649887069.274662,124.000000,0.000000,4275.384766,4260.000000,4190.256348,4217.436035,4211.282227,450.000000,4.000000,86.000000,,,,0.000000,4.000000,4.000000,4.000000,0.000000,4.000000,66.666664,,,,,,,,,,,,,,,,,,,,,,,,,,,,,,,,,,,,,,,,,,,,,,,,,,,,,,,,,,,,,,,
1649887069.282477,125.000000,0.000000,4249.230957,4252.820313,4183.077148,4218.461426,4196.922852,450.000000,4.000000,86.000000,,,,0.000000,4.000000,4.000000,4.000000,0.000000,4.000000,66.666664,,,,,,,,,,,,,,,,,,,,,,,,,,,,,,,,,,,,,,,,,,,,,,,,,,,,,,,,,,,,,,,
1649887069.290291,126.000000,0.000000,4256.922852,4267.692383,4183.589844,4218.461426,4202.563965,450.000000,4.000000,86.000000,,,,0.000000,4.000000,4.000000,4.000000,0.000000,4.000000,66.666664,,,,,,,,,,,,,,,,,,,,,,,,,,,,,,,,,,,,,,,,,,,,,,,,,,,,,,,,,,,,,,,
1649887069.298205,127.000000,0.000000,4295.897461,4272.307617,4173.846191,4217.436035,4215.897461,241.000000,4.000000,86.000000,,,,0.000000,4.000000,4.000000,4.000000,0.000000,4.000000,66.666664,,,,,,,,,,,,,,,,,,,,,,,,,,,,,,,,,,,,,,,,,,,,,,,,,,,,,,,,,,,,,,,
1649887069.306020,0.000000,0.000000,4297.948730,4259.487305,4166.153809,4217.948730,4209.743652,450.000000,4.000000,86.000000,,,,0.000000,4.000000,4.000000,4.000000,0.000000,4.000000,66.666664,,,,,,,,,,,,,,,,,,,,,,,,,,,,,,,,,,,,,,,,,,,,,,,,,,,,,,,,,,,,,,,
1649887069.313934,1.000000,0.000000,4274.871582,4255.384766,4175.384766,4219.487305,4202.051270,450.000000,4.000000,86.000000,,,,0.000000,4.000000,4.000000,4.000000,0.000000,4.000000,66.666664,,,,,,,,,,,,,,,,,,,,,,,,,,,,,,,,,,,,,,,,,,,,,,,,,,,,,,,,,,,,,,,
1649887069.321749,2.000000,0.000000,4277.436035,4268.205078,4186.153809,4219.487305,4208.205078,16241.000000,4.000000,86.000000,,,,0.000000,4.000000,4.000000,4.000000,0.000000,4.000000,66.666664,,,,,,,,,,,,,,,,,,,,,,,,,,,,,,,,,,,,,,,,,,,,,,,,,,,,,,,,,,,,,,,
1649887069.329463,3.000000,0.000000,4278.974121,4270.769043,4187.179688,4218.974121,4207.692383,450.000000,4.000000,86.000000,,,,0.000000,4.000000,4.000000,4.000000,0.000000,4.000000,66.666664,,,,,,,,,,,,,,,,,,,,,,,,,,,,,,,,,,,,,,,,,,,,,,,,,,,,,,,,,,,,,,,
1649887069.337277,4.000000,0.000000,4260.000000,4262.563965,4187.179688,4217.948730,4200.000000,16208.000000,4.000000,86.000000,,,,0.000000,4.000000,4.000000,4.000000,0.000000,4.000000,66.666664,,,,,,,,,,,,,,,,,,,,,,,,,,,,,,,,,,,,,,,,,,,,,,,,,,,,,,,,,,,,,,,
1649887069.344992,5.000000,0.000000,4258.974121,4256.922852,4186.153809,4217.948730,4198.974121,450.000000,4.000000,86.000000,,,,0.000000,4.000000,4.000000,4.000000,0.000000,4.000000,66.666664,,,,,,,,,,,,,,,,,,,,,,,,,,,,,,,,,,,,,,,,,,,,,,,,,,,,,,,,,,,,,,,
1649887069.352806,6.000000,0.000000,4276.410156,4254.871582,4185.641113,4218.974121,4207.179688,16197.000000,4.000000,86.000000,,,,0.000000,4.000000,4.000000,4.000000,0.000000,4.000000,66.666664,,,,,,,,,,,,,,,,,,,,,,,,,,,,,,,,,,,,,,,,,,,,,,,,,,,,,,,,,,,,,,,
1649887069.360521,7.000000,0.000000,4284.102539,4257.948730,4192.307617,4218.461426,4217.948730,450.000000,4.000000,86.000000,,,,0.000000,4.000000,4.000000,4.000000,0.000000,4.000000,66.666664,,,,,,,,,,,,,,,,,,,,,,,,,,,,,,,,,,,,,,,,,,,,,,,,,,,,,,,,,,,,,,,
1649887069.368435,8.000000,0.000000,4291.282227,4266.666504,4198.974121,4218.461426,4225.641113,450.000000,4.000000,86.000000,,,,0.000000,4.000000,4.000000,4.000000,0.000000,4.000000,66.666664,,,,,,,,,,,,,,,,,,,,,,,,,,,,,,,,,,,,,,,,,,,,,,,,,,,,,,,,,,,,,,,
1649887069.376250,9.000000,0.000000,4286.153809,4271.282227,4200.512695,4220.000000,4222.051270,0.000000,4.000000,86.000000,,,,0.000000,4.000000,4.000000,4.000000,0.000000,4.000000,66.666664,,,,,,,,,,,,,,,,,,,,,,,,,,,,,,,,,,,,,,,,,,,,,,,,,,,,,,,,,,,,,,,
1649887069.384164,10.000000,0.000000,4255.384766,4263.077148,4194.358887,4217.436035,4211.794922,450.000000,4.000000,86.000000,,,,0.000000,4.000000,4.000000,4.000000,0.000000,4.000000,66.666664,,,,,,,,,,,,,,,,,,,,,,,,,,,,,,,,,,,,,,,,,,,,,,,,,,,,,,,,,,,,,,,
1649887069.392078,11.000000,0.000000,4252.307617,4256.410156,4184.615234,4217.436035,4213.333496,16199.000000,4.000000,86.000000,,,,0.000000,4.000000,4.000000,4.000000,0.000000,4.000000,66.666664,,,,,,,,,,,,,,,,,,,,,,,,,,,,,,,,,,,,,,,3.230197,2.903960,1.302616,2.681014,1.534111,1.022490,0.563328,0.669587,1.091658,0.598744,2.185316,3.894119,0.742570,0.557439,0.254011,0.095141,0.140432,0.039535,0.028283,0.037027,3.210054,3.110780,1.236660,0.841450,0.689262
1649887069.399893,12.000000,0.000000,4279.487305,4259.487305,4181.538574,4222.563965,4222.563965,450.000000,4.000000,86.000000,,,,0.000000,4.000000,4.000000,4.000000,0.000000,4.000000,66.666664,,,,,,,,,,,,,,,,,,,,,,,,,,,,,,,,,,,,,,,,,,,,,,,,,,,,,,,,,,,,,,,
1649887069.407707,13.000000,0.000000,4276.410156,4263.077148,4185.641113,4222.051270,4210.769043,450.000000,4.000000,86.000000,,,,0.000000,4.000000,4.000000,4.000000,0.000000,4.000000,66.666664,,,,,,,,,,,,,,,,,,,,,,,,,,,,,,,,,,,,,,,,,,,,,,,,,,,,,,,,,,,,,,,
1649887069.415621,14.000000,0.000000,4253.333496,4263.077148,4188.717773,4216.410156,4194.358887,450.000000,4.000000,86.000000,,,,0.000000,4.000000,4.000000,4.000000,0.000000,4.000000,66.666664,,,,,,,,,,,,,,,,,,,,,,,,,,,,,,,,,,,,,,,,,,,,,,,,,,,,,,,,,,,,,,,
1649887069.423436,15.000000,0.000000,4256.922852,4260.512695,4188.717773,4216.922852,4197.948730,16199.000000,4.000000,86.000000,,,,0.000000,4.000000,4.000000,4.000000,0.000000,4.000000,66.666664,,,,,,,,,,,,,,,,,,,,,,,,,,,,,,,,,,,,,,,,,,,,,,,,,,,,,,,,,,,,,,,
1649887069.431350,16.000000,0.000000,4263.077148,4255.384766,4184.102539,4218.974121,4199.487305,0.000000,4.000000,86.000000,,,,0.000000,4.000000,4.000000,4.000000,0.000000,4.000000,66.666664,,,,,,,,,,,,,,,,,,,,,,,,,,,,,,,,,,,,,,,,,,,,,,,,,,,,,,,,,,,,,,,
1649887069.439164,17.000000,0.000000,4259.487305,4255.384766,4176.922852,4217.948730,4191.794922,0.000000,4.000000,86.000000,,,,0.000000,4.000000,4.000000,4.000000,0.000000,4.000000,66.666664,,,,,,,,,,,,,,,,,,,,,,,,,,,,,,,,,,,,,,,,,,,,,,,,,,,,,,,,,,,,,,,
1649887069.447079,18.000000,0.000000,4272.820313,4264.615234,4181.538574,4218.974121,4195.384766,0.000000,4.000000,86.000000,,,,0.000000,4.000000,4.000000,4.000000,0.000000,4.000000,66.666664,,,,,,,,,,,,,,,,,,,,,,,,,,,,,,,,,,,,,,,,,,,,,,,,,,,,,,,,,,,,,,,
1649887069.454893,19.000000,0.000000,4273.846191,4261.025879,4190.769043,4219.487305,4203.589844,0.000000,4.000000,86.000000,,,,0.000000,4.000000,4.000000,4.000000,0.000000,4.000000,66.666664,,,,,,,,,,,,,,,,,,,,,,,,,,,,,,,,,,,,,,,,,,,,,,,,,,,,,,,,,,,,,,,
1649887069.462807,20.000000,0.000000,4264.615234,4261.538574,4196.922852,4216.922852,4209.230957,0.000000,4.000000,86.000000,,,,0.000000,4.000000,4.000000,4.000000,0.000000,4.000000,66.666664,,,,,,,,,,,,,,,,,,,,,,,,,,,,,,,,,,,,,,,,,,,,,,,,,,,,,,,,,,,,,,,
1649887069.470622,21.000000,0.000000,4285.128418,4280.512695,4202.051270,4217.436035,4226.153809,0.000000,4.000000,86.000000,,,,0.000000,4.000000,4.000000,4.000000,0.000000,4.000000,66.666664,,,,,,,,,,,,,,,,,,,,,,,,,,,,,,,,,,,,,,,,,,,,,,,,,,,,,,,,,,,,,,,
1649887069.478536,22.000000,0.000000,4301.538574,4276.410156,4194.358887,4220.512695,4228.717773,0.000000,4.000000,86.000000,,,,0.000000,4.000000,4.000000,4.000000,0.000000,4.000000,66.666664,,,,,,,,,,,,,,,,,,,,,,,,,,,,,,,,,,,,,,,,,,,,,,,,,,,,,,,,,,,,,,,
1649887069.486351,23.000000,0.000000,4278.974121,4256.922852,4176.922852,4217.436035,4214.871582,0.000000,4.000000,86.000000,,,,0.000000,4.000000,4.000000,4.000000,0.000000,4.000000,66.666664,,,,,,,,,,,,,,,,,,,,,,,,,,,,,,,,,,,,,,,,,,,,,,,,,,,,,,,,,,,,,,,
1649887069.494165,24.000000,0.000000,4268.205078,4263.589844,4174.358887,4218.461426,4228.717773,0.000000,4.000000,86.000000,,,,0.000000,4.000000,4.000000,4.000000,0.000000,4.000000,66.666664,,,,,,,,,,,,,,,,,,,,,,,,,,,,,,,,,,,,,,,,,,,,,,,,,,,,,,,,,,,,,,,
1649887069.501979,25.000000,0.000000,4282.051270,4267.179688,4186.153809,4225.641113,4243.589844,0.000000,4.000000,86.000000,,,,0.000000,4.000000,4.000000,4.000000,0.000000,4.000000,66.666664,,,,,,,,,,,,,,,,,,,,,,,,,,,,,,,,,,,,,,,,,,,,,,,,,,,,,,,,,,,,,,,
1649887069.509694,26.000000,0.000000,4271.282227,4253.846191,4189.230957,4222.051270,4220.000000,0.000000,4.000000,86.000000,,,,0.000000,4.000000,4.000000,4.000000,0.000000,4.000000,66.666664,,,,,,,,,,,,,,,,,,,,,,,,,,,,,,,,,,,,,,,,,,,,,,,,,,,,,,,,,,,,,,,
1649887069.517508,27.000000,0.000000,4268.205078,4260.512695,4186.666504,4218.974121,4209.230957,0.000000,4.000000,86.000000,,,,0.000000,4.000000,4.000000,4.000000,0.000000,4.000000,66.666664,1.000000,66.666664,4.000000,4.000000,4.000000,0.000000,4.000000,,,,,,,,,,,,,,,,,,,,,,,,,,,,,,,,2.501480,2.628585,1.180438,2.638604,1.285314,0.847950,0.552081,0.574638,0.990779,0.539603,2.096187,4.785238,0.628414,0.479701,0.214343,0.079251,0.123770,0.030198,0.027118,0.034824,2.563057,2.624694,1.039303,0.824428,0.607958
1649887069.525223,28.000000,0.000000,4280.512695,4265.128418,4182.051270,4223.589844,4230.769043,0.000000,4.000000,86.000000,,,,0.000000,4.000000,4.000000,4.000000,0.000000,4.000000,66.666664,,,,,,,,,,,,,,,,,,,,,,,,,,,,,,,,,,,,,,,,,,,,,,,,,,,,,,,,,,,,,,,
1649887069.533037,29.000000,0.000000,4268.717773,4246.153809,4174.871582,4221.025879,4234.358887,0.000000,4.000000,86.000000,,,,0.000000,4.000000,4.000000,4.000000,0.000000,4.000000,66.666664,,,,,,,,,,,,,,,,,,,,,,,,,,,,,,,,,,,,,,,,,,,,,,,,,,,,,,,,,,,,,,,
1649887069.540752,30.000000,0.000000,4261.025879,4243.589844,4168.205078,4215.897461,4221.538574,0.000000,4.000000,86.000000,,,,0.000000,4.000000,4.000000,4.000000,0.000000,4.000000,66.666664,,,,,,,,,,,,,,,,,,,,,,,,,,,,,,,,,,,,,,,,,,,,,,,,,,,,,,,,,,,,,,,
1649887069.548566,31.000000,0.000000,4274.871582,4250.769043,4156.922852,4218.974121,4217.436035,0.000000,4.000000,86.000000,,,,0.000000,4.000000,4.000000,4.000000,0.000000,4.000000,66.666664,,,,,,,,,,,,,,,,,,,,,,,,,,,,,,,,,,,,,,,,,,,,,,,,,,,,,,,,,,,,,,,
1649887069.556281,32.000000,0.000000,4277.948730,4246.153809,4145.641113,4218.461426,4211.282227,0.000000,4.000000,86.000000,,,,0.000000,4.000000,4.000000,4.000000,0.000000,4.000000,66.666664,,,,,,,,,,,,,,,,,,,,,,,,,,,,,,,,,,,,,,,,,,,,,,,,,,,,,,,,,,,,,,,
1649887069.564195,33.000000,0.000000,4264.102539,4246.153809,4144.102539,4214.871582,4209.743652,0.000000,4.000000,86.000000,,,,0.000000,4.000000,4.000000,4.000000,0.000000,4.000000,66.666664,,,,,,,,,,,,,,,,,,,,,,,,,,,,,,,,,,,,,,,,,,,,,,,,,,,,,,,,,,,,,,,
1649887069.572009,34.000000,0.000000,4250.256348,4256.922852,4147.179688,4216.922852,4212.307617,0.000000,4.000000,86.000000,,,,0.000000,4.000000,4.000000,4.000000,0.000000,4.000000,66.666664,,,,,,,,,,,,,,,,,,,,,,,,,,,,,,,,,,,,,,,,,,,,,,,,,,,,,,,,,,,,,,,
1649887069.579924,35.000000,0.000000,4248.717773,4252.307617,4148.205078,4216.922852,4204.615234,0.000000,4.000000,86.000000,,,,0.000000,4.000000,4.000000,4.000000,0.000000,4.000000,66.666664,,,,,,,,,,,,,,,,,,,,,,,,,,,,,,,,,,,,,,,,,,,,,,,,,,,,,,,,,,,,,,,
1649887069.587738,36.000000,0.000000,4262.051270,4242.051270,4149.230957,4216.922852,4203.077148,0.000000,4.000000,86.000000,,,,0.000000,4.000000,4.000000,4.000000,0.000000,4.000000,66.666664,,,,,,,,,,,,,,,,,,,,,,,,,,,,,,,,,,,,,,,,,,,,,,,,,,,,,,,,,,,,,,,
1649887069.595652,37.000000,0.000000,4272.307617,4253.846191,4154.358887,4218.461426,4214.871582,0.000000,4.000000,86.000000,,,,0.000000,4.000000,4.000000,4.000000,0.000000,4.000000,66.666664,,,,,,,,,,,,,,,,,,,,,,,,,,,,,,,,,,,,,,,,,,,,,,,,,,,,,,,,,,,,,,,
1649887069.603467,38.000000,0.000000,4261.025879,4271.282227,4162.051270,4218.461426,4214.358887,0.000000,4.000000,86.000000,,,,0.000000,4.000000,4.000000,4.000000,0.000000,4.000000,66.666664,,,,,,,,,,,,,,,,,,,,,,,,,,,,,,,,,,,,,,,,,,,,,,,,,,,,,,,,,,,,,,,
1649887069.611381,39.000000,0.000000,4245.128418,4259.487305,4164.102539,4216.922852,4202.563965,0.000000,4.000000,86.000000,,,,0.000000,4.000000,4.000000,4.000000,0.000000,4.000000,66.666664,,,,,,,,,,,,,,,,,,,,,,,,,,,,,,,,,,,,,,,,,,,,,,,,,,,,,,,,,,,,,,,
1649887069.619196,40.000000,0.000000,4246.666504,4243.077148,4154.358887,4219.487305,4206.666504,0.000000,4.000000,86.000000,,,,0.000000,4.000000,4.000000,4.000000,0.000000,4.000000,66.666664,,,,,,,,,,,,,,,,,,,,,,,,,,,,,,,,,,,,,,,,,,,,,,,,,,,,,,,,,,,,,,,
1649887069.627110,41.000000,0.000000,4263.589844,4250.769043,4150.769043,4223.077148,4225.128418,0.000000,4.000000,86.000000,,,,0.000000,4.000000,4.000000,4.000000,0.000000,4.000000,66.666664,,,,,,,,,,,,,,,,,,,,,,,,,,,,,,,,,,,,,,,,,,,,,,,,,,,,,,,,,,,,,,,
1649887069.634924,42.000000,0.000000,4278.461426,4248.205078,4162.051270,4220.512695,4231.282227,0.000000,4.000000,86.000000,,,,0.000000,4.000000,4.000000,4.000000,0.000000,4.000000,66.666664,,,,,,,,,,,,,,,,,,,,,,,,,,,,,,,,,,,,,,,,,,,,,,,,,,,,,,,,,,,,,,,
1649887069.642839,43.000000,0.000000,4274.358887,4238.461426,4160.512695,4215.384766,4218.974121,0.000000,4.000000,86.000000,,,,0.000000,4.000000,4.000000,4.000000,0.000000,4.000000,66.666664,,,,,,,,,,,,,,,,,,,,,,,,,,,,,,,,,,,,,,,2.258581,2.406831,1.174293,2.409490,1.044421,0.756033,0.562505,0.485021,0.876639,0.488877,2.350980,6.010750,0.665074,0.426187,0.178188,0.070284,0.105632,0.020926,0.025141,0.033087,2.470368,2.121858,0.865504,0.794298,0.514592
1649887069.650653,44.000000,0.000000,4269.230957,4254.358887,4154.871582,4214.871582,4214.358887,0.000000,4.000000,86.000000,,,,0.000000,4.000000,4.000000,4.000000,0.000000,4.000000,66.666664,,,,,,,,,,,,,,,,,,,,,,,,,,,,,,,,,,,,,,,,,,,,,,,,,,,,,,,,,,,,,,,
1649887069.658567,45.000000,0.000000,4284.102539,4272.307617,4174.358887,4223.589844,4233.846191,0.000000,4.000000,86.000000,,,,0.000000,4.000000,4.000000,4.000000,0.000000,4.000000,66.666664,,,,,,,,,,,,,,,,,,,,,,,,,,,,,,,,,,,,,,,,,,,,,,,,,,,,,,,,,,,,,,,
1649887069.666382,46.000000,0.000000,4293.333496,4269.743652,4187.179688,4225.641113,4248.205078,0.000000,4.000000,86.000000,,,,0.000000,4.000000,4.000000,4.000000,0.000000,4.000000,66.666664,,,,,,,,,,,,,,,,,,,,,,,,,,,,,,,,,,,,,,,,,,,,,,,,,,,,,,,,,,,,,,,
1649887069.674296,47.000000,0.000000,4286.666504,4262.051270,4176.410156,4219.487305,4238.974121,0.000000,4.000000,86.000000,,,,0.000000,4.000000,4.000000,4.000000,0.000000,4.000000,66.666664,,,,,,,,,,,,,,,,,,,,,,,,,,,,,,,,,,,,,,,,,,,,,,,,,,,,,,,,,,,,,,,
1649887069.682110,48.000000,0.000000,4282.051270,4256.410156,4171.794922,4222.051270,4233.333496,0.000000,4.000000,86.000000,,,,0.000000,4.000000,4.000000,4.000000,0.000000,4.000000,66.666664,,,,,,,,,,,,,,,,,,,,,,,,,,,,,,,,,,,,,,,,,,,,,,,,,,,,,,,,,,,,,,,
1649887069.689825,49.000000,0.000000,4278.974121,4248.717773,4171.794922,4225.641113,4233.846191,0.000000,4.000000,86.000000,,,,0.000000,4.000000,4.000000,4.000000,0.000000,4.000000,66.666664,,,,,,,,,,,,,,,,,,,,,,,,,,,,,,,,,,,,,,,,,,,,,,,,,,,,,,,,,,,,,,,
1649887069.697639,50.000000,0.000000,4268.717773,4255.384766,4167.179688,4218.974121,4232.820313,0.000000,4.000000,86.000000,,,,0.000000,4.000000,4.000000,4.000000,0.000000,4.000000,66.666664,,,,,,,,,,,,,,,,,,,,,,,,,,,,,,,,,,,,,,,,,,,,,,,,,,,,,,,,,,,,,,,
1649887069.705354,51.000000,0.000000,4277.436035,4275.384766,4170.256348,4214.358887,4243.589844,0.000000,4.000000,86.000000,,,,0.000000,4.000000,4.000000,4.000000,0.000000,4.000000,66.666664,,,,,,,,,,,,,,,,,,,,,,,,,,,,,,,,,,,,,,,,,,,,,,,,,,,,,,,,,,,,,,,
1649887069.713268,52.000000,0.000000,4300.000000,4271.282227,4175.897461,4221.025879,4257.436035,0.000000,4.000000,86.000000,,,,0.000000,4.000000,4.000000,4.000000,0.000000,4.000000,66.666664,,,,,,,,,,,,,,,,,,,,,,,,,,,,,,,,,,,,,,,,,,,,,,,,,,,,,,,,,,,,,,,
1649887069.721082,53.000000,0.000000,4297.436035,4243.589844,4172.307617,4223.589844,4251.282227,0.000000,4.000000,86.000000,,,,0.000000,4.000000,4.000000,4.000000,0.000000,4.000000,66.666664,,,,,,,,,,,,,,,,,,,,,,,,,,,,,,,,,,,,,,,,,,,,,,,,,,,,,,,,,,,,,,,
1649887069.728997,54.000000,0.000000,4280.512695,4247.692383,4171.794922,4221.025879,4234.871582,0.000000,4.000000,86.000000,,,,0.000000,4.000000,4.000000,4.000000,0.000000,4.000000,66.666664,,,,,,,,,,,,,,,,,,,,,,,,,,,,,,,,,,,,,,,,,,,,,,,,,,,,,,,,,,,,,,,
1649887069.736811,55.000000,0.000000,4277.436035,4281.025879,4174.871582,4217.436035,4224.615234,0.000000,4.000000,86.000000,,,,0.000000,4.000000,4.000000,4.000000,0.000000,4.000000,66.666664,,,,,,,,,,,,,,,,,,,,,,,,,,,,,,,,,,,,,,,,,,,,,,,,,,,,,,,,,,,,,,,
1649887069.744726,56.000000,0.000000,4281.538574,4279.487305,4169.230957,4216.922852,4222.563965,0.000000,4.000000,86.000000,,,,0.000000,4.000000,4.000000,4.000000,0.000000,4.000000,66.666664,,,,,,,,,,,,,,,,,,,,,,,,,,,,,,,,,,,,,,,,,,,,,,,,,,,,,,,,,,,,,,,
1649887069.752540,57.000000,0.000000,4268.205078,4247.179688,4160.512695,4218.461426,4226.666504,0.000000,4.000000,86.000000,,,,0.000000,4.000000,4.000000,4.000000,0.000000,4.000000,66.666664,,,,,,,,,,,,,,,,,,,,,,,,,,,,,,,,,,,,,,,,,,,,,,,,,,,,,,,,,,,,,,,
1649887069.760454,58.000000,0.000000,4248.205078,4245.128418,4154.871582,4216.922852,4223.077148,0.000000,4.000000,86.000000,,,,0.000000,4.000000,4.000000,4.000000,0.000000,4.000000,66.666664,,,,,,,,,,,,,,,,,,,,,,,,,,,,,,,,,,,,,,,,,,,,,,,,,,,,,,,,,,,,,,,
1649887069.768269,59.000000,0.000000,4257.436035,4257.948730,4152.820313,4215.384766,4214.358887,0.000000,4.000000,86.000000,,,,0.000000,4.000000,4.000000,4.000000,0.000000,4.000000,66.666664,,,,,,,,,,,,,,,,,,,,,,,,,,,,,,,,,,,,,,,2.411962,2.245012,1.275546,2.067746,0.887955,0.698630,0.592546,0.414848,0.767133,0.449438,3.022652,7.403568,0.864173,0.411702,0.150825,0.065777,0.091262,0.013540,0.022464,0.032682,2.732666,1.710029,0.746526,0.760481,0.435339
1649887069.776183,60.000000,0.000000,4281.538574,4242.563965,4157.436035,4220.000000,4221.538574,0.000000,4.000000,86.000000,,,,0.000000,4.000000,4.000000,4.000000,0.000000,4.000000,66.666664,,,,,,,,,,,,,,,,,,,,,,,,,,,,,,,,,,,,,,,,,,,,,,,,,,,,,,,,,,,,,,,
1649887069.783997,61.000000,0.000000,4271.794922,4232.307617,4160.512695,4224.615234,4231.282227,0.000000,4.000000,86.000000,,,,0.000000,4.000000,4.000000,4.000000,0.000000,4.000000,66.666664,,,,,,,,,,,,,,,,,,,,,,,,,,,,,,,,,,,,,,,,,,,,,,,,,,,,,,,,,,,,,,,
1649887069.791912,62.000000,0.000000,4248.205078,4245.641113,4152.307617,4222.051270,4228.205078,0.000000,4.000000,86.000000,,,,0.000000,4.000000,4.000000,4.000000,0.000000,4.000000,66.666664,,,,,,,,,,,,,,,,,,,,,,,,,,,,,,,,,,,,,,,,,,,,,,,,,,,,,,,,,,,,,,,
1649887069.799726,63.000000,0.000000,4250.769043,4245.641113,4141.538574,4215.384766,4225.128418,0.000000,4.000000,86.000000,,,,0.000000,4.000000,4.000000,4.000000,0.000000,4.000000,66.666664,,,,,,,,,,,,,,,,,,,,,,,,,,,,,,,,,,,,,,,,,,,,,,,,,,,,,,,,,,,,,,,
1649887069.807640,64.000000,0.000000,4264.615234,4231.282227,4145.641113,4215.897461,4225.641113,450.000000,4.000000,86.000000,,,,0.000000,4.000000,4.000000,4.000000,0.000000,4.000000,66.666664,,,,,,,,,,,,,,,,,,,,,,,,,,,,,,,,,,,,,,,,,,,,,,,,,,,,,,,,,,,,,,,
1649887069.815455,65.000000,0.000000,4265.128418,4235.897461,4152.820313,4220.512695,4221.538574,450.000000,4.000000,86.000000,,,,0.000000,4.000000,4.000000,4.000000,0.000000,4.000000,66.666664,,,,,,,,,,,,,,,,,,,,,,,,,,,,,,,,,,,,,,,,,,,,,,,,,,,,,,,,,,,,,,,
1649887069.823369,66.000000,0.000000,4260.000000,4244.615234,4158.461426,4218.461426,4221.025879,16251.000000,4.000000,86.000000,,,,0.000000,4.000000,4.000000,4.000000,0.000000,4.000000,66.666664,,,,,,,,,,,,,,,,,,,,,,,,,,,,,,,,,,,,,,,,,,,,,,,,,,,,,,,,,,,,,,,
1649887069.831183,67.000000,0.000000,4257.436035,4237.436035,4166.666504,4214.871582,4226.666504,450.000000,4.000000,86.000000,,,,0.000000,4.000000,4.000000,4.000000,0.000000,4.000000,66.666664,,,,,,,,,,,,,,,,,,,,,,,,,,,,,,,,,,,,,,,,,,,,,,,,,,,,,,,,,,,,,,,
1649887069.839098,68.000000,0.000000,4261.538574,4244.615234,4167.179688,4218.974121,4226.153809,16196.000000,4.000000,86.000000,,,,0.000000,4.000000,4.000000,4.000000,0.000000,4.000000,66.666664,,,,,,,,,,,,,,,,,,,,,,,,,,,,,,,,,,,,,,,,,,,,,,,,,,,,,,,,,,,,,,,
1649887069.847012,69.000000,0.000000,4265.641113,4248.205078,4156.922852,4222.051270,4217.948730,450.000000,4.000000,86.000000,,,,0.000000,4.000000,4.000000,4.000000,0.000000,4.000000,66.666664,,,,,,,,,,,,,,,,,,,,,,,,,,,,,,,,,,,,,,,,,,,,,,,,,,,,,,,,,,,,,,,
1649887069.854826,70.000000,0.000000,4259.487305,4232.820313,4150.256348,4217.948730,4206.666504,16217.000000,4.000000,86.000000,,,,0.000000,4.000000,4.000000,4.000000,0.000000,4.000000,66.666664,,,,,,,,,,,,,,,,,,,,,,,,,,,,,,,,,,,,,,,,,,,,,,,,,,,,,,,,,,,,,,,
1649887069.862641,71.000000,0.000000,4251.282227,4237.948730,4150.769043,4215.897461,4199.487305,450.000000,4.000000,86.000000,,,,0.000000,4.000000,4.000000,4.000000,0.000000,4.000000,66.666664,,,,,,,,,,,,,,,,,,,,,,,,,,,,,,,,,,,,,,,,,,,,,,,,,,,,,,,,,,,,,,,
1649887069.870355,72.000000,0.000000,4246.666504,4253.333496,4150.256348,4216.922852,4202.563965,450.000000,4.000000,86.000000,,,,0.000000,4.000000,4.000000,4.000000,0.000000,4.000000,66.666664,,,,,,,,,,,,,,,,,,,,,,,,,,,,,,,,,,,,,,,,,,,,,,,,,,,,,,,,,,,,,,,
1649887069.878170,73.000000,0.000000,4251.282227,4240.000000,4151.794922,4221.025879,4213.846191,0.000000,4.000000,86.000000,,,,0.000000,4.000000,4.000000,4.000000,0.000000,4.000000,66.666664,,,,,,,,,,,,,,,,,,,,,,,,,,,,,,,,,,,,,,,,,,,,,,,,,,,,,,,,,,,,,,,
1649887069.885884,74.000000,0.000000,4263.077148,4231.282227,4152.307617,4223.589844,4222.051270,450.000000,4.000000,86.000000,,,,0.000000,4.000000,4.000000,4.000000,0.000000,4.000000,66.666664,,,,,,,,,,,,,,,,,,,,,,,,,,,,,,,,,,,,,,,,,,,,,,,,,,,,,,,,,,,,,,,
1649887069.893699,75.000000,0.000000,4262.051270,4251.794922,4150.769043,4220.000000,4217.948730,16195.000000,4.000000,86.000000,,,,0.000000,4.000000,4.000000,4.000000,0.000000,4.000000,66.666664,,,,,,,,,,,,,,,,,,,,,,,,,,,,,,,,,,,,,,,2.798976,2.121070,1.428807,1.723274,0.854735,0.655847,0.637247,0.370383,0.675914,0.422777,4.036691,8.602233,1.175624,0.435883,0.134620,0.063540,0.082846,0.009091,0.019600,0.034145,3.110106,1.461155,0.692529,0.727980,0.388952
1649887069.901413,76.000000,0.000000,4253.846191,4262.563965,4162.051270,4215.897461,4206.666504,450.000000,4.000000,86.000000,,,,0.000000,4.000000,4.000000,4.000000,0.000000,4.000000,66.666664,,,,,,,,,,,,,,,,,,,,,,,,,,,,,,,,,,,,,,,,,,,,,,,,,,,,,,,,,,,,,,,
1649887069.909328,77.000000,0.000000,4264.615234,4256.922852,4175.384766,4217.436035,4210.256348,450.000000,4.000000,86.000000,,,,0.000000,4.000000,4.000000,4.000000,0.000000,4.000000,66.666664,,,,,,,,,,,,,,,,,,,,,,,,,,,,,,,,,,,,,,,,,,,,,,,,,,,,,,,,,,,,,,,
1649887069.917142,78.000000,0.000000,4278.461426,4259.487305,4171.282227,4218.461426,4225.128418,450.000000,4.000000,86.000000,,,,0.000000,4.000000,4.000000,4.000000,0.000000,4.000000,66.666664,,,,,,,,,,,,,,,,,,,,,,,,,,,,,,,,,,,,,,,,,,,,,,,,,,,,,,,,,,,,,,,
1649887069.925056,79.000000,0.000000,4269.230957,4265.641113,4162.051270,4218.461426,4228.717773,16195.000000,4.000000,86.000000,,,,0.000000,4.000000,4.000000,4.000000,0.000000,4.000000,66.666664,,,,,,,,,,,,,,,,,,,,,,,,,,,,,,,,,,,,,,,,,,,,,,,,,,,,,,,,,,,,,,,
1649887069.932871,80.000000,0.000000,4260.000000,4258.974121,4153.333496,4220.000000,4221.025879,450.000000,4.000000,86.000000,,,,0.000000,4.000000,4.000000,4.000000,0.000000,4.000000,66.666664,,,,,,,,,,,,,,,,,,,,,,,,,,,,,,,,,,,,,,,,,,,,,,,,,,,,,,,,,,,,,,,
1649887069.940785,81.000000,0.000000,4264.615234,4250.256348,4146.153809,4216.922852,4218.461426,450.000000,4.000000,86.000000,,,,0.000000,4.000000,4.000000,4.000000,0.000000,4.000000,66.666664,,,,,,,,,,,,,,,,,,,,,,,,,,,,,,,,,,,,,,,,,,,,,,,,,,,,,,,,,,,,,,,
1649887069.948599,82.000000,0.000000,4259.487305,4254.358887,4140.512695,4216.410156,4220.512695,450.000000,4.000000,86.000000,,,,0.000000,4.000000,4.000000,4.000000,0.000000,4.000000,66.666664,,,,,,,,,,,,,,,,,,,,,,,,,,,,,,,,,,,,,,,,,,,,,,,,,,,,,,,,,,,,,,,
1649887069.956414,83.000000,0.000000,4257.436035,4259.487305,4143.589844,4217.948730,4218.461426,16195.000000,4.000000,86.000000,,,,0.000000,4.000000,4.000000,4.000000,0.000000,4.000000,66.666664,,,,,,,,,,,,,,,,,,,,,,,,,,,,,,,,,,,,,,,,,,,,,,,,,,,,,,,,,,,,,,,
1649887069.964128,84.000000,0.000000,4268.717773,4262.051270,4154.871582,4216.922852,4222.051270,450.000000,4.000000,86.000000,,,,0.000000,4.000000,4.000000,4.000000,0.000000,4.000000,66.666664,,,,,,,,,,,,,,,,,,,,,,,,,,,,,,,,,,,,,,,,,,,,,,,,,,,,,,,,,,,,,,,
1649887069.972043,85.000000,0.000000,4262.563965,4265.641113,4165.128418,4216.410156,4224.615234,450.000000,4.000000,86.000000,,,,0.000000,4.000000,4.000000,4.000000,0.000000,4.000000,66.666664,,,,,,,,,,,,,,,,,,,,,,,,,,,,,,,,,,,,,,,,,,,,,,,,,,,,,,,,,,,,,,,
1649887069.979857,86.000000,0.000000,4244.102539,4263.077148,4171.794922,4216.410156,4218.461426,450.000000,4.000000,86.000000,,,,0.000000,4.000000,4.000000,4.000000,0.000000,4.000000,66.666664,,,,,,,,,,,,,,,,,,,,,,,,,,,,,,,,,,,,,,,,,,,,,,,,,,,,,,,,,,,,,,,
1649887069.987771,87.000000,0.000000,4252.307617,4241.538574,4173.846191,4217.948730,4218.461426,16195.000000,4.000000,86.000000,,,,0.000000,4.000000,4.000000,4.000000,0.000000,4.000000,66.666664,,,,,,,,,,,,,,,,,,,,,,,,,,,,,,,,,,,,,,,,,,,,,,,,,,,,,,,,,,,,,,,
1649887069.995586,88.000000,0.000000,4265.128418,4228.717773,4170.769043,4218.974121,4224.102539,450.000000,4.000000,86.000000,,,,0.000000,4.000000,4.000000,4.000000,0.000000,4.000000,66.666664,,,,,,,,,,,,,,,,,,,,,,,,,,,,,,,,,,,,,,,,,,,,,,,,,,,,,,,,,,,,,,,
1649887070.003500,89.000000,0.000000,4252.307617,4247.179688,4167.179688,4217.436035,4222.051270,450.000000,4.000000,86.000000,,,,0.000000,4.000000,4.000000,4.000000,0.000000,4.000000,66.666664,,,,,,,,,,,,,,,,,,,,,,,,,,,,,,,,,,,,,,,,,,,,,,,,,,,,,,,,,,,,,,,
1649887070.011314,90.000000,0.000000,4245.128418,4262.051270,4173.846191,4215.897461,4222.051270,450.000000,4.000000,86.000000,,,,0.000000,4.000000,4.000000,4.000000,0.000000,4.000000,66.666664,,,,,,,,,,,,,,,,,,,,,,,,,,,,,,,,,,,,,,,,,,,,,,,,,,,,,,,,,,,,,,,
1649887070.019129,91.000000,0.000000,4266.666504,4256.922852,4180.512695,4218.974121,4230.769043,16195.000000,4.000000,86.000000,,,,0.000000,4.000000,4.000000,4.000000,0.000000,4.000000,66.666664,1.000000,66.666664,4.000000,4.000000,4.000000,0.000000,4.000000,,,,,,,,,,,,,,,,,,,,,,,,,,,,,,,,3.298507,2.001202,1.557246,1.466021,0.928911,0.650310,0.684207,0.357852,0.616566,0.415361,5.170017,9.192397,1.507435,0.486299,0.129195,0.063679,0.079115,0.007424,0.017842,0.037762,3.433690,1.380679,0.680611,0.702822,0.381369
1649887070.026843,92.000000,0.000000,4287.179688,4260.000000,4175.384766,4222.051270,4228.205078,450.000000,4.000000,86.000000,,,,0.000000,4.000000,4.000000,4.000000,0.000000,4.000000,66.666664,,,,,,,,,,,,,,,,,,,,,,,,,,,,,,,,,,,,,,,,,,,,,,,,,,,,,,,,,,,,,,,
1649887070.034758,93.000000,0.000000,4272.820313,4271.794922,4176.410156,4219.487305,4220.512695,450.000000,4.000000,86.000000,,,,0.000000,4.000000,4.000000,4.000000,0.000000,4.000000,66.666664,,,,,,,,,,,,,,,,,,,,,,,,,,,,,,,,,,,,,,,,,,,,,,,,,,,,,,,,,,,,,,,
1649887070.042572,94.000000,0.000000,4247.692383,4260.512695,4178.974121,4216.922852,4226.666504,450.000000,4.000000,86.000000,,,,0.000000,4.000000,4.000000,4.000000,0.000000,4.000000,66.666664,,,,,,,,,,,,,,,,,,,,,,,,,,,,,,,,,,,,,,,,,,,,,,,,,,,,,,,,,,,,,,,
1649887070.050386,95.000000,0.000000,4260.000000,4246.666504,4172.820313,4217.436035,4238.974121,16195.000000,4.000000,86.000000,,,,0.000000,4.000000,4.000000,4.000000,0.000000,4.000000,66.666664,,,,,,,,,,,,,,,,,,,,,,,,,,,,,,,,,,,,,,,,,,,,,,,,,,,,,,,,,,,,,,,
1649887070.058201,96.000000,0.000000,4287.179688,4255.384766,4167.179688,4218.461426,4240.000000,450.000000,4.000000,86.000000,,,,0.000000,4.000000,4.000000,4.000000,0.000000,4.000000,66.666664,,,,,,,,,,,,,,,,,,,,,,,,,,,,,,,,,,,,,,,,,,,,,,,,,,,,,,,,,,,,,,,
1649887070.065915,97.000000,0.000000,4282.051270,4264.102539,4169.743652,4218.974121,4235.897461,450.000000,4.000000,86.000000,,,,0.000000,4.000000,4.000000,4.000000,0.000000,4.000000,66.666664,,,,,,,,,,,,,,,,,,,,,,,,,,,,,,,,,,,,,,,,,,,,,,,,,,,,,,,,,,,,,,,
1649887070.073830,98.000000,0.000000,4256.410156,4262.051270,4174.358887,4218.461426,4238.461426,450.000000,4.000000,86.000000,,,,0.000000,4.000000,4.000000,4.000000,0.000000,4.000000,66.666664,,,,,,,,,,,,,,,,,,,,,,,,,,,,,,,,,,,,,,,,,,,,,,,,,,,,,,,,,,,,,,,
1649887070.081644,99.000000,0.000000,4245.128418,4254.871582,4173.846191,4216.410156,4230.769043,16195.000000,4.000000,86.000000,,,,0.000000,4.000000,4.000000,4.000000,0.000000,4.000000,66.666664,,,,,,,,,,,,,,,,,,,,,,,,,,,,,,,,,,,,,,,,,,,,,,,,,,,,,,,,,,,,,,,
1649887070.089459,100.000000,0.000000,4243.589844,4256.922852,4168.205078,4216.410156,4210.256348,450.000000,4.000000,86.000000,,,,0.000000,4.000000,4.000000,4.000000,0.000000,4.000000,66.666664,,,,,,,,,,,,,,,,,,,,,,,,,,,,,,,,,,,,,,,,,,,,,,,,,,,,,,,,,,,,,,,
1649887070.097173,101.000000,0.000000,4247.692383,4263.077148,4163.589844,4220.512695,4210.256348,450.000000,4.000000,86.000000,,,,0.000000,4.000000,4.000000,4.000000,0.000000,4.000000,66.666664,,,,,,,,,,,,,,,,,,,,,,,,,,,,,,,,,,,,,,,,,,,,,,,,,,,,,,,,,,,,,,,
1649887070.105087,102.000000,0.000000,4257.436035,4255.384766,4165.641113,4218.461426,4229.743652,450.000000,4.000000,86.000000,,,,0.000000,4.000000,4.000000,4.000000,0.000000,4.000000,66.666664,,,,,,,,,,,,,,,,,,,,,,,,,,,,,,,,,,,,,,,,,,,,,,,,,,,,,,,,,,,,,,,
1649887070.112902,103.000000,0.000000,4262.563965,4256.410156,4172.820313,4215.384766,4242.051270,16195.000000,4.000000,86.000000,,,,0.000000,4.000000,4.000000,4.000000,0.000000,4.000000,66.666664,,,,,,,,,,,,,,,,,,,,,,,,,,,,,,,,,,,,,,,,,,,,,,,,,,,,,,,,,,,,,,,
1649887070.120716,104.000000,0.000000,4273.333496,4278.974121,4183.077148,4222.563965,4255.897461,450.000000,4.000000,86.000000,,,,0.000000,4.000000,4.000000,4.000000,0.000000,4.000000,66.666664,,,,,,,,,,,,,,,,,,,,,,,,,,,,,,,,,,,,,,,,,,,,,,,,,,,,,,,,,,,,,,,
1649887070.128431,105.000000,0.000000,4289.230957,4284.615234,4189.743652,4224.102539,4268.717773,450.000000,4.000000,86.000000,,,,0.000000,4.000000,4.000000,4.000000,0.000000,4.000000,66.666664,,,,,,,,,,,,,,,,,,,,,,,,,,,,,,,,,,,,,,,,,,,,,,,,,,,,,,,,,,,,,,,
1649887070.136345,106.000000,0.000000,4289.743652,4267.179688,4183.077148,4222.563965,4260.000000,450.000000,4.000000,86.000000,,,,0.000000,4.000000,4.000000,4.000000,0.000000,4.000000,66.666664,,,,,,,,,,,,,,,,,,,,,,,,,,,,,,,,,,,,,,,,,,,,,,,,,,,,,,,,,,,,,,,
1649887070.144159,107.000000,0.000000,4278.974121,4249.230957,4170.256348,4226.153809,4247.179688,16195.000000,4.000000,86.000000,,,,0.000000,4.000000,4.000000,4.000000,0.000000,4.000000,66.666664,,,,,,,,,,,,,,,,,,,,,,,,,,,,,,,,,,,,,,,3.802268,1.853585,1.594658,1.321403,1.053394,0.738099,0.721875,0.378198,0.601068,0.439570,6.130743,8.888274,1.779887,0.545223,0.132264,0.066934,0.077033,0.007820,0.018723,0.043510,3.647047,1.406611,0.679886,0.692536,0.404718
1649887070.151974,108.000000,0.000000,4271.282227,4244.102539,4171.282227,4223.077148,4246.666504,450.000000,4.000000,86.000000,,,,0.000000,4.000000,4.000000,4.000000,0.000000,4.000000,66.666664,,,,,,,,,,,,,,,,,,,,,,,,,,,,,,,,,,,,,,,,,,,,,,,,,,,,,,,,,,,,,,,
1649887070.159688,109.000000,0.000000,4256.410156,4258.461426,4183.077148,4218.461426,4242.563965,450.000000,4.000000,86.000000,,,,0.000000,4.000000,4.000000,4.000000,0.000000,4.000000,66.666664,,,,,,,,,,,,,,,,,,,,,,,,,,,,,,,,,,,,,,,,,,,,,,,,,,,,,,,,,,,,,,,
1649887070.167603,110.000000,0.000000,4246.666504,4268.717773,4179.487305,4222.051270,4229.230957,450.000000,4.000000,86.000000,,,,0.000000,4.000000,4.000000,4.000000,0.000000,4.000000,66.666664,,,,,,,,,,,,,,,,,,,,,,,,,,,,,,,,,,,,,,,,,,,,,,,,,,,,,,,,,,,,,,,
1649887070.175417,111.000000,0.000000,4255.897461,4255.897461,4164.102539,4220.512695,4223.589844,16195.000000,4.000000,86.000000,,,,0.000000,4.000000,4.000000,4.000000,0.000000,4.000000,66.666664,,,,,,,,,,,,,,,,,,,,,,,,,,,,,,,,,,,,,,,,,,,,,,,,,,,,,,,,,,,,,,,
1649887070.183331,112.000000,0.000000,4250.256348,4247.692383,4156.922852,4213.333496,4222.051270,450.000000,4.000000,86.000000,,,,0.000000,4.000000,4.000000,4.000000,0.000000,4.000000,66.666664,,,,,,,,,,,,,,,,,,,,,,,,,,,,,,,,,,,,,,,,,,,,,,,,,,,,,,,,,,,,,,,
1649887070.191146,113.000000,0.000000,4221.025879,4250.256348,4154.358887,4216.922852,4203.077148,450.000000,4.000000,86.000000,,,,0.000000,4.000000,4.000000,4.000000,0.000000,4.000000,66.666664,,,,,,,,,,,,,,,,,,,,,,,,,,,,,,,,,,,,,,,,,,,,,,,,,,,,,,,,,,,,,,,
1649887070.199060,114.000000,0.000000,4208.205078,4243.589844,4157.436035,4217.948730,4184.615234,450.000000,4.000000,86.000000,,,,0.000000,4.000000,4.000000,4.000000,0.000000,4.000000,66.666664,,,,,,,,,,,,,,,,,,,,,,,,,,,,,,,,,,,,,,,,,,,,,,,,,,,,,,,,,,,,,,,
1649887070.206874,115.000000,0.000000,4222.563965,4238.461426,4172.307617,4213.846191,4198.974121,16195.000000,4.000000,86.000000,,,,0.000000,4.000000,4.000000,4.000000,0.000000,4.000000,66.666664,,,,,,,,,,,,,,,,,,,,,,,,,,,,,,,,,,,,,,,,,,,,,,,,,,,,,,,,,,,,,,,
1649887070.214689,116.000000,0.000000,4236.410156,4242.051270,4181.025879,4216.922852,4223.589844,450.000000,4.000000,86.000000,,,,0.000000,4.000000,4.000000,4.000000,0.000000,4.000000,66.666664,,,,,,,,,,,,,,,,,,,,,,,,,,,,,,,,,,,,,,,,,,,,,,,,,,,,,,,,,,,,,,,
1649887070.222403,117.000000,0.000000,4244.615234,4240.000000,4173.333496,4219.487305,4221.538574,450.000000,4.000000,86.000000,,,,0.000000,4.000000,4.000000,4.000000,0.000000,4.000000,66.666664,,,,,,,,,,,,,,,,,,,,,,,,,,,,,,,,,,,,,,,,,,,,,,,,,,,,,,,,,,,,,,,
1649887070.230318,118.000000,0.000000,4251.794922,4238.974121,4171.282227,4216.410156,4209.743652,450.000000,4.000000,86.000000,,,,0.000000,4.000000,4.000000,4.000000,0.000000,4.000000,66.666664,,,,,,,,,,,,,,,,,,,,,,,,,,,,,,,,,,,,,,,,,,,,,,,,,,,,,,,,,,,,,,,
1649887070.238132,119.000000,0.000000,4257.948730,4251.282227,4184.102539,4219.487305,4224.102539,16195.000000,4.000000,86.000000,,,,0.000000,4.000000,4.000000,4.000000,0.000000,4.000000,66.666664,,,,,,,,,,,,,,,,,,,,,,,,,,,,,,,,,,,,,,,,,,,,,,,,,,,,,,,,,,,,,,,
1649887070.245946,120.000000,0.000000,4265.641113,4265.641113,4185.128418,4223.589844,4248.717773,450.000000,4.000000,86.000000,,,,0.000000,4.000000,4.000000,4.000000,0.000000,4.000000,66.666664,,,,,,,,,,,,,,,,,,,,,,,,,,,,,,,,,,,,,,,,,,,,,,,,,,,,,,,,,,,,,,,
1649887070.253761,121.000000,0.000000,4264.102539,4260.512695,4167.692383,4218.974121,4246.153809,450.000000,4.000000,86.000000,,,,0.000000,4.000000,4.000000,4.000000,0.000000,4.000000,66.666664,,,,,,,,,,,,,,,,,,,,,,,,,,,,,,,,,,,,,,,,,,,,,,,,,,,,,,,,,,,,,,,
1649887070.261475,122.000000,0.000000,4256.922852,4250.256348,4157.948730,4218.461426,4228.717773,450.000000,4.000000,86.000000,,,,0.000000,4.000000,4.000000,4.000000,0.000000,4.000000,66.666664,,,,,,,,,,,,,,,,,,,,,,,,,,,,,,,,,,,,,,,,,,,,,,,,,,,,,,,,,,,,,,,
1649887070.269390,123.000000,0.000000,4253.333496,4256.410156,4158.974121,4220.512695,4227.179688,16195.000000,4.000000,86.000000,,,,0.000000,4.000000,4.000000,4.000000,0.000000,4.000000,66.666664,,,,,,,,,,,,,,,,,,,,,,,,,,,,,,,,,,,,,,,4.189369,1.677355,1.514155,1.247979,1.163872,0.956052,0.746638,0.425846,0.629094,0.501866,6.657564,7.704172,1.953846,0.597523,0.139708,0.073533,0.074260,0.009138,0.023163,0.050760,3.806651,1.481799,0.665696,0.700615,0.441072
1649887070.277204,124.000000,0.000000,4259.487305,4258.974121,4164.102539,4220.000000,4242.051270,450.000000,4.000000,86.000000,,,,0.000000,4.000000,4.000000,4.000000,0.000000,4.000000,66.666664,,,,,,,,,,,,,,,,,,,,,,,,,,,,,,,,,,,,,,,,,,,,,,,,,,,,,,,,,,,,,,,
1649887070.285018,125.000000,0.000000,4266.666504,4247.179688,4179.487305,4221.538574,4251.282227,450.000000,4.000000,86.000000,,,,0.000000,4.000000,4.000000,4.000000,0.000000,4.000000,66.666664,,,,,,,,,,,,,,,,,,,,,,,,,,,,,,,,,,,,,,,,,,,,,,,,,,,,,,,,,,,,,,,
1649887070.292733,126.000000,0.000000,4263.077148,4247.179688,4192.820313,4222.051270,4247.179688,450.000000,4.000000,86.000000,,,,0.000000,4.000000,4.000000,4.000000,0.000000,4.000000,66.666664,,,,,,,,,,,,,,,,,,,,,,,,,,,,,,,,,,,,,,,,,,,,,,,,,,,,,,,,,,,,,,,
1649887070.300647,127.000000,0.000000,4258.974121,4262.563965,4193.846191,4218.974121,4242.051270,241.000000,4.000000,86.000000,,,,0.000000,4.000000,4.000000,4.000000,0.000000,4.000000,66.666664,,,,,,,,,,,,,,,,,,,,,,,,,,,,,,,,,,,,,,,,,,,,,,,,,,,,,,,,,,,,,,,
1649887070.308462,0.000000,0.000000,4268.205078,4264.615234,4192.307617,4217.436035,4248.205078,450.000000,4.000000,86.000000,,,,0.000000,4.000000,4.000000,4.000000,0.000000,4.000000,66.666664,,,,,,,,,,,,,,,,,,,,,,,,,,,,,,,,,,,,,,,,,,,,,,,,,,,,,,,,,,,,,,,
1649887070.316376,1.000000,0.000000,4272.307617,4250.769043,4190.769043,4220.512695,4247.692383,450.000000,4.000000,86.000000,,,,0.000000,4.000000,4.000000,4.000000,0.000000,4.000000,66.666664,,,,,,,,,,,,,,,,,,,,,,,,,,,,,,,,,,,,,,,,,,,,,,,,,,,,,,,,,,,,,,,
1649887070.324190,2.000000,0.000000,4259.487305,4244.615234,4186.666504,4222.051270,4236.410156,16214.000000,4.000000,86.000000,,,,0.000000,4.000000,4.000000,4.000000,0.000000,4.000000,66.666664,,,,,,,,,,,,,,,,,,,,,,,,,,,,,,,,,,,,,,,,,,,,,,,,,,,,,,,,,,,,,,,
1649887070.332105,3.000000,0.000000,4249.230957,4241.538574,4182.051270,4220.000000,4230.769043,450.000000,4.000000,86.000000,,,,0.000000,4.000000,4.000000,4.000000,0.000000,4.000000,66.666664,,,,,,,,,,,,,,,,,,,,,,,,,,,,,,,,,,,,,,,,,,,,,,,,,,,,,,,,,,,,,,,
1649887070.339919,4.000000,0.000000,4246.153809,4238.974121,4182.563965,4221.538574,4233.846191,16214.000000,4.000000,86.000000,,,,0.000000,4.000000,4.000000,4.000000,0.000000,4.000000,66.666664,,,,,,,,,,,,,,,,,,,,,,,,,,,,,,,,,,,,,,,,,,,,,,,,,,,,,,,,,,,,,,,
1649887070.347833,5.000000,0.000000,4256.922852,4254.358887,4190.769043,4223.077148,4245.128418,450.000000,4.000000,86.000000,,,,0.000000,4.000000,4.000000,4.000000,0.000000,4.000000,66.666664,,,,,,,,,,,,,,,,,,,,,,,,,,,,,,,,,,,,,,,,,,,,,,,,,,,,,,,,,,,,,,,
1649887070.355748,6.000000,0.000000,4275.897461,4270.769043,4188.717773,4222.051270,4253.846191,16163.000000,4.000000,86.000000,,,,0.000000,4.000000,4.000000,4.000000,0.000000,4.000000,66.666664,,,,,,,,,,,,,,,,,,,,,,,,,,,,,,,,,,,,,,,,,,,,,,,,,,,,,,,,,,,,,,,
1649887070.363562,7.000000,0.000000,4280.000000,4273.846191,4172.820313,4222.051270,4253.846191,450.000000,4.000000,86.000000,,,,0.000000,4.000000,4.000000,4.000000,0.000000,4.000000,66.666664,,,,,,,,,,,,,,,,,,,,,,,,,,,,,,,,,,,,,,,,,,,,,,,,,,,,,,,,,,,,,,,
1649887070.371377,8.000000,0.000000,4276.922852,4267.692383,4170.256348,4222.563965,4251.282227,450.000000,4.000000,86.000000,,,,0.000000,4.000000,4.000000,4.000000,0.000000,4.000000,66.666664,,,,,,,,,,,,,,,,,,,,,,,,,,,,,,,,,,,,,,,,,,,,,,,,,,,,,,,,,,,,,,,
1649887070.379291,9.000000,0.000000,4274.871582,4259.487305,4188.717773,4222.563965,4251.282227,0.000000,4.000000,86.000000,,,,0.000000,4.000000,4.000000,4.000000,0.000000,4.000000,66.666664,,,,,,,,,,,,,,,,,,,,,,,,,,,,,,,,,,,,,,,,,,,,,,,,,,,,,,,,,,,,,,,
1649887070.387105,10.000000,0.000000,4267.692383,4258.974121,4203.077148,4222.051270,4251.282227,450.000000,4.000000,86.000000,,,,0.000000,4.000000,4.000000,4.000000,0.000000,4.000000,66.666664,,,,,,,,,,,,,,,,,,,,,,,,,,,,,,,,,,,,,,,,,,,,,,,,,,,,,,,,,,,,,,,
1649887070.395020,11.000000,0.000000,4268.205078,4264.615234,4206.153809,4220.512695,4252.820313,16187.000000,4.000000,86.000000,,,,0.000000,4.000000,4.000000,4.000000,0.000000,4.000000,66.666664,,,,,,,,,,,,,,,,,,,,,,,,,,,,,,,,,,,,,,,4.324467,1.551440,1.348337,1.189324,1.221526,1.284122,0.756732,0.489601,0.688819,0.595209,6.584520,5.940871,2.033031,0.633455,0.147612,0.081251,0.070920,0.010433,0.030527,0.058233,3.901088,1.595792,0.644872,0.729328,0.470312
1649887070.402834,12.000000,0.000000,4277.948730,4263.077148,4205.641113,4221.025879,4257.948730,450.000000,4.000000,86.000000,,,,0.000000,4.000000,4.000000,4.000000,0.000000,4.000000,66.666664,,,,,,,,,,,,,,,,,,,,,,,,,,,,,,,,,,,,,,,,,,,,,,,,,,,,,,,,,,,,,,,
1649887070.410548,13.000000,0.000000,4263.589844,4245.641113,4191.794922,4223.589844,4247.179688,450.000000,4.000000,86.000000,,,,0.000000,4.000000,4.000000,4.000000,0.000000,4.000000,66.666664,,,,,,,,,,,,,,,,,,,,,,,,,,,,,,,,,,,,,,,,,,,,,,,,,,,,,,,,,,,,,,,
1649887070.418363,14.000000,0.000000,4249.230957,4234.871582,4173.333496,4218.461426,4227.692383,450.000000,4.000000,86.000000,,,,0.000000,4.000000,4.000000,4.000000,0.000000,4.000000,66.666664,,,,,,,,,,,,,,,,,,,,,,,,,,,,,,,,,,,,,,,,,,,,,,,,,,,,,,,,,,,,,,,
1649887070.426077,15.000000,0.000000,4268.717773,4245.128418,4172.307617,4213.333496,4234.358887,16187.000000,4.000000,86.000000,,,,0.000000,4.000000,4.000000,4.000000,0.000000,4.000000,66.666664,,,,,,,,,,,,,,,,,,,,,,,,,,,,,,,,,,,,,,,,,,,,,,,,,,,,,,,,,,,,,,,
1649887070.433892,16.000000,0.000000,4274.871582,4248.205078,4174.871582,4218.461426,4250.256348,0.000000,4.000000,86.000000,,,,0.000000,4.000000,4.000000,4.000000,0.000000,4.000000,66.666664,,,,,,,,,,,,,,,,,,,,,,,,,,,,,,,,,,,,,,,,,,,,,,,,,,,,,,,,,,,,,,,
1649887070.441606,17.000000,0.000000,4256.922852,4242.051270,4171.282227,4222.563965,4242.051270,0.000000,4.000000,86.000000,,,,0.000000,4.000000,4.000000,4.000000,0.000000,4.000000,66.666664,,,,,,,,,,,,,,,,,,,,,,,,,,,,,,,,,,,,,,,,,,,,,,,,,,,,,,,,,,,,,,,
1649887070.449421,18.000000,0.000000,4255.897461,4255.384766,4177.948730,4222.563965,4228.717773,0.000000,4.000000,86.000000,,,,0.000000,4.000000,4.000000,4.000000,0.000000,4.000000,66.666664,,,,,,,,,,,,,,,,,,,,,,,,,,,,,,,,,,,,,,,,,,,,,,,,,,,,,,,,,,,,,,,
1649887070.457135,19.000000,0.000000,4257.948730,4266.666504,4183.589844,4220.000000,4230.256348,0.000000,4.000000,86.000000,,,,0.000000,4.000000,4.000000,4.000000,0.000000,4.000000,66.666664,,,,,,,,,,,,,,,,,,,,,,,,,,,,,,,,,,,,,,,,,,,,,,,,,,,,,,,,,,,,,,,
1649887070.464950,20.000000,0.000000,4236.410156,4252.820313,4165.641113,4215.897461,4228.717773,0.000000,4.000000,86.000000,,,,0.000000,4.000000,4.000000,4.000000,0.000000,4.000000,66.666664,,,,,,,,,,,,,,,,,,,,,,,,,,,,,,,,,,,,,,,,,,,,,,,,,,,,,,,,,,,,,,,
1649887070.472664,21.000000,0.000000,4233.333496,4247.692383,4151.282227,4217.436035,4236.410156,0.000000,4.000000,86.000000,,,,0.000000,4.000000,4.000000,4.000000,0.000000,4.000000,66.666664,,,,,,,,,,,,,,,,,,,,,,,,,,,,,,,,,,,,,,,,,,,,,,,,,,,,,,,,,,,,,,,
1649887070.480479,22.000000,0.000000,4267.179688,4257.436035,4163.077148,4221.538574,4257.436035,0.000000,4.000000,86.000000,,,,0.000000,4.000000,4.000000,4.000000,0.000000,4.000000,66.666664,,,,,,,,,,,,,,,,,,,,,,,,,,,,,,,,,,,,,,,,,,,,,,,,,,,,,,,,,,,,,,,
1649887070.488193,23.000000,0.000000,4283.077148,4252.307617,4175.384766,4220.000000,4256.922852,0.000000,4.000000,86.000000,,,,0.000000,4.000000,4.000000,4.000000,0.000000,4.000000,66.666664,,,,,,,,,,,,,,,,,,,,,,,,,,,,,,,,,,,,,,,,,,,,,,,,,,,,,,,,,,,,,,,
1649887070.496107,24.000000,0.000000,4267.692383,4246.153809,4182.051270,4220.000000,4245.641113,0.000000,4.000000,86.000000,,,,0.000000,4.000000,4.000000,4.000000,0.000000,4.000000,66.666664,,,,,,,,,,,,,,,,,,,,,,,,,,,,,,,,,,,,,,,,,,,,,,,,,,,,,,,,,,,,,,,
1649887070.503922,25.000000,0.000000,4261.025879,4252.307617,4197.948730,4224.102539,4256.922852,0.000000,4.000000,86.000000,,,,0.000000,4.000000,4.000000,4.000000,0.000000,4.000000,66.666664,,,,,,,,,,,,,,,,,,,,,,,,,,,,,,,,,,,,,,,,,,,,,,,,,,,,,,,,,,,,,,,
1649887070.511836,26.000000,0.000000,4271.794922,4247.179688,4204.615234,4221.538574,4265.641113,0.000000,4.000000,86.000000,,,,0.000000,4.000000,4.000000,4.000000,0.000000,4.000000,66.666664,,,,,,,,,,,,,,,,,,,,,,,,,,,,,,,,,,,,,,,,,,,,,,,,,,,,,,,,,,,,,,,
1649887070.519651,27.000000,0.000000,4271.794922,4238.461426,4196.922852,4220.000000,4251.282227,0.000000,4.000000,86.000000,,,,0.000000,4.000000,4.000000,4.000000,0.000000,4.000000,66.666664,1.000000,66.666664,4.000000,4.000000,4.000000,0.000000,4.000000,,,,,,,,,,,,,,,,,,,,,,,,,,,,,,,,4.213309,1.637469,1.163406,1.109231,1.223657,1.640106,0.756928,0.550041,0.765665,0.697566,5.925533,4.084159,2.054127,0.657364,0.153841,0.088396,0.069523,0.011084,0.038631,0.064487,3.939428,1.794791,0.641208,0.779120,0.481217
1649887070.527565,28.000000,0.000000,4256.922852,4247.179688,4191.794922,4223.589844,4245.128418,0.000000,4.000000,86.000000,,,,0.000000,4.000000,4.000000,4.000000,0.000000,4.000000,66.666664,,,,,,,,,,,,,,,,,,,,,,,,,,,,,,,,,,,,,,,,,,,,,,,,,,,,,,,,,,,,,,,
1649887070.535379,29.000000,0.000000,4247.692383,4256.922852,4186.153809,4221.538574,4250.256348,0.000000,4.000000,86.000000,,,,0.000000,4.000000,4.000000,4.000000,0.000000,4.000000,66.666664,,,,,,,,,,,,,,,,,,,,,,,,,,,,,,,,,,,,,,,,,,,,,,,,,,,,,,,,,,,,,,,
1649887070.543294,30.000000,0.000000,4251.282227,4263.589844,4178.461426,4221.025879,4253.333496,0.000000,4.000000,86.000000,,,,0.000000,4.000000,4.000000,4.000000,0.000000,4.000000,66.666664,,,,,,,,,,,,,,,,,,,,,,,,,,,,,,,,,,,,,,,,,,,,,,,,,,,,,,,,,,,,,,,
1649887070.551108,31.000000,0.000000,4269.743652,4264.615234,4182.563965,4223.589844,4262.563965,0.000000,4.000000,86.000000,,,,0.000000,4.000000,4.000000,4.000000,0.000000,4.000000,66.666664,,,,,,,,,,,,,,,,,,,,,,,,,,,,,,,,,,,,,,,,,,,,,,,,,,,,,,,,,,,,,,,
1649887070.559022,32.000000,0.000000,4269.230957,4251.282227,4185.641113,4220.512695,4263.077148,0.000000,4.000000,86.000000,,,,0.000000,4.000000,4.000000,4.000000,0.000000,4.000000,66.666664,,,,,,,,,,,,,,,,,,,,,,,,,,,,,,,,,,,,,,,,,,,,,,,,,,,,,,,,,,,,,,,
1649887070.566837,33.000000,0.000000,4252.307617,4251.794922,4178.461426,4214.871582,4249.743652,0.000000,4.000000,86.000000,,,,0.000000,4.000000,4.000000,4.000000,0.000000,4.000000,66.666664,,,,,,,,,,,,,,,,,,,,,,,,,,,,,,,,,,,,,,,,,,,,,,,,,,,,,,,,,,,,,,,
1649887070.574551,34.000000,0.000000,4260.000000,4270.769043,4181.538574,4219.487305,4241.538574,0.000000,4.000000,86.000000,,,,0.000000,4.000000,4.000000,4.000000,0.000000,4.000000,66.666664,,,,,,,,,,,,,,,,,,,,,,,,,,,,,,,,,,,,,,,,,,,,,,,,,,,,,,,,,,,,,,,
1649887070.582366,35.000000,0.000000,4281.025879,4264.615234,4190.256348,4224.615234,4244.102539,0.000000,4.000000,86.000000,,,,0.000000,4.000000,4.000000,4.000000,0.000000,4.000000,66.666664,,,,,,,,,,,,,,,,,,,,,,,,,,,,,,,,,,,,,,,,,,,,,,,,,,,,,,,,,,,,,,,
1649887070.590080,36.000000,0.000000,4283.077148,4247.179688,4188.205078,4221.025879,4261.025879,0.000000,4.000000,86.000000,,,,0.000000,4.000000,4.000000,4.000000,0.000000,4.000000,66.666664,,,,,,,,,,,,,,,,,,,,,,,,,,,,,,,,,,,,,,,,,,,,,,,,,,,,,,,,,,,,,,,
1649887070.597894,37.000000,0.000000,4283.077148,4264.615234,4191.794922,4222.051270,4282.563965,0.000000,4.000000,86.000000,,,,0.000000,4.000000,4.000000,4.000000,0.000000,4.000000,66.666664,,,,,,,,,,,,,,,,,,,,,,,,,,,,,,,,,,,,,,,,,,,,,,,,,,,,,,,,,,,,,,,
1649887070.605609,38.000000,0.000000,4286.666504,4282.563965,4208.205078,4226.666504,4280.512695,0.000000,4.000000,86.000000,,,,0.000000,4.000000,4.000000,4.000000,0.000000,4.000000,66.666664,,,,,,,,,,,,,,,,,,,,,,,,,,,,,,,,,,,,,,,,,,,,,,,,,,,,,,,,,,,,,,,
1649887070.613423,39.000000,0.000000,4268.205078,4266.666504,4210.769043,4224.102539,4262.051270,0.000000,4.000000,86.000000,,,,0.000000,4.000000,4.000000,4.000000,0.000000,4.000000,66.666664,,,,,,,,,,,,,,,,,,,,,,,,,,,,,,,,,,,,,,,,,,,,,,,,,,,,,,,,,,,,,,,
1649887070.621138,40.000000,0.000000,4251.282227,4250.256348,4195.384766,4220.000000,4249.230957,0.000000,4.000000,86.000000,,,,0.000000,4.000000,4.000000,4.000000,0.000000,4.000000,66.666664,,,,,,,,,,,,,,,,,,,,,,,,,,,,,,,,,,,,,,,,,,,,,,,,,,,,,,,,,,,,,,,
1649887070.628952,41.000000,0.000000,4262.563965,4254.358887,4190.256348,4220.512695,4246.666504,0.000000,4.000000,86.000000,,,,0.000000,4.000000,4.000000,4.000000,0.000000,4.000000,66.666664,,,,,,,,,,,,,,,,,,,,,,,,,,,,,,,,,,,,,,,,,,,,,,,,,,,,,,,,,,,,,,,
1649887070.636667,42.000000,0.000000,4273.333496,4256.410156,4190.769043,4223.077148,4250.256348,0.000000,4.000000,86.000000,,,,0.000000,4.000000,4.000000,4.000000,0.000000,4.000000,66.666664,,,,,,,,,,,,,,,,,,,,,,,,,,,,,,,,,,,,,,,,,,,,,,,,,,,,,,,,,,,,,,,
1649887070.644481,43.000000,0.000000,4264.102539,4252.307617,4183.077148,4223.589844,4256.410156,0.000000,4.000000,86.000000,,,,0.000000,4.000000,4.000000,4.000000,0.000000,4.000000,66.666664,,,,,,,,,,,,,,,,,,,,,,,,,,,,,,,,,,,,,,,3.953736,2.071536,1.028431,1.016237,1.185685,1.929038,0.771713,0.597449,0.849260,0.779245,4.876870,2.617905,2.058928,0.684960,0.158601,0.094265,0.073239,0.011046,0.044792,0.068308,3.947387,2.148652,0.673253,0.846685,0.476401
1649887070.652196,44.000000,0.000000,4256.922852,4251.794922,4175.897461,4222.051270,4259.487305,0.000000,4.000000,86.000000,,,,0.000000,4.000000,4.000000,4.000000,0.000000,4.000000,66.666664,,,,,,,,,,,,,,,,,,,,,,,,,,,,,,,,,,,,,,,,,,,,,,,,,,,,,,,,,,,,,,,
1649887070.660110,45.000000,0.000000,4269.230957,4250.256348,4175.384766,4221.538574,4263.589844,0.000000,4.000000,86.000000,,,,0.000000,4.000000,4.000000,4.000000,0.000000,4.000000,66.666664,,,,,,,,,,,,,,,,,,,,,,,,,,,,,,,,,,,,,,,,,,,,,,,,,,,,,,,,,,,,,,,
1649887070.667924,46.000000,0.000000,4275.384766,4244.102539,4168.717773,4223.077148,4262.563965,0.000000,4.000000,86.000000,,,,0.000000,4.000000,4.000000,4.000000,0.000000,4.000000,66.666664,,,,,,,,,,,,,,,,,,,,,,,,,,,,,,,,,,,,,,,,,,,,,,,,,,,,,,,,,,,,,,,
1649887070.675839,47.000000,0.000000,4263.589844,4238.461426,4163.077148,4221.538574,4256.922852,0.000000,4.000000,86.000000,,,,0.000000,4.000000,4.000000,4.000000,0.000000,4.000000,66.666664,,,,,,,,,,,,,,,,,,,,,,,,,,,,,,,,,,,,,,,,,,,,,,,,,,,,,,,,,,,,,,,
1649887070.683653,48.000000,0.000000,4257.948730,4244.102539,4169.230957,4221.025879,4257.436035,0.000000,4.000000,86.000000,,,,0.000000,4.000000,4.000000,4.000000,0.000000,4.000000,66.666664,,,,,,,,,,,,,,,,,,,,,,,,,,,,,,,,,,,,,,,,,,,,,,,,,,,,,,,,,,,,,,,
1649887070.691567,49.000000,0.000000,4258.461426,4250.256348,4173.846191,4224.102539,4250.769043,0.000000,4.000000,86.000000,,,,0.000000,4.000000,4.000000,4.000000,0.000000,4.000000,66.666664,,,,,,,,,,,,,,,,,,,,,,,,,,,,,,,,,,,,,,,,,,,,,,,,,,,,,,,,,,,,,,,
1649887070.699382,50.000000,0.000000,4258.974121,4243.589844,4173.333496,4218.974121,4240.512695,0.000000,4.000000,86.000000,,,,0.000000,4.000000,4.000000,4.000000,0.000000,4.000000,66.666664,,,,,,,,,,,,,,,,,,,,,,,,,,,,,,,,,,,,,,,,,,,,,,,,,,,,,,,,,,,,,,,
1649887070.707296,51.000000,0.000000,4252.307617,4239.487305,4171.794922,4214.871582,4240.000000,0.000000,4.000000,86.000000,,,,0.000000,4.000000,4.000000,4.000000,0.000000,4.000000,66.666664,,,,,,,,,,,,,,,,,,,,,,,,,,,,,,,,,,,,,,,,,,,,,,,,,,,,,,,,,,,,,,,
1649887070.715210,52.000000,0.000000,4242.563965,4244.615234,4174.871582,4218.461426,4244.615234,0.000000,4.000000,86.000000,,,,0.000000,4.000000,4.000000,4.000000,0.000000,4.000000,66.666664,,,,,,,,,,,,,,,,,,,,,,,,,,,,,,,,,,,,,,,,,,,,,,,,,,,,,,,,,,,,,,,
1649887070.723125,53.000000,0.000000,4245.641113,4249.230957,4184.615234,4220.512695,4249.230957,0.000000,4.000000,86.000000,,,,0.000000,4.000000,4.000000,4.000000,0.000000,4.000000,66.666664,,,,,,,,,,,,,,,,,,,,,,,,,,,,,,,,,,,,,,,,,,,,,,,,,,,,,,,,,,,,,,,
1649887070.730939,54.000000,0.000000,4258.974121,4251.794922,4189.743652,4223.077148,4251.282227,0.000000,4.000000,86.000000,,,,0.000000,4.000000,4.000000,4.000000,0.000000,4.000000,66.666664,,,,,,,,,,,,,,,,,,,,,,,,,,,,,,,,,,,,,,,,,,,,,,,,,,,,,,,,,,,,,,,
1649887070.738854,55.000000,0.000000,4267.692383,4254.358887,4185.641113,4222.563965,4254.358887,0.000000,4.000000,86.000000,,,,0.000000,4.000000,4.000000,4.000000,0.000000,4.000000,66.666664,,,,,,,,,,,,,,,,,,,,,,,,,,,,,,,,,,,,,,,,,,,,,,,,,,,,,,,,,,,,,,,
1649887070.746668,56.000000,0.000000,4262.051270,4243.077148,4176.922852,4215.897461,4263.077148,0.000000,4.000000,86.000000,,,,0.000000,4.000000,4.000000,4.000000,0.000000,4.000000,66.666664,,,,,,,,,,,,,,,,,,,,,,,,,,,,,,,,,,,,,,,,,,,,,,,,,,,,,,,,,,,,,,,
1649887070.754582,57.000000,0.000000,4260.512695,4240.000000,4173.846191,4215.897461,4269.230957,0.000000,4.000000,86.000000,,,,0.000000,4.000000,4.000000,4.000000,0.000000,4.000000,66.666664,,,,,,,,,,,,,,,,,,,,,,,,,,,,,,,,,,,,,,,,,,,,,,,,,,,,,,,,,,,,,,,
1649887070.762397,58.000000,0.000000,4276.410156,4247.692383,4179.487305,4224.102539,4264.102539,0.000000,4.000000,86.000000,,,,0.000000,4.000000,4.000000,4.000000,0.000000,4.000000,66.666664,,,,,,,,,,,,,,,,,,,,,,,,,,,,,,,,,,,,,,,,,,,,,,,,,,,,,,,,,,,,,,,
1649887070.770311,59.000000,0.000000,4278.974121,4242.563965,4176.922852,4226.153809,4258.461426,0.000000,4.000000,86.000000,,,,0.000000,4.000000,4.000000,4.000000,0.000000,4.000000,66.666664,,,,,,,,,,,,,,,,,,,,,,,,,,,,,,,,,,,,,,,3.667900,2.846662,0.990335,0.946556,1.127890,2.049409,0.838089,0.637438,0.930731,0.816470,3.695210,1.806519,2.066727,0.736367,0.164530,0.099042,0.082766,0.010924,0.047295,0.069078,3.970026,2.660614,0.738881,0.926569,0.470128
1649887070.778125,60.000000,0.000000,4243.589844,4242.563965,4167.692383,4218.461426,4246.153809,0.000000,4.000000,86.000000,,,,0.000000,4.000000,4.000000,4.000000,0.000000,4.000000,66.666664,,,,,,,,,,,,,,,,,,,,,,,,,,,,,,,,,,,,,,,,,,,,,,,,,,,,,,,,,,,,,,,
1649887070.786040,61.000000,0.000000,4217.948730,4247.179688,4173.333496,4214.358887,4224.615234,0.000000,4.000000,86.000000,,,,0.000000,4.000000,4.000000,4.000000,0.000000,4.000000,66.666664,,,,,,,,,,,,,,,,,,,,,,,,,,,,,,,,,,,,,,,,,,,,,,,,,,,,,,,,,,,,,,,
1649887070.793954,62.000000,0.000000,4234.358887,4241.025879,4178.461426,4217.948730,4218.974121,0.000000,4.000000,86.000000,,,,0.000000,4.000000,4.000000,4.000000,0.000000,4.000000,66.666664,,,,,,,,,,,,,,,,,,,,,,,,,,,,,,,,,,,,,,,,,,,,,,,,,,,,,,,,,,,,,,,
1649887070.801768,63.000000,0.000000,4245.128418,4235.897461,4172.820313,4218.461426,4229.743652,0.000000,4.000000,86.000000,,,,0.000000,4.000000,4.000000,4.000000,0.000000,4.000000,66.666664,,,,,,,,,,,,,,,,,,,,,,,,,,,,,,,,,,,,,,,,,,,,,,,,,,,,,,,,,,,,,,,
1649887070.809583,64.000000,0.000000,4238.974121,4243.077148,4178.974121,4216.922852,4240.512695,450.000000,4.000000,86.000000,,,,0.000000,4.000000,4.000000,4.000000,0.000000,4.000000,66.666664,,,,,,,,,,,,,,,,,,,,,,,,,,,,,,,,,,,,,,,,,,,,,,,,,,,,,,,,,,,,,,,
1649887070.817497,65.000000,0.000000,4242.051270,4248.717773,4189.743652,4218.974121,4243.077148,450.000000,4.000000,86.000000,,,,0.000000,4.000000,4.000000,4.000000,0.000000,4.000000,66.666664,,,,,,,,,,,,,,,,,,,,,,,,,,,,,,,,,,,,,,,,,,,,,,,,,,,,,,,,,,,,,,,
1649887070.825411,66.000000,0.000000,4252.307617,4252.820313,4187.692383,4218.974121,4243.589844,16203.000000,4.000000,86.000000,,,,0.000000,4.000000,4.000000,4.000000,0.000000,4.000000,66.666664,,,,,,,,,,,,,,,,,,,,,,,,,,,,,,,,,,,,,,,,,,,,,,,,,,,,,,,,,,,,,,,
1649887070.833226,67.000000,0.000000,4266.666504,4252.820313,4184.102539,4218.461426,4250.769043,450.000000,4.000000,86.000000,,,,0.000000,4.000000,4.000000,4.000000,0.000000,4.000000,66.666664,,,,,,,,,,,,,,,,,,,,,,,,,,,,,,,,,,,,,,,,,,,,,,,,,,,,,,,,,,,,,,,
1649887070.841140,68.000000,0.000000,4274.871582,4236.922852,4176.410156,4221.025879,4254.358887,16202.000000,4.000000,86.000000,,,,0.000000,4.000000,4.000000,4.000000,0.000000,4.000000,66.666664,,,,,,,,,,,,,,,,,,,,,,,,,,,,,,,,,,,,,,,,,,,,,,,,,,,,,,,,,,,,,,,
1649887070.848954,69.000000,0.000000,4262.563965,4222.051270,4161.025879,4222.051270,4244.102539,450.000000,4.000000,86.000000,,,,0.000000,4.000000,4.000000,4.000000,0.000000,4.000000,66.666664,,,,,,,,,,,,,,,,,,,,,,,,,,,,,,,,,,,,,,,,,,,,,,,,,,,,,,,,,,,,,,,
1649887070.856869,70.000000,0.000000,4252.307617,4233.846191,4161.025879,4220.000000,4242.051270,16162.000000,4.000000,86.000000,,,,0.000000,4.000000,4.000000,4.000000,0.000000,4.000000,66.666664,,,,,,,,,,,,,,,,,,,,,,,,,,,,,,,,,,,,,,,,,,,,,,,,,,,,,,,,,,,,,,,
1649887070.864683,71.000000,0.000000,4261.025879,4251.282227,4171.794922,4218.461426,4246.153809,450.000000,4.000000,86.000000,,,,0.000000,4.000000,4.000000,4.000000,0.000000,4.000000,66.666664,,,,,,,,,,,,,,,,,,,,,,,,,,,,,,,,,,,,,,,,,,,,,,,,,,,,,,,,,,,,,,,
1649887070.872598,72.000000,0.000000,4264.615234,4245.128418,4173.333496,4218.461426,4237.948730,450.000000,4.000000,86.000000,,,,0.000000,4.000000,4.000000,4.000000,0.000000,4.000000,66.666664,,,,,,,,,,,,,,,,,,,,,,,,,,,,,,,,,,,,,,,,,,,,,,,,,,,,,,,,,,,,,,,
1649887070.880412,73.000000,0.000000,4265.641113,4248.717773,4170.256348,4221.025879,4247.692383,0.000000,4.000000,86.000000,,,,0.000000,4.000000,4.000000,4.000000,0.000000,4.000000,66.666664,,,,,,,,,,,,,,,,,,,,,,,,,,,,,,,,,,,,,,,,,,,,,,,,,,,,,,,,,,,,,,,
1649887070.888326,74.000000,0.000000,4276.922852,4265.128418,4174.871582,4222.051270,4274.358887,450.000000,4.000000,86.000000,,,,0.000000,4.000000,4.000000,4.000000,0.000000,4.000000,66.666664,,,,,,,,,,,,,,,,,,,,,,,,,,,,,,,,,,,,,,,,,,,,,,,,,,,,,,,,,,,,,,,
1649887070.896141,75.000000,0.000000,4284.102539,4254.871582,4187.179688,4220.512695,4277.948730,16205.000000,4.000000,86.000000,,,,0.000000,4.000000,4.000000,4.000000,0.000000,4.000000,66.666664,,,,,,,,,,,,,,,,,,,,,,,,,,,,,,,,,,,,,,,3.484223,3.794054,1.052188,0.920091,1.067626,2.012306,0.985966,0.674426,0.996691,0.802956,2.677226,1.690364,2.061436,0.824133,0.174663,0.103401,0.095502,0.011519,0.046313,0.067119,4.056022,3.252743,0.813001,1.011233,0.477345
1649887070.904055,76.000000,0.000000,4285.128418,4249.743652,4191.794922,4223.589844,4265.641113,450.000000,4.000000,86.000000,,,,0.000000,4.000000,4.000000,4.000000,0.000000,4.000000,66.666664,,,,,,,,,,,,,,,,,,,,,,,,,,,,,,,,,,,,,,,,,,,,,,,,,,,,,,,,,,,,,,,
1649887070.911869,77.000000,0.000000,4277.436035,4266.153809,4182.563965,4225.641113,4253.846191,450.000000,4.000000,86.000000,,,,0.000000,4.000000,4.000000,4.000000,0.000000,4.000000,66.666664,,,,,,,,,,,,,,,,,,,,,,,,,,,,,,,,,,,,,,,,,,,,,,,,,,,,,,,,,,,,,,,
1649887070.919784,78.000000,0.000000,4253.333496,4251.282227,4167.692383,4220.000000,4239.487305,450.000000,4.000000,86.000000,,,,0.000000,4.000000,4.000000,4.000000,0.000000,4.000000,66.666664,,,,,,,,,,,,,,,,,,,,,,,,,,,,,,,,,,,,,,,,,,,,,,,,,,,,,,,,,,,,,,,
1649887070.927598,79.000000,0.000000,4240.000000,4229.230957,4161.538574,4215.384766,4236.922852,16205.000000,4.000000,86.000000,,,,0.000000,4.000000,4.000000,4.000000,0.000000,4.000000,66.666664,,,,,,,,,,,,,,,,,,,,,,,,,,,,,,,,,,,,,,,,,,,,,,,,,,,,,,,,,,,,,,,
1649887070.935512,80.000000,0.000000,4249.743652,4242.051270,4167.179688,4217.436035,4248.717773,450.000000,4.000000,86.000000,,,,0.000000,4.000000,4.000000,4.000000,0.000000,4.000000,66.666664,,,,,,,,,,,,,,,,,,,,,,,,,,,,,,,,,,,,,,,,,,,,,,,,,,,,,,,,,,,,,,,
1649887070.943327,81.000000,0.000000,4261.025879,4255.897461,4169.743652,4220.512695,4251.282227,450.000000,4.000000,86.000000,,,,0.000000,4.000000,4.000000,4.000000,0.000000,4.000000,66.666664,,,,,,,,,,,,,,,,,,,,,,,,,,,,,,,,,,,,,,,,,,,,,,,,,,,,,,,,,,,,,,,
1649887070.951241,82.000000,0.000000,4265.641113,4256.410156,4161.538574,4222.563965,4247.179688,450.000000,4.000000,86.000000,,,,0.000000,4.000000,4.000000,4.000000,0.000000,4.000000,66.666664,,,,,,,,,,,,,,,,,,,,,,,,,,,,,,,,,,,,,,,,,,,,,,,,,,,,,,,,,,,,,,,
1649887070.959055,83.000000,0.000000,4266.666504,4255.897461,4161.538574,4219.487305,4249.743652,16205.000000,4.000000,86.000000,,,,0.000000,4.000000,4.000000,4.000000,0.000000,4.000000,66.666664,,,,,,,,,,,,,,,,,,,,,,,,,,,,,,,,,,,,,,,,,,,,,,,,,,,,,,,,,,,,,,,
1649887070.966970,84.000000,0.000000,4253.846191,4250.256348,4174.358887,4215.384766,4247.692383,450.000000,4.000000,86.000000,,,,0.000000,4.000000,4.000000,4.000000,0.000000,4.000000,66.666664,,,,,,,,,,,,,,,,,,,,,,,,,,,,,,,,,,,,,,,,,,,,,,,,,,,,,,,,,,,,,,,
1649887070.974784,85.000000,0.000000,4233.846191,4248.717773,4176.410156,4217.948730,4230.769043,450.000000,4.000000,86.000000,,,,0.000000,4.000000,4.000000,4.000000,0.000000,4.000000,66.666664,,,,,,,,,,,,,,,,,,,,,,,,,,,,,,,,,,,,,,,,,,,,,,,,,,,,,,,,,,,,,,,
1649887070.982698,86.000000,0.000000,4229.743652,4252.307617,4171.282227,4218.461426,4216.410156,450.000000,4.000000,86.000000,,,,0.000000,4.000000,4.000000,4.000000,0.000000,4.000000,66.666664,,,,,,,,,,,,,,,,,,,,,,,,,,,,,,,,,,,,,,,,,,,,,,,,,,,,,,,,,,,,,,,
1649887070.990613,87.000000,0.000000,4225.128418,4249.230957,4175.384766,4214.358887,4209.230957,16205.000000,4.000000,86.000000,,,,0.000000,4.000000,4.000000,4.000000,0.000000,4.000000,66.666664,,,,,,,,,,,,,,,,,,,,,,,,,,,,,,,,,,,,,,,,,,,,,,,,,,,,,,,,,,,,,,,
1649887070.998427,88.000000,0.000000,4224.615234,4250.256348,4191.282227,4217.948730,4214.358887,450.000000,4.000000,86.000000,,,,0.000000,4.000000,4.000000,4.000000,0.000000,4.000000,66.666664,,,,,,,,,,,,,,,,,,,,,,,,,,,,,,,,,,,,,,,,,,,,,,,,,,,,,,,,,,,,,,,
1649887071.006342,89.000000,0.000000,4245.641113,4264.102539,4207.179688,4225.128418,4242.051270,450.000000,4.000000,86.000000,,,,0.000000,4.000000,4.000000,4.000000,0.000000,4.000000,66.666664,,,,,,,,,,,,,,,,,,,,,,,,,,,,,,,,,,,,,,,,,,,,,,,,,,,,,,,,,,,,,,,
1649887071.014156,90.000000,0.000000,4264.615234,4266.153809,4202.563965,4222.563965,4261.538574,450.000000,4.000000,86.000000,,,,0.000000,4.000000,4.000000,4.000000,0.000000,4.000000,66.666664,,,,,,,,,,,,,,,,,,,,,,,,,,,,,,,,,,,,,,,,,,,,,,,,,,,,,,,,,,,,,,,
1649887071.022070,91.000000,0.000000,4269.743652,4248.717773,4184.615234,4220.512695,4254.871582,16205.000000,4.000000,86.000000,,,,0.000000,4.000000,4.000000,4.000000,0.000000,4.000000,66.666664,1.000000,66.666664,4.000000,4.000000,4.000000,0.000000,4.000000,,,,,,,,,,,,,,,,,,,,,,,,,,,,,,,,3.413054,4.664033,1.194707,0.927982,1.015102,1.874640,1.201826,0.700721,1.027980,0.750318,2.029998,2.077710,2.003829,0.938864,0.189852,0.107051,0.106606,0.013695,0.043911,0.063786,4.197260,3.802676,0.892993,1.091989,0.501276
1649887071.029885,92.000000,0.000000,4273.846191,4237.436035,4177.436035,4223.077148,4247.179688,450.000000,4.000000,86.000000,,,,0.000000,4.000000,4.000000,4.000000,0.000000,4.000000,66.666664,,,,,,,,,,,,,,,,,,,,,,,,,,,,,,,,,,,,,,,,,,,,,,,,,,,,,,,,,,,,,,,
1649887071.037699,93.000000,0.000000,4266.153809,4249.230957,4173.846191,4221.025879,4247.179688,450.000000,4.000000,86.000000,,,,0.000000,4.000000,4.000000,4.000000,0.000000,4.000000,66.666664,,,,,,,,,,,,,,,,,,,,,,,,,,,,,,,,,,,,,,,,,,,,,,,,,,,,,,,,,,,,,,,
1649887071.045613,94.000000,0.000000,4250.769043,4267.692383,4163.077148,4218.974121,4245.641113,450.000000,4.000000,86.000000,,,,0.000000,4.000000,4.000000,4.000000,0.000000,4.000000,66.666664,,,,,,,,,,,,,,,,,,,,,,,,,,,,,,,,,,,,,,,,,,,,,,,,,,,,,,,,,,,,,,,
1649887071.053528,95.000000,0.000000,4251.794922,4266.153809,4156.922852,4220.000000,4248.205078,16205.000000,4.000000,86.000000,,,,0.000000,4.000000,4.000000,4.000000,0.000000,4.000000,66.666664,,,,,,,,,,,,,,,,,,,,,,,,,,,,,,,,,,,,,,,,,,,,,,,,,,,,,,,,,,,,,,,
1649887071.061342,96.000000,0.000000,4252.820313,4253.846191,4160.000000,4218.974121,4246.153809,450.000000,4.000000,86.000000,,,,0.000000,4.000000,4.000000,4.000000,0.000000,4.000000,66.666664,,,,,,,,,,,,,,,,,,,,,,,,,,,,,,,,,,,,,,,,,,,,,,,,,,,,,,,,,,,,,,,
1649887071.069256,97.000000,0.000000,4242.563965,4249.743652,4167.179688,4214.358887,4233.333496,450.000000,4.000000,86.000000,,,,0.000000,4.000000,4.000000,4.000000,0.000000,4.000000,66.666664,,,,,,,,,,,,,,,,,,,,,,,,,,,,,,,,,,,,,,,,,,,,,,,,,,,,,,,,,,,,,,,
1649887071.077071,98.000000,0.000000,4246.153809,4253.333496,4187.179688,4217.436035,4230.769043,450.000000,4.000000,86.000000,,,,0.000000,4.000000,4.000000,4.000000,0.000000,4.000000,66.666664,,,,,,,,,,,,,,,,,,,,,,,,,,,,,,,,,,,,,,,,,,,,,,,,,,,,,,,,,,,,,,,
1649887071.084985,99.000000,0.000000,4261.538574,4251.794922,4205.641113,4222.051270,4243.589844,16205.000000,4.000000,86.000000,,,,0.000000,4.000000,4.000000,4.000000,0.000000,4.000000,66.666664,,,,,,,,,,,,,,,,,,,,,,,,,,,,,,,,,,,,,,,,,,,,,,,,,,,,,,,,,,,,,,,
1649887071.092799,100.000000,0.000000,4265.128418,4242.563965,4202.051270,4220.512695,4252.820313,450.000000,4.000000,86.000000,,,,0.000000,4.000000,4.000000,4.000000,0.000000,4.000000,66.666664,,,,,,,,,,,,,,,,,,,,,,,,,,,,,,,,,,,,,,,,,,,,,,,,,,,,,,,,,,,,,,,
1649887071.100714,101.000000,0.000000,4262.051270,4245.128418,4185.128418,4221.538574,4248.717773,450.000000,4.000000,86.000000,,,,0.000000,4.000000,4.000000,4.000000,0.000000,4.000000,66.666664,,,,,,,,,,,,,,,,,,,,,,,,,,,,,,,,,,,,,,,,,,,,,,,,,,,,,,,,,,,,,,,
1649887071.108528,102.000000,0.000000,4259.487305,4250.769043,4172.820313,4224.615234,4246.666504,450.000000,4.000000,86.000000,,,,0.000000,4.000000,4.000000,4.000000,0.000000,4.000000,66.666664,,,,,,,,,,,,,,,,,,,,,,,,,,,,,,,,,,,,,,,,,,,,,,,,,,,,,,,,,,,,,,,
1649887071.116442,103.000000,0.000000,4261.025879,4247.692383,4169.743652,4222.051270,4249.230957,16205.000000,4.000000,86.000000,,,,0.000000,4.000000,4.000000,4.000000,0.000000,4.000000,66.666664,,,,,,,,,,,,,,,,,,,,,,,,,,,,,,,,,,,,,,,,,,,,,,,,,,,,,,,,,,,,,,,
1649887071.124357,104.000000,0.000000,4268.205078,4247.692383,4174.358887,4220.000000,4246.666504,450.000000,4.000000,86.000000,,,,0.000000,4.000000,4.000000,4.000000,0.000000,4.000000,66.666664,,,,,,,,,,,,,,,,,,,,,,,,,,,,,,,,,,,,,,,,,,,,,,,,,,,,,,,,,,,,,,,
1649887071.132171,105.000000,0.000000,4272.307617,4250.256348,4174.871582,4223.589844,4242.051270,450.000000,4.000000,86.000000,,,,0.000000,4.000000,4.000000,4.000000,0.000000,4.000000,66.666664,,,,,,,,,,,,,,,,,,,,,,,,,,,,,,,,,,,,,,,,,,,,,,,,,,,,,,,,,,,,,,,
1649887071.140086,106.000000,0.000000,4266.666504,4242.051270,4162.051270,4221.025879,4236.410156,450.000000,4.000000,86.000000,,,,0.000000,4.000000,4.000000,4.000000,0.000000,4.000000,66.666664,,,,,,,,,,,,,,,,,,,,,,,,,,,,,,,,,,,,,,,,,,,,,,,,,,,,,,,,,,,,,,,
1649887071.147900,107.000000,0.000000,4254.871582,4237.436035,4157.436035,4215.897461,4232.307617,16205.000000,4.000000,86.000000,,,,0.000000,4.000000,4.000000,4.000000,0.000000,4.000000,66.666664,,,,,,,,,,,,,,,,,,,,,,,,,,,,,,,,,,,,,,,3.407898,5.211490,1.411905,0.942038,0.973970,1.703410,1.424849,0.709955,1.012454,0.680170,1.794754,2.702938,1.862681,1.046968,0.208373,0.109588,0.111326,0.017923,0.042994,0.060859,4.308908,4.151494,1.005041,1.165401,0.528399
1649887071.155814,108.000000,0.000000,4246.666504,4245.128418,4172.307617,4217.948730,4232.307617,450.000000,4.000000,86.000000,,,,0.000000,4.000000,4.000000,4.000000,0.000000,4.000000,66.666664,,,,,,,,,,,,,,,,,,,,,,,,,,,,,,,,,,,,,,,,,,,,,,,,,,,,,,,,,,,,,,,
1649887071.163629,109.000000,0.000000,4248.205078,4247.179688,4182.563965,4220.512695,4228.717773,450.000000,4.000000,86.000000,,,,0.000000,4.000000,4.000000,4.000000,0.000000,4.000000,66.666664,,,,,,,,,,,,,,,,,,,,,,,,,,,,,,,,,,,,,,,,,,,,,,,,,,,,,,,,,,,,,,,
1649887071.171443,110.000000,0.000000,4250.256348,4249.743652,4182.051270,4219.487305,4226.153809,450.000000,4.000000,86.000000,,,,0.000000,4.000000,4.000000,4.000000,0.000000,4.000000,66.666664,,,,,,,,,,,,,,,,,,,,,,,,,,,,,,,,,,,,,,,,,,,,,,,,,,,,,,,,,,,,,,,
1649887071.179357,111.000000,0.000000,4243.589844,4250.256348,4183.077148,4221.025879,4225.641113,16205.000000,4.000000,86.000000,,,,0.000000,4.000000,4.000000,4.000000,0.000000,4.000000,66.666664,,,,,,,,,,,,,,,,,,,,,,,,,,,,,,,,,,,,,,,,,,,,,,,,,,,,,,,,,,,,,,,
1649887071.187272,112.000000,0.000000,4236.410156,4242.563965,4183.589844,4223.589844,4224.615234,450.000000,4.000000,86.000000,,,,0.000000,4.000000,4.000000,4.000000,0.000000,4.000000,66.666664,,,,,,,,,,,,,,,,,,,,,,,,,,,,,,,,,,,,,,,,,,,,,,,,,,,,,,,,,,,,,,,
1649887071.195086,113.000000,0.000000,4244.615234,4243.077148,4178.974121,4223.589844,4227.179688,450.000000,4.000000,86.000000,,,,0.000000,4.000000,4.000000,4.000000,0.000000,4.000000,66.666664,,,,,,,,,,,,,,,,,,,,,,,,,,,,,,,,,,,,,,,,,,,,,,,,,,,,,,,,,,,,,,,
1649887071.202900,114.000000,0.000000,4254.871582,4249.743652,4174.871582,4218.974121,4232.307617,450.000000,4.000000,86.000000,,,,0.000000,4.000000,4.000000,4.000000,0.000000,4.000000,66.666664,,,,,,,,,,,,,,,,,,,,,,,,,,,,,,,,,,,,,,,,,,,,,,,,,,,,,,,,,,,,,,,
1649887071.210815,115.000000,0.000000,4252.820313,4242.563965,4172.307617,4218.461426,4236.410156,16205.000000,4.000000,86.000000,,,,0.000000,4.000000,4.000000,4.000000,0.000000,4.000000,66.666664,,,,,,,,,,,,,,,,,,,,,,,,,,,,,,,,,,,,,,,,,,,,,,,,,,,,,,,,,,,,,,,
1649887071.218729,116.000000,0.000000,4251.282227,4233.846191,4169.743652,4220.000000,4240.000000,450.000000,4.000000,86.000000,,,,0.000000,4.000000,4.000000,4.000000,0.000000,4.000000,66.666664,,,,,,,,,,,,,,,,,,,,,,,,,,,,,,,,,,,,,,,,,,,,,,,,,,,,,,,,,,,,,,,
1649887071.226543,117.000000,0.000000,4251.282227,4239.487305,4161.025879,4216.410156,4232.820313,450.000000,4.000000,86.000000,,,,0.000000,4.000000,4.000000,4.000000,0.000000,4.000000,66.666664,,,,,,,,,,,,,,,,,,,,,,,,,,,,,,,,,,,,,,,,,,,,,,,,,,,,,,,,,,,,,,,
1649887071.234458,118.000000,0.000000,4235.384766,4238.974121,4150.256348,4215.897461,4217.948730,450.000000,4.000000,86.000000,,,,0.000000,4.000000,4.000000,4.000000,0.000000,4.000000,66.666664,,,,,,,,,,,,,,,,,,,,,,,,,,,,,,,,,,,,,,,,,,,,,,,,,,,,,,,,,,,,,,,
1649887071.242272,119.000000,0.000000,4230.256348,4235.897461,4157.436035,4217.436035,4221.025879,16205.000000,4.000000,86.000000,,,,0.000000,4.000000,4.000000,4.000000,0.000000,4.000000,66.666664,,,,,,,,,,,,,,,,,,,,,,,,,,,,,,,,,,,,,,,,,,,,,,,,,,,,,,,,,,,,,,,
1649887071.250186,120.000000,0.000000,4251.794922,4247.179688,4180.000000,4216.410156,4235.897461,450.000000,4.000000,86.000000,,,,0.000000,4.000000,4.000000,4.000000,0.000000,4.000000,66.666664,,,,,,,,,,,,,,,,,,,,,,,,,,,,,,,,,,,,,,,,,,,,,,,,,,,,,,,,,,,,,,,
1649887071.258001,121.000000,0.000000,4246.666504,4255.897461,4193.333496,4217.436035,4235.384766,450.000000,4.000000,86.000000,,,,0.000000,4.000000,4.000000,4.000000,0.000000,4.000000,66.666664,,,,,,,,,,,,,,,,,,,,,,,,,,,,,,,,,,,,,,,,,,,,,,,,,,,,,,,,,,,,,,,
1649887071.265915,122.000000,0.000000,4222.563965,4247.692383,4195.384766,4218.974121,4227.692383,450.000000,4.000000,86.000000,,,,0.000000,4.000000,4.000000,4.000000,0.000000,4.000000,66.666664,,,,,,,,,,,,,,,,,,,,,,,,,,,,,,,,,,,,,,,,,,,,,,,,,,,,,,,,,,,,,,,
1649887071.273730,123.000000,0.000000,4244.102539,4239.487305,4194.871582,4217.948730,4232.307617,16205.000000,4.000000,86.000000,,,,0.000000,4.000000,4.000000,4.000000,0.000000,4.000000,66.666664,,,,,,,,,,,,,,,,,,,,,,,,,,,,,,,,,,,,,,,3.452457,5.301660,1.723495,0.946625,0.942227,1.538195,1.573478,0.705275,0.957907,0.615399,1.877067,3.383958,1.658188,1.109237,0.228580,0.109515,0.107923,0.024230,0.045781,0.059774,4.349363,4.181373,1.209053,1.239122,0.537434
1649887071.281644,124.000000,0.000000,4266.666504,4236.922852,4190.256348,4218.461426,4240.000000,450.000000,4.000000,86.000000,,,,0.000000,4.000000,4.000000,4.000000,0.000000,4.000000,66.666664,,,,,,,,,,,,,,,,,,,,,,,,,,,,,,,,,,,,,,,,,,,,,,,,,,,,,,,,,,,,,,,
1649887071.289458,125.000000,0.000000,4254.358887,4233.333496,4179.487305,4222.051270,4237.436035,450.000000,4.000000,86.000000,,,,0.000000,4.000000,4.000000,4.000000,0.000000,4.000000,66.666664,,,,,,,,,,,,,,,,,,,,,,,,,,,,,,,,,,,,,,,,,,,,,,,,,,,,,,,,,,,,,,,
1649887071.297373,126.000000,0.000000,4253.846191,4236.922852,4169.230957,4221.538574,4234.871582,450.000000,4.000000,86.000000,,,,0.000000,4.000000,4.000000,4.000000,0.000000,4.000000,66.666664,,,,,,,,,,,,,,,,,,,,,,,,,,,,,,,,,,,,,,,,,,,,,,,,,,,,,,,,,,,,,,,
1649887071.305187,127.000000,0.000000,4262.051270,4243.589844,4169.743652,4218.974121,4243.077148,241.000000,4.000000,86.000000,,,,0.000000,4.000000,4.000000,4.000000,0.000000,4.000000,66.666664,,,,,,,,,,,,,,,,,,,,,,,,,,,,,,,,,,,,,,,,,,,,,,,,,,,,,,,,,,,,,,,
1649887071.313101,0.000000,0.000000,4252.307617,4244.102539,4176.410156,4216.410156,4251.282227,450.000000,4.000000,86.000000,,,,0.000000,4.000000,4.000000,4.000000,0.000000,4.000000,66.666664,,,,,,,,,,,,,,,,,,,,,,,,,,,,,,,,,,,,,,,,,,,,,,,,,,,,,,,,,,,,,,,
1649887071.320916,1.000000,0.000000,4258.461426,4247.692383,4172.820313,4218.461426,4247.692383,450.000000,4.000000,86.000000,,,,0.000000,4.000000,4.000000,4.000000,0.000000,4.000000,66.666664,,,,,,,,,,,,,,,,,,,,,,,,,,,,,,,,,,,,,,,,,,,,,,,,,,,,,,,,,,,,,,,
1649887071.328830,2.000000,0.000000,4280.000000,4251.794922,4165.128418,4222.051270,4242.563965,16227.000000,4.000000,86.000000,,,,0.000000,4.000000,4.000000,4.000000,0.000000,4.000000,66.666664,,,,,,,,,,,,,,,,,,,,,,,,,,,,,,,,,,,,,,,,,,,,,,,,,,,,,,,,,,,,,,,
1649887071.336644,3.000000,0.000000,4267.692383,4247.179688,4167.179688,4219.487305,4246.666504,450.000000,4.000000,86.000000,,,,0.000000,4.000000,4.000000,4.000000,0.000000,4.000000,66.666664,,,,,,,,,,,,,,,,,,,,,,,,,,,,,,,,,,,,,,,,,,,,,,,,,,,,,,,,,,,,,,,
1649887071.344559,4.000000,0.000000,4246.666504,4243.077148,4170.256348,4221.025879,4251.794922,16211.000000,4.000000,86.000000,,,,0.000000,4.000000,4.000000,4.000000,0.000000,4.000000,66.666664,,,,,,,,,,,,,,,,,,,,,,,,,,,,,,,,,,,,,,,,,,,,,,,,,,,,,,,,,,,,,,,
1649887071.352373,5.000000,0.000000,4261.025879,4248.205078,4176.410156,4223.077148,4252.820313,450.000000,4.000000,86.000000,,,,0.000000,4.000000,4.000000,4.000000,0.000000,4.000000,66.666664,,,,,,,,,,,,,,,,,,,,,,,,,,,,,,,,,,,,,,,,,,,,,,,,,,,,,,,,,,,,,,,
1649887071.360287,6.000000,0.000000,4281.025879,4252.307617,4197.436035,4221.538574,4258.974121,16183.000000,4.000000,86.000000,,,,0.000000,4.000000,4.000000,4.000000,0.000000,4.000000,66.666664,,,,,,,,,,,,,,,,,,,,,,,,,,,,,,,,,,,,,,,,,,,,,,,,,,,,,,,,,,,,,,,
1649887071.368102,7.000000,0.000000,4278.974121,4246.666504,4213.846191,4224.615234,4269.230957,450.000000,4.000000,86.000000,,,,0.000000,4.000000,4.000000,4.000000,0.000000,4.000000,66.666664,,,,,,,,,,,,,,,,,,,,,,,,,,,,,,,,,,,,,,,,,,,,,,,,,,,,,,,,,,,,,,,
1649887071.376016,8.000000,0.000000,4269.230957,4237.436035,4204.615234,4225.641113,4263.077148,450.000000,4.000000,86.000000,,,,0.000000,4.000000,4.000000,4.000000,0.000000,4.000000,66.666664,,,,,,,,,,,,,,,,,,,,,,,,,,,,,,,,,,,,,,,,,,,,,,,,,,,,,,,,,,,,,,,
1649887071.383831,9.000000,0.000000,4263.077148,4238.974121,4192.307617,4223.077148,4248.205078,0.000000,4.000000,86.000000,,,,0.000000,4.000000,4.000000,4.000000,0.000000,4.000000,66.666664,,,,,,,,,,,,,,,,,,,,,,,,,,,,,,,,,,,,,,,,,,,,,,,,,,,,,,,,,,,,,,,
1649887071.391745,10.000000,0.000000,4258.974121,4246.666504,4185.128418,4222.563965,4240.512695,450.000000,4.000000,86.000000,,,,0.000000,4.000000,4.000000,4.000000,0.000000,4.000000,66.666664,,,,,,,,,,,,,,,,,,,,,,,,,,,,,,,,,,,,,,,,,,,,,,,,,,,,,,,,,,,,,,,
1649887071.399659,11.000000,0.000000,4250.769043,4235.384766,4167.692383,4221.538574,4234.358887,16195.000000,4.000000,86.000000,,,,0.000000,4.000000,4.000000,4.000000,0.000000,4.000000,66.666664,,,,,,,,,,,,,,,,,,,,,,,,,,,,,,,,,,,,,,,3.597836,4.976611,2.140156,0.947217,0.913041,1.389516,1.585302,0.694129,0.887407,0.569893,2.101116,4.014149,1.442692,1.106464,0.249275,0.105463,0.099061,0.032196,0.052251,0.060779,4.261457,3.896736,1.556292,1.321120,0.513791
1649887071.407474,12.000000,0.000000,4241.025879,4217.948730,4158.461426,4216.410156,4227.692383,450.000000,4.000000,86.000000,,,,0.000000,4.000000,4.000000,4.000000,0.000000,4.000000,66.666664,,,,,,,,,,,,,,,,,,,,,,,,,,,,,,,,,,,,,,,,,,,,,,,,,,,,,,,,,,,,,,,
1649887071.415288,13.000000,0.000000,4231.794922,4223.589844,4160.512695,4218.461426,4222.563965,450.000000,4.000000,86.000000,,,,0.000000,4.000000,4.000000,4.000000,0.000000,4.000000,66.666664,,,,,,,,,,,,,,,,,,,,,,,,,,,,,,,,,,,,,,,,,,,,,,,,,,,,,,,,,,,,,,,
1649887071.423202,14.000000,0.000000,4218.974121,4229.230957,4150.256348,4218.974121,4216.410156,450.000000,4.000000,86.000000,,,,0.000000,4.000000,4.000000,4.000000,0.000000,4.000000,66.666664,,,,,,,,,,,,,,,,,,,,,,,,,,,,,,,,,,,,,,,,,,,,,,,,,,,,,,,,,,,,,,,
1649887071.431117,15.000000,0.000000,4208.717773,4216.410156,4143.077148,4213.846191,4211.282227,16195.000000,4.000000,86.000000,,,,0.000000,4.000000,4.000000,4.000000,0.000000,4.000000,66.666664,,,,,,,,,,,,,,,,,,,,,,,,,,,,,,,,,,,,,,,,,,,,,,,,,,,,,,,,,,,,,,,
1649887071.438931,16.000000,0.000000,4223.077148,4206.666504,4150.769043,4216.922852,4215.384766,0.000000,4.000000,86.000000,,,,0.000000,4.000000,4.000000,4.000000,0.000000,4.000000,66.666664,,,,,,,,,,,,,,,,,,,,,,,,,,,,,,,,,,,,,,,,,,,,,,,,,,,,,,,,,,,,,,,
1649887071.446845,17.000000,0.000000,4241.538574,4212.820313,4153.333496,4221.025879,4223.077148,0.000000,4.000000,86.000000,,,,0.000000,4.000000,4.000000,4.000000,0.000000,4.000000,66.666664,,,,,,,,,,,,,,,,,,,,,,,,,,,,,,,,,,,,,,,,,,,,,,,,,,,,,,,,,,,,,,,
1649887071.454660,18.000000,0.000000,4231.282227,4220.000000,4147.692383,4217.948730,4224.102539,0.000000,4.000000,86.000000,,,,0.000000,4.000000,4.000000,4.000000,0.000000,4.000000,66.666664,,,,,,,,,,,,,,,,,,,,,,,,,,,,,,,,,,,,,,,,,,,,,,,,,,,,,,,,,,,,,,,
1649887071.462574,19.000000,0.000000,4229.743652,4223.589844,4149.230957,4216.922852,4228.205078,0.000000,4.000000,86.000000,,,,0.000000,4.000000,4.000000,4.000000,0.000000,4.000000,66.666664,,,,,,,,,,,,,,,,,,,,,,,,,,,,,,,,,,,,,,,,,,,,,,,,,,,,,,,,,,,,,,,
1649887071.470388,20.000000,0.000000,4254.871582,4225.641113,4158.974121,4222.051270,4239.487305,0.000000,4.000000,86.000000,,,,0.000000,4.000000,4.000000,4.000000,0.000000,4.000000,66.666664,,,,,,,,,,,,,,,,,,,,,,,,,,,,,,,,,,,,,,,,,,,,,,,,,,,,,,,,,,,,,,,
1649887071.478303,21.000000,0.000000,4261.538574,4228.205078,4168.205078,4220.512695,4242.051270,0.000000,4.000000,86.000000,,,,0.000000,4.000000,4.000000,4.000000,0.000000,4.000000,66.666664,,,,,,,,,,,,,,,,,,,,,,,,,,,,,,,,,,,,,,,,,,,,,,,,,,,,,,,,,,,,,,,
1649887071.486117,22.000000,0.000000,4249.743652,4242.563965,4177.948730,4219.487305,4235.897461,0.000000,4.000000,86.000000,,,,0.000000,4.000000,4.000000,4.000000,0.000000,4.000000,66.666664,,,,,,,,,,,,,,,,,,,,,,,,,,,,,,,,,,,,,,,,,,,,,,,,,,,,,,,,,,,,,,,
1649887071.494031,23.000000,0.000000,4258.461426,4248.717773,4186.153809,4221.538574,4244.102539,0.000000,4.000000,86.000000,,,,0.000000,4.000000,4.000000,4.000000,0.000000,4.000000,66.666664,,,,,,,,,,,,,,,,,,,,,,,,,,,,,,,,,,,,,,,,,,,,,,,,,,,,,,,,,,,,,,,
1649887071.501846,24.000000,0.000000,4272.307617,4245.128418,4187.692383,4220.000000,4254.358887,0.000000,4.000000,86.000000,,,,0.000000,4.000000,4.000000,4.000000,0.000000,4.000000,66.666664,,,,,,,,,,,,,,,,,,,,,,,,,,,,,,,,,,,,,,,,,,,,,,,,,,,,,,,,,,,,,,,
1649887071.509760,25.000000,0.000000,4277.436035,4250.256348,4186.153809,4220.512695,4255.384766,0.000000,4.000000,86.000000,,,,0.000000,4.000000,4.000000,4.000000,0.000000,4.000000,66.666664,,,,,,,,,,,,,,,,,,,,,,,,,,,,,,,,,,,,,,,,,,,,,,,,,,,,,,,,,,,,,,,
1649887071.517575,26.000000,0.000000,4288.205078,4255.384766,4186.666504,4221.538574,4265.641113,0.000000,4.000000,86.000000,,,,0.000000,4.000000,4.000000,4.000000,0.000000,4.000000,66.666664,,,,,,,,,,,,,,,,,,,,,,,,,,,,,,,,,,,,,,,,,,,,,,,,,,,,,,,,,,,,,,,
