title:david_g_Left, start timestamp:1649886933.196252, stop timestamp:1649886938.201869, headset type:INSIGHT, headset serial:A2D201AE, headset firmware:932, channels:84, sampling rate:eeg_128;pm_0.1;pow_8, samples:641       , version:2.1, 
Timestamp,EEG.Counter,EEG.Interpolated,EEG.AF3,EEG.T7,EEG.Pz,EEG.T8,EEG.AF4,EEG.RawCq,EEG.Battery,EEG.BatteryPercent,MarkerIndex,MarkerType,MarkerValueInt,EEG.MarkerHardware,CQ.AF3,CQ.T7,CQ.Pz,CQ.T8,CQ.AF4,CQ.Overall,EQ.SampleRateQuality,EQ.OVERALL,EQ.AF3,EQ.T7,EQ.Pz,EQ.T8,EQ.AF4,PM.Engagement.IsActive,PM.Engagement.Scaled,PM.Engagement.Raw,PM.Engagement.Min,PM.Engagement.Max,PM.Excitement.IsActive,PM.Excitement.Scaled,PM.Excitement.Raw,PM.Excitement.Min,PM.Excitement.Max,PM.LongTermExcitement,PM.Stress.IsActive,PM.Stress.Scaled,PM.Stress.Raw,PM.Stress.Min,PM.Stress.Max,PM.Relaxation.IsActive,PM.Relaxation.Scaled,PM.Relaxation.Raw,PM.Relaxation.Min,PM.Relaxation.Max,PM.Interest.IsActive,PM.Interest.Scaled,PM.Interest.Raw,PM.Interest.Min,PM.Interest.Max,PM.Focus.IsActive,PM.Focus.Scaled,PM.Focus.Raw,PM.Focus.Min,PM.Focus.Max,POW.AF3.Theta,POW.AF3.Alpha,POW.AF3.BetaL,POW.AF3.BetaH,POW.AF3.Gamma,POW.T7.Theta,POW.T7.Alpha,POW.T7.BetaL,POW.T7.BetaH,POW.T7.Gamma,POW.Pz.Theta,POW.Pz.Alpha,POW.Pz.BetaL,POW.Pz.BetaH,POW.Pz.Gamma,POW.T8.Theta,POW.T8.Alpha,POW.T8.BetaL,POW.T8.BetaH,POW.T8.Gamma,POW.AF4.Theta,POW.AF4.Alpha,POW.AF4.BetaL,POW.AF4.BetaH,POW.AF4.Gamma
1649886933.196252,0.000000,0.000000,4261.538574,4249.230957,4154.871582,4222.051270,4221.538574,450.000000,4.000000,86.000000,,,,0.000000,4.000000,4.000000,4.000000,0.000000,4.000000,66.666664,,,,,,,,,,,,,,,,,,,,,,,,,,,,,,,,,,,,,,,,,,,,,,,,,,,,,,,,,,,,,,,
1649886933.203967,1.000000,0.000000,4245.128418,4241.538574,4146.153809,4220.512695,4220.000000,450.000000,4.000000,86.000000,,,,0.000000,4.000000,4.000000,4.000000,0.000000,4.000000,66.666664,,,,,,,,,,,,,,,,,,,,,,,,,,,,,,,,,,,,,,,5.374458,3.308140,1.639821,1.297443,0.803777,2.173272,0.464859,0.533990,0.460948,0.485556,4.092545,1.407508,0.451602,0.561448,0.181154,0.086923,0.073395,0.042225,0.031314,0.019764,5.711936,4.685157,1.943994,0.892470,0.328071
1649886933.211681,2.000000,0.000000,4245.128418,4237.436035,4154.871582,4221.538574,4214.358887,16236.000000,4.000000,86.000000,,,,0.000000,4.000000,4.000000,4.000000,0.000000,4.000000,66.666664,,,,,,,,,,,,,,,,,,,,,,,,,,,,,,,,,,,,,,,,,,,,,,,,,,,,,,,,,,,,,,,
1649886933.219396,3.000000,0.000000,4274.871582,4238.974121,4162.563965,4223.589844,4219.487305,450.000000,4.000000,86.000000,,,,0.000000,4.000000,4.000000,4.000000,0.000000,4.000000,66.666664,,,,,,,,,,,,,,,,,,,,,,,,,,,,,,,,,,,,,,,,,,,,,,,,,,,,,,,,,,,,,,,
1649886933.227110,4.000000,0.000000,4285.128418,4233.846191,4161.538574,4220.000000,4224.615234,16219.000000,4.000000,86.000000,,,,0.000000,4.000000,4.000000,4.000000,0.000000,4.000000,66.666664,,,,,,,,,,,,,,,,,,,,,,,,,,,,,,,,,,,,,,,,,,,,,,,,,,,,,,,,,,,,,,,
1649886933.235025,5.000000,0.000000,4277.948730,4247.692383,4165.641113,4218.461426,4227.692383,450.000000,4.000000,86.000000,,,,0.000000,4.000000,4.000000,4.000000,0.000000,4.000000,66.666664,,,,,,,,,,,,,,,,,,,,,,,,,,,,,,,,,,,,,,,,,,,,,,,,,,,,,,,,,,,,,,,
1649886933.242839,6.000000,0.000000,4277.436035,4263.589844,4157.436035,4222.051270,4233.333496,16193.000000,4.000000,86.000000,,,,0.000000,4.000000,4.000000,4.000000,0.000000,4.000000,66.666664,,,,,,,,,,,,,,,,,,,,,,,,,,,,,,,,,,,,,,,,,,,,,,,,,,,,,,,,,,,,,,,
1649886933.250753,7.000000,0.000000,4264.102539,4251.282227,4137.948730,4220.512695,4220.512695,450.000000,4.000000,86.000000,,,,0.000000,4.000000,4.000000,4.000000,0.000000,4.000000,66.666664,,,,,,,,,,,,,,,,,,,,,,,,,,,,,,,,,,,,,,,,,,,,,,,,,,,,,,,,,,,,,,,
1649886933.258568,8.000000,0.000000,4239.487305,4233.846191,4129.743652,4213.333496,4194.871582,450.000000,4.000000,86.000000,,,,0.000000,4.000000,4.000000,4.000000,0.000000,4.000000,66.666664,,,,,,,,,,,,,,,,,,,,,,,,,,,,,,,,,,,,,,,,,,,,,,,,,,,,,,,,,,,,,,,
1649886933.266382,9.000000,0.000000,4243.589844,4225.641113,4138.974121,4213.333496,4199.487305,1.000000,4.000000,86.000000,,,,0.000000,4.000000,4.000000,4.000000,0.000000,4.000000,66.666664,,,,,,,,,,,,,,,,,,,,,,,,,,,,,,,,,,,,,,,,,,,,,,,,,,,,,,,,,,,,,,,
1649886933.274297,10.000000,0.000000,4267.692383,4232.307617,4158.974121,4221.025879,4228.205078,450.000000,4.000000,86.000000,,,,0.000000,4.000000,4.000000,4.000000,0.000000,4.000000,66.666664,,,,,,,,,,,,,,,,,,,,,,,,,,,,,,,,,,,,,,,,,,,,,,,,,,,,,,,,,,,,,,,
1649886933.282211,11.000000,0.000000,4275.897461,4252.820313,4177.948730,4223.077148,4237.436035,16179.000000,4.000000,86.000000,,,,0.000000,4.000000,4.000000,4.000000,0.000000,4.000000,66.666664,,,,,,,,,,,,,,,,,,,,,,,,,,,,,,,,,,,,,,,,,,,,,,,,,,,,,,,,,,,,,,,
1649886933.290025,12.000000,0.000000,4272.307617,4253.846191,4186.153809,4221.538574,4231.794922,450.000000,4.000000,86.000000,,,,0.000000,4.000000,4.000000,4.000000,0.000000,4.000000,66.666664,,,,,,,,,,,,,,,,,,,,,,,,,,,,,,,,,,,,,,,,,,,,,,,,,,,,,,,,,,,,,,,
1649886933.297840,13.000000,0.000000,4254.871582,4243.077148,4190.256348,4222.051270,4226.666504,450.000000,4.000000,86.000000,,,,0.000000,4.000000,4.000000,4.000000,0.000000,4.000000,66.666664,,,,,,,,,,,,,,,,,,,,,,,,,,,,,,,,,,,,,,,,,,,,,,,,,,,,,,,,,,,,,,,
1649886933.305754,14.000000,0.000000,4241.025879,4249.743652,4188.717773,4221.025879,4218.974121,450.000000,4.000000,86.000000,,,,0.000000,4.000000,4.000000,4.000000,0.000000,4.000000,66.666664,,,,,,,,,,,,,,,,,,,,,,,,,,,,,,,,,,,,,,,,,,,,,,,,,,,,,,,,,,,,,,,
1649886933.313668,15.000000,0.000000,4247.179688,4250.256348,4181.538574,4219.487305,4216.922852,16179.000000,4.000000,86.000000,,,,0.000000,4.000000,4.000000,4.000000,0.000000,4.000000,66.666664,,,,,,,,,,,,,,,,,,,,,,,,,,,,,,,,,,,,,,,,,,,,,,,,,,,,,,,,,,,,,,,
1649886933.321483,16.000000,0.000000,4252.820313,4235.384766,4177.948730,4221.025879,4220.512695,0.000000,4.000000,86.000000,,,,0.000000,4.000000,4.000000,4.000000,0.000000,4.000000,66.666664,,,,,,,,,,,,,,,,,,,,,,,,,,,,,,,,,,,,,,,,,,,,,,,,,,,,,,,,,,,,,,,
1649886933.329397,17.000000,0.000000,4242.563965,4239.487305,4176.922852,4221.538574,4215.384766,0.000000,4.000000,86.000000,,,,0.000000,4.000000,4.000000,4.000000,0.000000,4.000000,66.666664,0.832031,66.666664,4.000000,4.000000,4.000000,0.000000,4.000000,,,,,,,,,,,,,,,,,,,,,,,,,,,,,,,,3.767997,3.848082,1.400814,1.442584,0.958238,1.735436,0.434801,0.428313,0.481792,0.528272,3.224243,1.640271,0.571688,0.695825,0.178881,0.074773,0.082255,0.039854,0.028101,0.019965,4.269211,5.427531,1.767758,0.910912,0.345020
1649886933.337211,18.000000,0.000000,4231.282227,4252.820313,4174.871582,4220.512695,4204.102539,0.000000,4.000000,86.000000,,,,0.000000,4.000000,4.000000,4.000000,0.000000,4.000000,66.666664,,,,,,,,,,,,,,,,,,,,,,,,,,,,,,,,,,,,,,,,,,,,,,,,,,,,,,,,,,,,,,,
1649886933.345126,19.000000,0.000000,4237.948730,4244.615234,4172.820313,4217.948730,4208.205078,0.000000,4.000000,86.000000,,,,0.000000,4.000000,4.000000,4.000000,0.000000,4.000000,66.666664,,,,,,,,,,,,,,,,,,,,,,,,,,,,,,,,,,,,,,,,,,,,,,,,,,,,,,,,,,,,,,,
1649886933.352940,20.000000,0.000000,4250.256348,4238.461426,4168.717773,4218.974121,4221.538574,0.000000,4.000000,86.000000,,,,0.000000,4.000000,4.000000,4.000000,0.000000,4.000000,66.666664,,,,,,,,,,,,,,,,,,,,,,,,,,,,,,,,,,,,,,,,,,,,,,,,,,,,,,,,,,,,,,,
1649886933.360854,21.000000,0.000000,4255.897461,4244.615234,4165.641113,4222.563965,4227.692383,0.000000,4.000000,86.000000,,,,0.000000,4.000000,4.000000,4.000000,0.000000,4.000000,66.666664,,,,,,,,,,,,,,,,,,,,,,,,,,,,,,,,,,,,,,,,,,,,,,,,,,,,,,,,,,,,,,,
1649886933.368669,22.000000,0.000000,4237.436035,4249.743652,4172.820313,4223.077148,4219.487305,0.000000,4.000000,86.000000,,,,0.000000,4.000000,4.000000,4.000000,0.000000,4.000000,66.666664,,,,,,,,,,,,,,,,,,,,,,,,,,,,,,,,,,,,,,,,,,,,,,,,,,,,,,,,,,,,,,,
1649886933.376583,23.000000,0.000000,4218.974121,4247.179688,4175.897461,4221.025879,4201.025879,0.000000,4.000000,86.000000,,,,0.000000,4.000000,4.000000,4.000000,0.000000,4.000000,66.666664,,,,,,,,,,,,,,,,,,,,,,,,,,,,,,,,,,,,,,,,,,,,,,,,,,,,,,,,,,,,,,,
1649886933.384398,24.000000,0.000000,4244.615234,4245.641113,4170.769043,4220.512695,4201.538574,0.000000,4.000000,86.000000,,,,0.000000,4.000000,4.000000,4.000000,0.000000,4.000000,66.666664,,,,,,,,,,,,,,,,,,,,,,,,,,,,,,,,,,,,,,,,,,,,,,,,,,,,,,,,,,,,,,,
1649886933.392312,25.000000,0.000000,4277.948730,4245.641113,4177.436035,4221.538574,4223.589844,0.000000,4.000000,86.000000,,,,0.000000,4.000000,4.000000,4.000000,0.000000,4.000000,66.666664,,,,,,,,,,,,,,,,,,,,,,,,,,,,,,,,,,,,,,,,,,,,,,,,,,,,,,,,,,,,,,,
1649886933.400126,26.000000,0.000000,4264.102539,4234.871582,4178.461426,4220.000000,4221.538574,0.000000,4.000000,86.000000,,,,0.000000,4.000000,4.000000,4.000000,0.000000,4.000000,66.666664,,,,,,,,,,,,,,,,,,,,,,,,,,,,,,,,,,,,,,,,,,,,,,,,,,,,,,,,,,,,,,,
1649886933.408041,27.000000,0.000000,4244.615234,4232.820313,4159.487305,4217.436035,4205.128418,0.000000,4.000000,86.000000,,,,0.000000,4.000000,4.000000,4.000000,0.000000,4.000000,66.666664,,,,,,,,,,,,,,,,,,,,,,,,,,,,,,,,,,,,,,,,,,,,,,,,,,,,,,,,,,,,,,,
1649886933.415855,28.000000,0.000000,4260.000000,4244.615234,4147.179688,4213.333496,4212.307617,0.000000,4.000000,86.000000,,,,0.000000,4.000000,4.000000,4.000000,0.000000,4.000000,66.666664,,,,,,,,,,,,,,,,,,,,,,,,,,,,,,,,,,,,,,,,,,,,,,,,,,,,,,,,,,,,,,,
1649886933.423769,29.000000,0.000000,4255.897461,4248.717773,4149.230957,4213.333496,4217.948730,0.000000,4.000000,86.000000,,,,0.000000,4.000000,4.000000,4.000000,0.000000,4.000000,66.666664,,,,,,,,,,,,,,,,,,,,,,,,,,,,,,,,,,,,,,,,,,,,,,,,,,,,,,,,,,,,,,,
1649886933.431584,30.000000,0.000000,4232.307617,4236.922852,4139.487305,4217.948730,4202.563965,0.000000,4.000000,86.000000,,,,0.000000,4.000000,4.000000,4.000000,0.000000,4.000000,66.666664,,,,,,,,,,,,,,,,,,,,,,,,,,,,,,,,,,,,,,,,,,,,,,,,,,,,,,,,,,,,,,,
1649886933.439498,31.000000,0.000000,4240.000000,4233.846191,4134.871582,4218.461426,4201.538574,0.000000,4.000000,86.000000,,,,0.000000,4.000000,4.000000,4.000000,0.000000,4.000000,66.666664,,,,,,,,,,,,,,,,,,,,,,,,,,,,,,,,,,,,,,,,,,,,,,,,,,,,,,,,,,,,,,,
1649886933.447312,32.000000,0.000000,4267.179688,4246.153809,4160.512695,4221.025879,4221.538574,0.000000,4.000000,86.000000,,,,0.000000,4.000000,4.000000,4.000000,0.000000,4.000000,66.666664,,,,,,,,,,,,,,,,,,,,,,,,,,,,,,,,,,,,,,,,,,,,,,,,,,,,,,,,,,,,,,,
1649886933.455227,33.000000,0.000000,4267.692383,4246.666504,4178.974121,4218.974121,4223.077148,0.000000,4.000000,86.000000,,,,0.000000,4.000000,4.000000,4.000000,0.000000,4.000000,66.666664,,,,,,,,,,,,,,,,,,,,,,,,,,,,,,,,,,,,,,,2.843358,4.707490,1.263463,1.600456,1.092003,1.291088,0.472523,0.339214,0.528382,0.550184,2.506311,1.911382,0.775956,0.828453,0.181424,0.065938,0.091202,0.037549,0.024906,0.020633,3.603335,6.244425,1.658870,0.968694,0.372510
1649886933.463041,34.000000,0.000000,4237.948730,4245.641113,4177.436035,4214.871582,4203.589844,0.000000,4.000000,86.000000,,,,0.000000,4.000000,4.000000,4.000000,0.000000,4.000000,66.666664,,,,,,,,,,,,,,,,,,,,,,,,,,,,,,,,,,,,,,,,,,,,,,,,,,,,,,,,,,,,,,,
1649886933.470955,35.000000,0.000000,4220.512695,4251.794922,4174.358887,4217.436035,4194.871582,0.000000,4.000000,86.000000,,,,0.000000,4.000000,4.000000,4.000000,0.000000,4.000000,66.666664,,,,,,,,,,,,,,,,,,,,,,,,,,,,,,,,,,,,,,,,,,,,,,,,,,,,,,,,,,,,,,,
1649886933.478870,36.000000,0.000000,4225.128418,4251.794922,4177.948730,4215.897461,4193.846191,0.000000,4.000000,86.000000,,,,0.000000,4.000000,4.000000,4.000000,0.000000,4.000000,66.666664,,,,,,,,,,,,,,,,,,,,,,,,,,,,,,,,,,,,,,,,,,,,,,,,,,,,,,,,,,,,,,,
1649886933.486684,37.000000,0.000000,4233.333496,4240.000000,4185.128418,4214.358887,4189.743652,0.000000,4.000000,86.000000,,,,0.000000,4.000000,4.000000,4.000000,0.000000,4.000000,66.666664,,,,,,,,,,,,,,,,,,,,,,,,,,,,,,,,,,,,,,,,,,,,,,,,,,,,,,,,,,,,,,,
1649886933.494499,38.000000,0.000000,4231.282227,4234.358887,4184.102539,4217.436035,4187.179688,0.000000,4.000000,86.000000,,,,0.000000,4.000000,4.000000,4.000000,0.000000,4.000000,66.666664,,,,,,,,,,,,,,,,,,,,,,,,,,,,,,,,,,,,,,,,,,,,,,,,,,,,,,,,,,,,,,,
1649886933.502313,39.000000,0.000000,4230.769043,4244.102539,4177.436035,4216.410156,4192.307617,0.000000,4.000000,86.000000,,,,0.000000,4.000000,4.000000,4.000000,0.000000,4.000000,66.666664,,,,,,,,,,,,,,,,,,,,,,,,,,,,,,,,,,,,,,,,,,,,,,,,,,,,,,,,,,,,,,,
1649886933.510127,40.000000,0.000000,4238.461426,4249.743652,4172.820313,4215.384766,4206.666504,0.000000,4.000000,86.000000,,,,0.000000,4.000000,4.000000,4.000000,0.000000,4.000000,66.666664,,,,,,,,,,,,,,,,,,,,,,,,,,,,,,,,,,,,,,,,,,,,,,,,,,,,,,,,,,,,,,,
1649886933.518042,41.000000,0.000000,4244.615234,4247.179688,4173.846191,4223.077148,4214.871582,0.000000,4.000000,86.000000,,,,0.000000,4.000000,4.000000,4.000000,0.000000,4.000000,66.666664,,,,,,,,,,,,,,,,,,,,,,,,,,,,,,,,,,,,,,,,,,,,,,,,,,,,,,,,,,,,,,,
1649886933.525956,42.000000,0.000000,4263.077148,4248.205078,4178.974121,4224.102539,4220.000000,0.000000,4.000000,86.000000,,,,0.000000,4.000000,4.000000,4.000000,0.000000,4.000000,66.666664,,,,,,,,,,,,,,,,,,,,,,,,,,,,,,,,,,,,,,,,,,,,,,,,,,,,,,,,,,,,,,,
1649886933.533770,43.000000,0.000000,4287.179688,4255.897461,4184.102539,4220.512695,4234.871582,0.000000,4.000000,86.000000,,,,0.000000,4.000000,4.000000,4.000000,0.000000,4.000000,66.666664,,,,,,,,,,,,,,,,,,,,,,,,,,,,,,,,,,,,,,,,,,,,,,,,,,,,,,,,,,,,,,,
1649886933.541685,44.000000,0.000000,4285.641113,4261.025879,4181.025879,4224.102539,4240.512695,0.000000,4.000000,86.000000,,,,0.000000,4.000000,4.000000,4.000000,0.000000,4.000000,66.666664,,,,,,,,,,,,,,,,,,,,,,,,,,,,,,,,,,,,,,,,,,,,,,,,,,,,,,,,,,,,,,,
1649886933.549499,45.000000,0.000000,4272.307617,4256.410156,4174.871582,4223.077148,4228.205078,0.000000,4.000000,86.000000,,,,0.000000,4.000000,4.000000,4.000000,0.000000,4.000000,66.666664,,,,,,,,,,,,,,,,,,,,,,,,,,,,,,,,,,,,,,,,,,,,,,,,,,,,,,,,,,,,,,,
1649886933.557413,46.000000,0.000000,4270.256348,4252.307617,4176.922852,4220.512695,4225.128418,0.000000,4.000000,86.000000,,,,0.000000,4.000000,4.000000,4.000000,0.000000,4.000000,66.666664,,,,,,,,,,,,,,,,,,,,,,,,,,,,,,,,,,,,,,,,,,,,,,,,,,,,,,,,,,,,,,,
1649886933.565228,47.000000,0.000000,4267.179688,4264.615234,4182.051270,4221.025879,4227.179688,0.000000,4.000000,86.000000,,,,0.000000,4.000000,4.000000,4.000000,0.000000,4.000000,66.666664,,,,,,,,,,,,,,,,,,,,,,,,,,,,,,,,,,,,,,,,,,,,,,,,,,,,,,,,,,,,,,,
1649886933.573142,48.000000,0.000000,4258.974121,4270.256348,4177.948730,4218.974121,4209.230957,0.000000,4.000000,86.000000,,,,0.000000,4.000000,4.000000,4.000000,0.000000,4.000000,66.666664,,,,,,,,,,,,,,,,,,,,,,,,,,,,,,,,,,,,,,,,,,,,,,,,,,,,,,,,,,,,,,,
1649886933.580957,49.000000,0.000000,4250.769043,4238.461426,4169.743652,4220.000000,4193.333496,0.000000,4.000000,86.000000,,,,0.000000,4.000000,4.000000,4.000000,0.000000,4.000000,66.666664,,,,,,,,,,,,,,,,,,,,,,,,,,,,,,,,,,,,,,,2.517875,5.503320,1.170983,1.717253,1.166816,0.922388,0.568872,0.298355,0.617491,0.546253,1.993018,2.171696,1.045816,0.931909,0.188725,0.062621,0.097790,0.035974,0.022739,0.022012,3.328430,6.702481,1.527991,1.017389,0.394968
1649886933.588871,50.000000,0.000000,4234.358887,4220.000000,4171.794922,4222.563965,4201.025879,0.000000,4.000000,86.000000,,,,0.000000,4.000000,4.000000,4.000000,0.000000,4.000000,66.666664,,,,,,,,,,,,,,,,,,,,,,,,,,,,,,,,,,,,,,,,,,,,,,,,,,,,,,,,,,,,,,,
1649886933.596685,51.000000,0.000000,4231.282227,4243.589844,4177.436035,4222.051270,4210.256348,0.000000,4.000000,86.000000,,,,0.000000,4.000000,4.000000,4.000000,0.000000,4.000000,66.666664,,,,,,,,,,,,,,,,,,,,,,,,,,,,,,,,,,,,,,,,,,,,,,,,,,,,,,,,,,,,,,,
1649886933.604600,52.000000,0.000000,4241.538574,4249.230957,4171.282227,4222.051270,4207.179688,0.000000,4.000000,86.000000,,,,0.000000,4.000000,4.000000,4.000000,0.000000,4.000000,66.666664,,,,,,,,,,,,,,,,,,,,,,,,,,,,,,,,,,,,,,,,,,,,,,,,,,,,,,,,,,,,,,,
1649886933.612414,53.000000,0.000000,4237.436035,4222.563965,4158.974121,4221.025879,4195.384766,0.000000,4.000000,86.000000,,,,0.000000,4.000000,4.000000,4.000000,0.000000,4.000000,66.666664,,,,,,,,,,,,,,,,,,,,,,,,,,,,,,,,,,,,,,,,,,,,,,,,,,,,,,,,,,,,,,,
1649886933.620328,54.000000,0.000000,4235.384766,4222.051270,4157.436035,4215.897461,4189.230957,0.000000,4.000000,86.000000,,,,0.000000,4.000000,4.000000,4.000000,0.000000,4.000000,66.666664,,,,,,,,,,,,,,,,,,,,,,,,,,,,,,,,,,,,,,,,,,,,,,,,,,,,,,,,,,,,,,,
1649886933.628143,55.000000,0.000000,4238.461426,4245.641113,4159.487305,4214.871582,4200.000000,0.000000,4.000000,86.000000,,,,0.000000,4.000000,4.000000,4.000000,0.000000,4.000000,66.666664,,,,,,,,,,,,,,,,,,,,,,,,,,,,,,,,,,,,,,,,,,,,,,,,,,,,,,,,,,,,,,,
1649886933.636057,56.000000,0.000000,4235.897461,4232.820313,4146.666504,4213.846191,4206.153809,0.000000,4.000000,86.000000,,,,0.000000,4.000000,4.000000,4.000000,0.000000,4.000000,66.666664,,,,,,,,,,,,,,,,,,,,,,,,,,,,,,,,,,,,,,,,,,,,,,,,,,,,,,,,,,,,,,,
1649886933.643871,57.000000,0.000000,4237.436035,4204.102539,4138.974121,4212.307617,4195.384766,0.000000,4.000000,86.000000,,,,0.000000,4.000000,4.000000,4.000000,0.000000,4.000000,66.666664,,,,,,,,,,,,,,,,,,,,,,,,,,,,,,,,,,,,,,,,,,,,,,,,,,,,,,,,,,,,,,,
1649886933.651786,58.000000,0.000000,4243.077148,4218.974121,4156.922852,4216.922852,4191.794922,0.000000,4.000000,86.000000,,,,0.000000,4.000000,4.000000,4.000000,0.000000,4.000000,66.666664,,,,,,,,,,,,,,,,,,,,,,,,,,,,,,,,,,,,,,,,,,,,,,,,,,,,,,,,,,,,,,,
1649886933.659600,59.000000,0.000000,4229.230957,4244.615234,4170.769043,4215.384766,4199.487305,0.000000,4.000000,86.000000,,,,0.000000,4.000000,4.000000,4.000000,0.000000,4.000000,66.666664,,,,,,,,,,,,,,,,,,,,,,,,,,,,,,,,,,,,,,,,,,,,,,,,,,,,,,,,,,,,,,,
1649886933.667514,60.000000,0.000000,4218.461426,4232.307617,4161.025879,4214.358887,4198.461426,0.000000,4.000000,86.000000,,,,0.000000,4.000000,4.000000,4.000000,0.000000,4.000000,66.666664,,,,,,,,,,,,,,,,,,,,,,,,,,,,,,,,,,,,,,,,,,,,,,,,,,,,,,,,,,,,,,,
1649886933.675429,61.000000,0.000000,4237.436035,4226.666504,4158.461426,4217.948730,4198.974121,0.000000,4.000000,86.000000,,,,0.000000,4.000000,4.000000,4.000000,0.000000,4.000000,66.666664,,,,,,,,,,,,,,,,,,,,,,,,,,,,,,,,,,,,,,,,,,,,,,,,,,,,,,,,,,,,,,,
1649886933.683243,62.000000,0.000000,4252.820313,4243.589844,4169.743652,4216.410156,4208.717773,0.000000,4.000000,86.000000,,,,0.000000,4.000000,4.000000,4.000000,0.000000,4.000000,66.666664,,,,,,,,,,,,,,,,,,,,,,,,,,,,,,,,,,,,,,,,,,,,,,,,,,,,,,,,,,,,,,,
1649886933.691057,63.000000,0.000000,4243.077148,4235.897461,4164.102539,4214.358887,4210.256348,0.000000,4.000000,86.000000,,,,0.000000,4.000000,4.000000,4.000000,0.000000,4.000000,66.666664,,,,,,,,,,,,,,,,,,,,,,,,,,,,,,,,,,,,,,,,,,,,,,,,,,,,,,,,,,,,,,,
1649886933.698972,64.000000,0.000000,4231.282227,4222.051270,4148.717773,4221.025879,4206.666504,450.000000,4.000000,86.000000,,,,0.000000,4.000000,4.000000,4.000000,0.000000,4.000000,66.666664,,,,,,,,,,,,,,,,,,,,,,,,,,,,,,,,,,,,,,,,,,,,,,,,,,,,,,,,,,,,,,,
1649886933.706886,65.000000,0.000000,4237.948730,4233.333496,4148.205078,4222.563965,4207.692383,450.000000,4.000000,86.000000,,,,0.000000,4.000000,4.000000,4.000000,0.000000,4.000000,66.666664,,,,,,,,,,,,,,,,,,,,,,,,,,,,,,,,,,,,,,,2.579035,5.854855,1.072741,1.784087,1.170460,0.654442,0.690038,0.318774,0.747220,0.521564,1.683707,2.391568,1.342818,0.989353,0.198510,0.065045,0.099301,0.036659,0.022129,0.024122,2.998934,6.499057,1.322557,1.027974,0.405203
1649886933.714701,66.000000,0.000000,4247.692383,4246.153809,4157.436035,4216.922852,4210.769043,16239.000000,4.000000,86.000000,,,,0.000000,4.000000,4.000000,4.000000,0.000000,4.000000,66.666664,,,,,,,,,,,,,,,,,,,,,,,,,,,,,,,,,,,,,,,,,,,,,,,,,,,,,,,,,,,,,,,
1649886933.722615,67.000000,0.000000,4248.205078,4239.487305,4159.487305,4218.461426,4214.358887,450.000000,4.000000,86.000000,,,,0.000000,4.000000,4.000000,4.000000,0.000000,4.000000,66.666664,,,,,,,,,,,,,,,,,,,,,,,,,,,,,,,,,,,,,,,,,,,,,,,,,,,,,,,,,,,,,,,
1649886933.730429,68.000000,0.000000,4248.717773,4237.436035,4158.974121,4220.000000,4221.025879,16201.000000,4.000000,86.000000,,,,0.000000,4.000000,4.000000,4.000000,0.000000,4.000000,66.666664,,,,,,,,,,,,,,,,,,,,,,,,,,,,,,,,,,,,,,,,,,,,,,,,,,,,,,,,,,,,,,,
1649886933.738344,69.000000,0.000000,4255.384766,4249.743652,4169.743652,4219.487305,4227.692383,450.000000,4.000000,86.000000,,,,0.000000,4.000000,4.000000,4.000000,0.000000,4.000000,66.666664,,,,,,,,,,,,,,,,,,,,,,,,,,,,,,,,,,,,,,,,,,,,,,,,,,,,,,,,,,,,,,,
1649886933.746258,70.000000,0.000000,4263.589844,4246.666504,4178.974121,4218.974121,4231.282227,16195.000000,4.000000,86.000000,,,,0.000000,4.000000,4.000000,4.000000,0.000000,4.000000,66.666664,,,,,,,,,,,,,,,,,,,,,,,,,,,,,,,,,,,,,,,,,,,,,,,,,,,,,,,,,,,,,,,
1649886933.754072,71.000000,0.000000,4269.230957,4237.436035,4175.384766,4218.974121,4235.897461,450.000000,4.000000,86.000000,,,,0.000000,4.000000,4.000000,4.000000,0.000000,4.000000,66.666664,,,,,,,,,,,,,,,,,,,,,,,,,,,,,,,,,,,,,,,,,,,,,,,,,,,,,,,,,,,,,,,
1649886933.761887,72.000000,0.000000,4275.384766,4250.769043,4170.256348,4221.025879,4237.948730,450.000000,4.000000,86.000000,,,,0.000000,4.000000,4.000000,4.000000,0.000000,4.000000,66.666664,,,,,,,,,,,,,,,,,,,,,,,,,,,,,,,,,,,,,,,,,,,,,,,,,,,,,,,,,,,,,,,
1649886933.769801,73.000000,0.000000,4263.077148,4254.358887,4169.230957,4220.512695,4224.102539,0.000000,4.000000,86.000000,,,,0.000000,4.000000,4.000000,4.000000,0.000000,4.000000,66.666664,,,,,,,,,,,,,,,,,,,,,,,,,,,,,,,,,,,,,,,,,,,,,,,,,,,,,,,,,,,,,,,
1649886933.777615,74.000000,0.000000,4239.487305,4231.282227,4170.769043,4218.974121,4208.717773,450.000000,4.000000,86.000000,,,,0.000000,4.000000,4.000000,4.000000,0.000000,4.000000,66.666664,,,,,,,,,,,,,,,,,,,,,,,,,,,,,,,,,,,,,,,,,,,,,,,,,,,,,,,,,,,,,,,
1649886933.785530,75.000000,0.000000,4244.615234,4228.717773,4175.897461,4220.512695,4214.358887,16199.000000,4.000000,86.000000,,,,0.000000,4.000000,4.000000,4.000000,0.000000,4.000000,66.666664,,,,,,,,,,,,,,,,,,,,,,,,,,,,,,,,,,,,,,,,,,,,,,,,,,,,,,,,,,,,,,,
1649886933.793344,76.000000,0.000000,4264.615234,4245.641113,4174.358887,4221.538574,4228.717773,450.000000,4.000000,86.000000,,,,0.000000,4.000000,4.000000,4.000000,0.000000,4.000000,66.666664,,,,,,,,,,,,,,,,,,,,,,,,,,,,,,,,,,,,,,,,,,,,,,,,,,,,,,,,,,,,,,,
1649886933.801258,77.000000,0.000000,4265.641113,4240.512695,4171.282227,4219.487305,4229.743652,450.000000,4.000000,86.000000,,,,0.000000,4.000000,4.000000,4.000000,0.000000,4.000000,66.666664,,,,,,,,,,,,,,,,,,,,,,,,,,,,,,,,,,,,,,,,,,,,,,,,,,,,,,,,,,,,,,,
1649886933.809073,78.000000,0.000000,4258.461426,4236.922852,4177.436035,4218.974121,4218.974121,450.000000,4.000000,86.000000,,,,0.000000,4.000000,4.000000,4.000000,0.000000,4.000000,66.666664,,,,,,,,,,,,,,,,,,,,,,,,,,,,,,,,,,,,,,,,,,,,,,,,,,,,,,,,,,,,,,,
1649886933.816987,79.000000,0.000000,4254.358887,4255.384766,4177.948730,4220.000000,4220.512695,16199.000000,4.000000,86.000000,,,,0.000000,4.000000,4.000000,4.000000,0.000000,4.000000,66.666664,,,,,,,,,,,,,,,,,,,,,,,,,,,,,,,,,,,,,,,,,,,,,,,,,,,,,,,,,,,,,,,
1649886933.824801,80.000000,0.000000,4246.666504,4249.743652,4164.102539,4223.077148,4227.179688,450.000000,4.000000,86.000000,,,,0.000000,4.000000,4.000000,4.000000,0.000000,4.000000,66.666664,,,,,,,,,,,,,,,,,,,,,,,,,,,,,,,,,,,,,,,,,,,,,,,,,,,,,,,,,,,,,,,
1649886933.832716,81.000000,0.000000,4239.487305,4228.717773,4154.358887,4224.615234,4215.897461,450.000000,4.000000,86.000000,,,,0.000000,4.000000,4.000000,4.000000,0.000000,4.000000,66.666664,0.906250,66.666664,4.000000,4.000000,4.000000,0.000000,4.000000,,,,,,,,,,,,,,,,,,,,,,,,,,,,,,,,2.928850,5.621953,0.975339,1.836092,1.121179,0.491058,0.797002,0.390131,0.892357,0.490458,1.625553,2.567866,1.606026,0.997239,0.208780,0.073725,0.094197,0.042184,0.023118,0.026668,2.508380,5.681403,1.082213,1.007512,0.409067
1649886933.840530,82.000000,0.000000,4245.641113,4238.461426,4154.871582,4216.410156,4211.282227,450.000000,4.000000,86.000000,,,,0.000000,4.000000,4.000000,4.000000,0.000000,4.000000,66.666664,,,,,,,,,,,,,,,,,,,,,,,,,,,,,,,,,,,,,,,,,,,,,,,,,,,,,,,,,,,,,,,
1649886933.848445,83.000000,0.000000,4260.000000,4252.307617,4154.871582,4213.333496,4232.307617,16199.000000,4.000000,86.000000,,,,0.000000,4.000000,4.000000,4.000000,0.000000,4.000000,66.666664,,,,,,,,,,,,,,,,,,,,,,,,,,,,,,,,,,,,,,,,,,,,,,,,,,,,,,,,,,,,,,,
1649886933.856259,84.000000,0.000000,4267.179688,4244.615234,4156.922852,4219.487305,4244.615234,450.000000,4.000000,86.000000,,,,0.000000,4.000000,4.000000,4.000000,0.000000,4.000000,66.666664,,,,,,,,,,,,,,,,,,,,,,,,,,,,,,,,,,,,,,,,,,,,,,,,,,,,,,,,,,,,,,,
1649886933.864073,85.000000,0.000000,4251.282227,4240.000000,4151.794922,4216.410156,4219.487305,450.000000,4.000000,86.000000,,,,0.000000,4.000000,4.000000,4.000000,0.000000,4.000000,66.666664,,,,,,,,,,,,,,,,,,,,,,,,,,,,,,,,,,,,,,,,,,,,,,,,,,,,,,,,,,,,,,,
1649886933.871988,86.000000,0.000000,4239.487305,4245.641113,4147.179688,4210.769043,4205.641113,450.000000,4.000000,86.000000,,,,0.000000,4.000000,4.000000,4.000000,0.000000,4.000000,66.666664,,,,,,,,,,,,,,,,,,,,,,,,,,,,,,,,,,,,,,,,,,,,,,,,,,,,,,,,,,,,,,,
1649886933.879802,87.000000,0.000000,4250.769043,4245.128418,4159.487305,4217.436035,4222.563965,16199.000000,4.000000,86.000000,,,,0.000000,4.000000,4.000000,4.000000,0.000000,4.000000,66.666664,,,,,,,,,,,,,,,,,,,,,,,,,,,,,,,,,,,,,,,,,,,,,,,,,,,,,,,,,,,,,,,
1649886933.887716,88.000000,0.000000,4246.666504,4233.846191,4167.179688,4221.538574,4224.102539,450.000000,4.000000,86.000000,,,,0.000000,4.000000,4.000000,4.000000,0.000000,4.000000,66.666664,,,,,,,,,,,,,,,,,,,,,,,,,,,,,,,,,,,,,,,,,,,,,,,,,,,,,,,,,,,,,,,
1649886933.895531,89.000000,0.000000,4235.897461,4221.538574,4158.974121,4216.922852,4208.205078,450.000000,4.000000,86.000000,,,,0.000000,4.000000,4.000000,4.000000,0.000000,4.000000,66.666664,,,,,,,,,,,,,,,,,,,,,,,,,,,,,,,,,,,,,,,,,,,,,,,,,,,,,,,,,,,,,,,
1649886933.903445,90.000000,0.000000,4243.589844,4220.000000,4154.358887,4214.358887,4207.692383,450.000000,4.000000,86.000000,,,,0.000000,4.000000,4.000000,4.000000,0.000000,4.000000,66.666664,,,,,,,,,,,,,,,,,,,,,,,,,,,,,,,,,,,,,,,,,,,,,,,,,,,,,,,,,,,,,,,
1649886933.911259,91.000000,0.000000,4249.743652,4232.307617,4151.794922,4215.384766,4211.282227,16199.000000,4.000000,86.000000,,,,0.000000,4.000000,4.000000,4.000000,0.000000,4.000000,66.666664,,,,,,,,,,,,,,,,,,,,,,,,,,,,,,,,,,,,,,,,,,,,,,,,,,,,,,,,,,,,,,,
1649886933.919174,92.000000,0.000000,4233.333496,4234.871582,4140.000000,4212.307617,4195.384766,450.000000,4.000000,86.000000,,,,0.000000,4.000000,4.000000,4.000000,0.000000,4.000000,66.666664,,,,,,,,,,,,,,,,,,,,,,,,,,,,,,,,,,,,,,,,,,,,,,,,,,,,,,,,,,,,,,,
1649886933.926988,93.000000,0.000000,4212.307617,4226.153809,4137.436035,4212.307617,4184.102539,450.000000,4.000000,86.000000,,,,0.000000,4.000000,4.000000,4.000000,0.000000,4.000000,66.666664,,,,,,,,,,,,,,,,,,,,,,,,,,,,,,,,,,,,,,,,,,,,,,,,,,,,,,,,,,,,,,,
1649886933.934902,94.000000,0.000000,4218.461426,4229.743652,4151.282227,4217.436035,4195.384766,450.000000,4.000000,86.000000,,,,0.000000,4.000000,4.000000,4.000000,0.000000,4.000000,66.666664,,,,,,,,,,,,,,,,,,,,,,,,,,,,,,,,,,,,,,,,,,,,,,,,,,,,,,,,,,,,,,,
1649886933.942717,95.000000,0.000000,4241.538574,4239.487305,4156.922852,4216.410156,4207.692383,16199.000000,4.000000,86.000000,,,,0.000000,4.000000,4.000000,4.000000,0.000000,4.000000,66.666664,,,,,,,,,,,,,,,,,,,,,,,,,,,,,,,,,,,,,,,,,,,,,,,,,,,,,,,,,,,,,,,
1649886933.950631,96.000000,0.000000,4261.025879,4244.102539,4155.384766,4214.871582,4216.922852,450.000000,4.000000,86.000000,,,,0.000000,4.000000,4.000000,4.000000,0.000000,4.000000,66.666664,,,,,,,,,,,,,,,,,,,,,,,,,,,,,,,,,,,,,,,,,,,,,,,,,,,,,,,,,,,,,,,
1649886933.958446,97.000000,0.000000,4263.589844,4242.563965,4161.538574,4220.000000,4225.128418,450.000000,4.000000,86.000000,,,,0.000000,4.000000,4.000000,4.000000,0.000000,4.000000,66.666664,,,,,,,,,,,,,,,,,,,,,,,,,,,,,,,,,,,,,,,3.536952,4.946350,0.922810,1.907227,1.054244,0.455599,0.859694,0.482608,1.014633,0.476456,1.860065,2.716317,1.800358,0.963026,0.219691,0.092002,0.083463,0.054461,0.025217,0.029226,2.083670,4.546536,0.900776,0.978409,0.418597
1649886933.966360,98.000000,0.000000,4258.461426,4233.846191,4163.589844,4221.538574,4225.128418,450.000000,4.000000,86.000000,,,,0.000000,4.000000,4.000000,4.000000,0.000000,4.000000,66.666664,,,,,,,,,,,,,,,,,,,,,,,,,,,,,,,,,,,,,,,,,,,,,,,,,,,,,,,,,,,,,,,
1649886933.974174,99.000000,0.000000,4258.974121,4226.153809,4153.333496,4218.974121,4216.410156,16199.000000,4.000000,86.000000,,,,0.000000,4.000000,4.000000,4.000000,0.000000,4.000000,66.666664,,,,,,,,,,,,,,,,,,,,,,,,,,,,,,,,,,,,,,,,,,,,,,,,,,,,,,,,,,,,,,,
1649886933.982089,100.000000,0.000000,4254.871582,4233.333496,4148.205078,4220.000000,4218.974121,450.000000,4.000000,86.000000,,,,0.000000,4.000000,4.000000,4.000000,0.000000,4.000000,66.666664,,,,,,,,,,,,,,,,,,,,,,,,,,,,,,,,,,,,,,,,,,,,,,,,,,,,,,,,,,,,,,,
1649886933.990003,101.000000,0.000000,4249.743652,4248.717773,4160.000000,4220.000000,4240.000000,450.000000,4.000000,86.000000,,,,0.000000,4.000000,4.000000,4.000000,0.000000,4.000000,66.666664,,,,,,,,,,,,,,,,,,,,,,,,,,,,,,,,,,,,,,,,,,,,,,,,,,,,,,,,,,,,,,,
1649886933.997817,102.000000,0.000000,4258.461426,4251.794922,4167.179688,4220.000000,4247.179688,450.000000,4.000000,86.000000,,,,0.000000,4.000000,4.000000,4.000000,0.000000,4.000000,66.666664,,,,,,,,,,,,,,,,,,,,,,,,,,,,,,,,,,,,,,,,,,,,,,,,,,,,,,,,,,,,,,,
1649886934.005632,103.000000,0.000000,4265.641113,4244.102539,4153.333496,4225.641113,4230.769043,16199.000000,4.000000,86.000000,,,,0.000000,4.000000,4.000000,4.000000,0.000000,4.000000,66.666664,,,,,,,,,,,,,,,,,,,,,,,,,,,,,,,,,,,,,,,,,,,,,,,,,,,,,,,,,,,,,,,
1649886934.013546,104.000000,0.000000,4252.820313,4235.384766,4143.077148,4223.589844,4221.025879,450.000000,4.000000,86.000000,,,,0.000000,4.000000,4.000000,4.000000,0.000000,4.000000,66.666664,,,,,,,,,,,,,,,,,,,,,,,,,,,,,,,,,,,,,,,,,,,,,,,,,,,,,,,,,,,,,,,
1649886934.021360,105.000000,0.000000,4245.641113,4225.641113,4145.641113,4216.410156,4225.641113,450.000000,4.000000,86.000000,,,,0.000000,4.000000,4.000000,4.000000,0.000000,4.000000,66.666664,,,,,,,,,,,,,,,,,,,,,,,,,,,,,,,,,,,,,,,,,,,,,,,,,,,,,,,,,,,,,,,
1649886934.029075,106.000000,0.000000,4247.179688,4222.563965,4143.589844,4214.871582,4221.025879,450.000000,4.000000,86.000000,,,,0.000000,4.000000,4.000000,4.000000,0.000000,4.000000,66.666664,,,,,,,,,,,,,,,,,,,,,,,,,,,,,,,,,,,,,,,,,,,,,,,,,,,,,,,,,,,,,,,
1649886934.036989,107.000000,0.000000,4245.641113,4234.871582,4145.128418,4218.974121,4217.436035,16199.000000,4.000000,86.000000,,,,0.000000,4.000000,4.000000,4.000000,0.000000,4.000000,66.666664,,,,,,,,,,,,,,,,,,,,,,,,,,,,,,,,,,,,,,,,,,,,,,,,,,,,,,,,,,,,,,,
1649886934.044804,108.000000,0.000000,4261.025879,4258.461426,4165.128418,4221.025879,4235.384766,450.000000,4.000000,86.000000,,,,0.000000,4.000000,4.000000,4.000000,0.000000,4.000000,66.666664,,,,,,,,,,,,,,,,,,,,,,,,,,,,,,,,,,,,,,,,,,,,,,,,,,,,,,,,,,,,,,,
1649886934.052718,109.000000,0.000000,4267.179688,4263.589844,4177.436035,4219.487305,4238.461426,450.000000,4.000000,86.000000,,,,0.000000,4.000000,4.000000,4.000000,0.000000,4.000000,66.666664,,,,,,,,,,,,,,,,,,,,,,,,,,,,,,,,,,,,,,,,,,,,,,,,,,,,,,,,,,,,,,,
1649886934.060532,110.000000,0.000000,4254.358887,4246.153809,4168.205078,4220.512695,4221.538574,450.000000,4.000000,86.000000,,,,0.000000,4.000000,4.000000,4.000000,0.000000,4.000000,66.666664,,,,,,,,,,,,,,,,,,,,,,,,,,,,,,,,,,,,,,,,,,,,,,,,,,,,,,,,,,,,,,,
1649886934.068347,111.000000,0.000000,4257.436035,4244.615234,4164.102539,4222.051270,4224.102539,16199.000000,4.000000,86.000000,,,,0.000000,4.000000,4.000000,4.000000,0.000000,4.000000,66.666664,,,,,,,,,,,,,,,,,,,,,,,,,,,,,,,,,,,,,,,,,,,,,,,,,,,,,,,,,,,,,,,
1649886934.076061,112.000000,0.000000,4264.102539,4255.897461,4164.102539,4220.512695,4235.384766,450.000000,4.000000,86.000000,,,,0.000000,4.000000,4.000000,4.000000,0.000000,4.000000,66.666664,,,,,,,,,,,,,,,,,,,,,,,,,,,,,,,,,,,,,,,,,,,,,,,,,,,,,,,,,,,,,,,
1649886934.083976,113.000000,0.000000,4256.922852,4240.000000,4160.000000,4220.512695,4232.820313,450.000000,4.000000,86.000000,,,,0.000000,4.000000,4.000000,4.000000,0.000000,4.000000,66.666664,,,,,,,,,,,,,,,,,,,,,,,,,,,,,,,,,,,,,,,4.376961,4.141994,0.941591,1.997115,0.999131,0.562501,0.863787,0.562602,1.078374,0.502155,2.365635,2.846449,1.920452,0.896676,0.232920,0.121406,0.070788,0.072657,0.027976,0.031702,1.958396,3.475871,0.836334,0.954442,0.441632
1649886934.091790,114.000000,0.000000,4263.077148,4224.102539,4163.589844,4222.051270,4231.794922,450.000000,4.000000,86.000000,,,,0.000000,4.000000,4.000000,4.000000,0.000000,4.000000,66.666664,,,,,,,,,,,,,,,,,,,,,,,,,,,,,,,,,,,,,,,,,,,,,,,,,,,,,,,,,,,,,,,
1649886934.099704,115.000000,0.000000,4276.410156,4246.153809,4169.230957,4223.589844,4230.256348,16199.000000,4.000000,86.000000,,,,0.000000,4.000000,4.000000,4.000000,0.000000,4.000000,66.666664,,,,,,,,,,,,,,,,,,,,,,,,,,,,,,,,,,,,,,,,,,,,,,,,,,,,,,,,,,,,,,,
1649886934.107519,116.000000,0.000000,4266.666504,4262.051270,4165.128418,4221.538574,4216.410156,450.000000,4.000000,86.000000,,,,0.000000,4.000000,4.000000,4.000000,0.000000,4.000000,66.666664,,,,,,,,,,,,,,,,,,,,,,,,,,,,,,,,,,,,,,,,,,,,,,,,,,,,,,,,,,,,,,,
1649886934.115433,117.000000,0.000000,4241.538574,4245.128418,4162.051270,4218.974121,4215.897461,450.000000,4.000000,86.000000,,,,0.000000,4.000000,4.000000,4.000000,0.000000,4.000000,66.666664,,,,,,,,,,,,,,,,,,,,,,,,,,,,,,,,,,,,,,,,,,,,,,,,,,,,,,,,,,,,,,,
1649886934.123347,118.000000,0.000000,4230.769043,4238.974121,4163.589844,4218.974121,4227.179688,450.000000,4.000000,86.000000,,,,0.000000,4.000000,4.000000,4.000000,0.000000,4.000000,66.666664,,,,,,,,,,,,,,,,,,,,,,,,,,,,,,,,,,,,,,,,,,,,,,,,,,,,,,,,,,,,,,,
1649886934.131262,119.000000,0.000000,4248.717773,4247.179688,4158.974121,4218.974121,4228.717773,16199.000000,4.000000,86.000000,,,,0.000000,4.000000,4.000000,4.000000,0.000000,4.000000,66.666664,,,,,,,,,,,,,,,,,,,,,,,,,,,,,,,,,,,,,,,,,,,,,,,,,,,,,,,,,,,,,,,
1649886934.139076,120.000000,0.000000,4272.307617,4248.205078,4158.461426,4218.974121,4226.153809,450.000000,4.000000,86.000000,,,,0.000000,4.000000,4.000000,4.000000,0.000000,4.000000,66.666664,,,,,,,,,,,,,,,,,,,,,,,,,,,,,,,,,,,,,,,,,,,,,,,,,,,,,,,,,,,,,,,
1649886934.146990,121.000000,0.000000,4263.077148,4250.769043,4171.282227,4219.487305,4217.948730,450.000000,4.000000,86.000000,,,,0.000000,4.000000,4.000000,4.000000,0.000000,4.000000,66.666664,,,,,,,,,,,,,,,,,,,,,,,,,,,,,,,,,,,,,,,,,,,,,,,,,,,,,,,,,,,,,,,
1649886934.154805,122.000000,0.000000,4235.897461,4241.025879,4181.025879,4220.000000,4212.307617,450.000000,4.000000,86.000000,,,,0.000000,4.000000,4.000000,4.000000,0.000000,4.000000,66.666664,,,,,,,,,,,,,,,,,,,,,,,,,,,,,,,,,,,,,,,,,,,,,,,,,,,,,,,,,,,,,,,
1649886934.162719,123.000000,0.000000,4247.179688,4232.820313,4181.025879,4222.051270,4230.769043,16199.000000,4.000000,86.000000,,,,0.000000,4.000000,4.000000,4.000000,0.000000,4.000000,66.666664,,,,,,,,,,,,,,,,,,,,,,,,,,,,,,,,,,,,,,,,,,,,,,,,,,,,,,,,,,,,,,,
1649886934.170633,124.000000,0.000000,4287.179688,4251.282227,4182.563965,4224.102539,4254.871582,450.000000,4.000000,86.000000,,,,0.000000,4.000000,4.000000,4.000000,0.000000,4.000000,66.666664,,,,,,,,,,,,,,,,,,,,,,,,,,,,,,,,,,,,,,,,,,,,,,,,,,,,,,,,,,,,,,,
1649886934.178448,125.000000,0.000000,4287.179688,4262.051270,4181.538574,4223.077148,4252.307617,450.000000,4.000000,86.000000,,,,0.000000,4.000000,4.000000,4.000000,0.000000,4.000000,66.666664,,,,,,,,,,,,,,,,,,,,,,,,,,,,,,,,,,,,,,,,,,,,,,,,,,,,,,,,,,,,,,,
1649886934.186262,126.000000,0.000000,4258.974121,4250.256348,4176.410156,4224.615234,4241.025879,450.000000,4.000000,86.000000,,,,0.000000,4.000000,4.000000,4.000000,0.000000,4.000000,66.666664,,,,,,,,,,,,,,,,,,,,,,,,,,,,,,,,,,,,,,,,,,,,,,,,,,,,,,,,,,,,,,,
1649886934.194176,127.000000,0.000000,4259.487305,4251.282227,4175.897461,4225.128418,4249.230957,241.000000,4.000000,86.000000,,,,0.000000,4.000000,4.000000,4.000000,0.000000,4.000000,66.666664,,,,,,,,,,,,,,,,,,,,,,,,,,,,,,,,,,,,,,,,,,,,,,,,,,,,,,,,,,,,,,,
1649886934.201991,0.000000,0.000000,4270.769043,4260.512695,4176.922852,4221.025879,4250.256348,450.000000,4.000000,86.000000,,,,0.000000,4.000000,4.000000,4.000000,0.000000,4.000000,66.666664,,,,,,,,,,,,,,,,,,,,,,,,,,,,,,,,,,,,,,,,,,,,,,,,,,,,,,,,,,,,,,,
1649886934.209905,1.000000,0.000000,4265.128418,4257.436035,4178.461426,4218.974121,4232.820313,450.000000,4.000000,86.000000,,,,0.000000,4.000000,4.000000,4.000000,0.000000,4.000000,66.666664,,,,,,,,,,,,,,,,,,,,,,,,,,,,,,,,,,,,,,,5.279175,3.507658,1.012382,2.073471,0.966794,0.800936,0.821351,0.610488,1.068955,0.575223,3.021366,2.935078,1.977319,0.805961,0.250760,0.161999,0.060060,0.092470,0.031177,0.034495,2.261737,2.741493,0.875755,0.940741,0.479223
1649886934.217720,2.000000,0.000000,4264.615234,4251.794922,4177.948730,4222.563965,4228.717773,16234.000000,4.000000,86.000000,,,,0.000000,4.000000,4.000000,4.000000,0.000000,4.000000,66.666664,,,,,,,,,,,,,,,,,,,,,,,,,,,,,,,,,,,,,,,,,,,,,,,,,,,,,,,,,,,,,,,
1649886934.225634,3.000000,0.000000,4264.102539,4241.025879,4173.846191,4223.077148,4238.461426,450.000000,4.000000,86.000000,,,,0.000000,4.000000,4.000000,4.000000,0.000000,4.000000,66.666664,,,,,,,,,,,,,,,,,,,,,,,,,,,,,,,,,,,,,,,,,,,,,,,,,,,,,,,,,,,,,,,
1649886934.233548,4.000000,0.000000,4261.538574,4244.102539,4179.487305,4221.025879,4235.897461,16191.000000,4.000000,86.000000,,,,0.000000,4.000000,4.000000,4.000000,0.000000,4.000000,66.666664,,,,,,,,,,,,,,,,,,,,,,,,,,,,,,,,,,,,,,,,,,,,,,,,,,,,,,,,,,,,,,,
1649886934.241363,5.000000,0.000000,4265.641113,4263.589844,4195.384766,4223.077148,4230.256348,450.000000,4.000000,86.000000,,,,0.000000,4.000000,4.000000,4.000000,0.000000,4.000000,66.666664,,,,,,,,,,,,,,,,,,,,,,,,,,,,,,,,,,,,,,,,,,,,,,,,,,,,,,,,,,,,,,,
1649886934.249177,6.000000,0.000000,4264.102539,4267.179688,4194.871582,4222.051270,4234.358887,16197.000000,4.000000,86.000000,,,,0.000000,4.000000,4.000000,4.000000,0.000000,4.000000,66.666664,,,,,,,,,,,,,,,,,,,,,,,,,,,,,,,,,,,,,,,,,,,,,,,,,,,,,,,,,,,,,,,
1649886934.257091,7.000000,0.000000,4255.384766,4261.538574,4181.025879,4218.974121,4232.307617,450.000000,4.000000,86.000000,,,,0.000000,4.000000,4.000000,4.000000,0.000000,4.000000,66.666664,,,,,,,,,,,,,,,,,,,,,,,,,,,,,,,,,,,,,,,,,,,,,,,,,,,,,,,,,,,,,,,
1649886934.265006,8.000000,0.000000,4256.922852,4257.436035,4166.666504,4220.512695,4226.153809,450.000000,4.000000,86.000000,,,,0.000000,4.000000,4.000000,4.000000,0.000000,4.000000,66.666664,,,,,,,,,,,,,,,,,,,,,,,,,,,,,,,,,,,,,,,,,,,,,,,,,,,,,,,,,,,,,,,
1649886934.272820,9.000000,0.000000,4264.102539,4250.769043,4158.461426,4222.563965,4230.769043,0.000000,4.000000,86.000000,,,,0.000000,4.000000,4.000000,4.000000,0.000000,4.000000,66.666664,,,,,,,,,,,,,,,,,,,,,,,,,,,,,,,,,,,,,,,,,,,,,,,,,,,,,,,,,,,,,,,
1649886934.280634,10.000000,0.000000,4272.307617,4255.897461,4170.256348,4222.051270,4241.538574,450.000000,4.000000,86.000000,,,,0.000000,4.000000,4.000000,4.000000,0.000000,4.000000,66.666664,,,,,,,,,,,,,,,,,,,,,,,,,,,,,,,,,,,,,,,,,,,,,,,,,,,,,,,,,,,,,,,
1649886934.288449,11.000000,0.000000,4282.563965,4269.230957,4190.769043,4224.615234,4251.794922,16209.000000,4.000000,86.000000,,,,0.000000,4.000000,4.000000,4.000000,0.000000,4.000000,66.666664,,,,,,,,,,,,,,,,,,,,,,,,,,,,,,,,,,,,,,,,,,,,,,,,,,,,,,,,,,,,,,,
1649886934.296363,12.000000,0.000000,4278.461426,4266.666504,4198.461426,4225.641113,4252.820313,450.000000,4.000000,86.000000,,,,0.000000,4.000000,4.000000,4.000000,0.000000,4.000000,66.666664,,,,,,,,,,,,,,,,,,,,,,,,,,,,,,,,,,,,,,,,,,,,,,,,,,,,,,,,,,,,,,,
1649886934.304277,13.000000,0.000000,4256.922852,4259.487305,4191.794922,4222.563965,4238.461426,450.000000,4.000000,86.000000,,,,0.000000,4.000000,4.000000,4.000000,0.000000,4.000000,66.666664,,,,,,,,,,,,,,,,,,,,,,,,,,,,,,,,,,,,,,,,,,,,,,,,,,,,,,,,,,,,,,,
1649886934.312092,14.000000,0.000000,4256.922852,4266.153809,4178.974121,4222.051270,4231.282227,450.000000,4.000000,86.000000,,,,0.000000,4.000000,4.000000,4.000000,0.000000,4.000000,66.666664,,,,,,,,,,,,,,,,,,,,,,,,,,,,,,,,,,,,,,,,,,,,,,,,,,,,,,,,,,,,,,,
1649886934.319906,15.000000,0.000000,4280.512695,4271.794922,4171.794922,4223.589844,4245.641113,16209.000000,4.000000,86.000000,,,,0.000000,4.000000,4.000000,4.000000,0.000000,4.000000,66.666664,,,,,,,,,,,,,,,,,,,,,,,,,,,,,,,,,,,,,,,,,,,,,,,,,,,,,,,,,,,,,,,
1649886934.327821,16.000000,0.000000,4285.641113,4263.589844,4182.563965,4225.128418,4256.922852,0.000000,4.000000,86.000000,,,,0.000000,4.000000,4.000000,4.000000,0.000000,4.000000,66.666664,,,,,,,,,,,,,,,,,,,,,,,,,,,,,,,,,,,,,,,,,,,,,,,,,,,,,,,,,,,,,,,
1649886934.335635,17.000000,0.000000,4268.717773,4255.384766,4193.846191,4224.615234,4252.820313,0.000000,4.000000,86.000000,,,,0.000000,4.000000,4.000000,4.000000,0.000000,4.000000,66.666664,0.968750,66.666664,4.000000,4.000000,4.000000,0.000000,4.000000,,,,,,,,,,,,,,,,,,,,,,,,,,,,,,,,6.096945,3.181032,1.080359,2.094516,0.948600,1.139535,0.762036,0.633386,1.004893,0.683029,3.638023,2.927974,1.973406,0.704046,0.273186,0.208118,0.053757,0.107431,0.034568,0.038022,2.948620,2.395682,0.957899,0.934620,0.524100
1649886934.343549,18.000000,0.000000,4252.307617,4256.410156,4191.282227,4222.563965,4246.153809,0.000000,4.000000,86.000000,,,,0.000000,4.000000,4.000000,4.000000,0.000000,4.000000,66.666664,,,,,,,,,,,,,,,,,,,,,,,,,,,,,,,,,,,,,,,,,,,,,,,,,,,,,,,,,,,,,,,
1649886934.351364,19.000000,0.000000,4246.666504,4267.692383,4195.384766,4220.512695,4241.538574,0.000000,4.000000,86.000000,,,,0.000000,4.000000,4.000000,4.000000,0.000000,4.000000,66.666664,,,,,,,,,,,,,,,,,,,,,,,,,,,,,,,,,,,,,,,,,,,,,,,,,,,,,,,,,,,,,,,
1649886934.359278,20.000000,0.000000,4249.743652,4270.769043,4195.897461,4222.563965,4236.410156,0.000000,4.000000,86.000000,,,,0.000000,4.000000,4.000000,4.000000,0.000000,4.000000,66.666664,,,,,,,,,,,,,,,,,,,,,,,,,,,,,,,,,,,,,,,,,,,,,,,,,,,,,,,,,,,,,,,
1649886934.367092,21.000000,0.000000,4254.358887,4255.384766,4172.820313,4223.077148,4227.692383,0.000000,4.000000,86.000000,,,,0.000000,4.000000,4.000000,4.000000,0.000000,4.000000,66.666664,,,,,,,,,,,,,,,,,,,,,,,,,,,,,,,,,,,,,,,,,,,,,,,,,,,,,,,,,,,,,,,
1649886934.375007,22.000000,0.000000,4253.333496,4244.615234,4152.820313,4221.025879,4216.410156,0.000000,4.000000,86.000000,,,,0.000000,4.000000,4.000000,4.000000,0.000000,4.000000,66.666664,,,,,,,,,,,,,,,,,,,,,,,,,,,,,,,,,,,,,,,,,,,,,,,,,,,,,,,,,,,,,,,
1649886934.382821,23.000000,0.000000,4252.307617,4254.358887,4160.512695,4221.538574,4215.897461,0.000000,4.000000,86.000000,,,,0.000000,4.000000,4.000000,4.000000,0.000000,4.000000,66.666664,,,,,,,,,,,,,,,,,,,,,,,,,,,,,,,,,,,,,,,,,,,,,,,,,,,,,,,,,,,,,,,
1649886934.390735,24.000000,1.000000,4254.644043,4256.068359,4162.336426,4221.766602,4219.771973,0.000000,4.000000,86.000000,,,,0.000000,4.000000,4.000000,4.000000,0.000000,4.000000,66.666664,,,,,,,,,,,,,,,,,,,,,,,,,,,,,,,,,,,,,,,,,,,,,,,,,,,,,,,,,,,,,,,
1649886934.398550,25.000000,1.000000,4256.979980,4257.777832,4164.159668,4221.994141,4223.646484,0.000000,4.000000,86.000000,,,,0.000000,4.000000,4.000000,4.000000,0.000000,4.000000,66.666664,,,,,,,,,,,,,,,,,,,,,,,,,,,,,,,,,,,,,,,,,,,,,,,,,,,,,,,,,,,,,,,
1649886934.406364,26.000000,1.000000,4259.316406,4259.487305,4165.982910,4222.222168,4227.521484,0.000000,4.000000,86.000000,,,,0.000000,4.000000,4.000000,4.000000,0.000000,4.000000,66.666664,,,,,,,,,,,,,,,,,,,,,,,,,,,,,,,,,,,,,,,,,,,,,,,,,,,,,,,,,,,,,,,
1649886934.414179,27.000000,1.000000,4261.652344,4261.196777,4167.806152,4222.450195,4231.395996,0.000000,4.000000,86.000000,,,,0.000000,4.000000,4.000000,4.000000,0.000000,4.000000,66.666664,,,,,,,,,,,,,,,,,,,,,,,,,,,,,,,,,,,,,,,,,,,,,,,,,,,,,,,,,,,,,,,
1649886934.421993,28.000000,1.000000,4263.988770,4262.905762,4169.629395,4222.678223,4235.270508,0.000000,4.000000,86.000000,,,,0.000000,4.000000,4.000000,4.000000,0.000000,4.000000,66.666664,,,,,,,,,,,,,,,,,,,,,,,,,,,,,,,,,,,,,,,,,,,,,,,,,,,,,,,,,,,,,,,
1649886934.429807,29.000000,1.000000,4266.324707,4264.615234,4171.453125,4222.905762,4239.145508,0.000000,4.000000,86.000000,,,,0.000000,4.000000,4.000000,4.000000,0.000000,4.000000,66.666664,,,,,,,,,,,,,,,,,,,,,,,,,,,,,,,,,,,,,,,,,,,,,,,,,,,,,,,,,,,,,,,
1649886934.437622,30.000000,1.000000,4268.661133,4266.324707,4173.276367,4223.133789,4243.020020,0.000000,4.000000,86.000000,,,,0.000000,4.000000,4.000000,4.000000,0.000000,4.000000,66.666664,,,,,,,,,,,,,,,,,,,,,,,,,,,,,,,,,,,,,,,,,,,,,,,,,,,,,,,,,,,,,,,
1649886934.445436,31.000000,1.000000,4270.997070,4268.034180,4175.099609,4223.361816,4246.894531,0.000000,4.000000,86.000000,,,,0.000000,4.000000,4.000000,4.000000,0.000000,4.000000,66.666664,,,,,,,,,,,,,,,,,,,,,,,,,,,,,,,,,,,,,,,,,,,,,,,,,,,,,,,,,,,,,,,
1649886934.453251,32.000000,0.000000,4273.333496,4269.743652,4176.922852,4223.589844,4250.769043,0.000000,4.000000,86.000000,,,,0.000000,4.000000,4.000000,4.000000,0.000000,4.000000,66.666664,,,,,,,,,,,,,,,,,,,,,,,,,,,,,,,,,,,,,,,,,,,,,,,,,,,,,,,,,,,,,,,
1649886934.460965,33.000000,0.000000,4250.256348,4241.538574,4177.948730,4222.563965,4230.769043,0.000000,4.000000,86.000000,,,,0.000000,4.000000,4.000000,4.000000,0.000000,4.000000,66.666664,,,,,,,,,,,,,,,,,,,,,,,,,,,,,,,,,,,,,,,6.541541,3.129499,1.096689,2.043228,0.933563,1.491291,0.713116,0.655644,0.928616,0.798408,3.987281,2.789525,1.912239,0.614588,0.295863,0.248038,0.053358,0.112007,0.037938,0.042178,3.749277,2.334534,1.005000,0.935294,0.565568
1649886934.468780,34.000000,0.000000,4250.769043,4246.153809,4170.256348,4224.615234,4237.948730,0.000000,4.000000,86.000000,,,,0.000000,4.000000,4.000000,4.000000,0.000000,4.000000,66.666664,,,,,,,,,,,,,,,,,,,,,,,,,,,,,,,,,,,,,,,,,,,,,,,,,,,,,,,,,,,,,,,
1649886934.476594,35.000000,0.000000,4270.256348,4268.205078,4165.128418,4224.102539,4263.589844,0.000000,4.000000,86.000000,,,,0.000000,4.000000,4.000000,4.000000,0.000000,4.000000,66.666664,,,,,,,,,,,,,,,,,,,,,,,,,,,,,,,,,,,,,,,,,,,,,,,,,,,,,,,,,,,,,,,
1649886934.484309,36.000000,0.000000,4275.384766,4269.230957,4165.641113,4224.615234,4263.589844,0.000000,4.000000,86.000000,,,,0.000000,4.000000,4.000000,4.000000,0.000000,4.000000,66.666664,,,,,,,,,,,,,,,,,,,,,,,,,,,,,,,,,,,,,,,,,,,,,,,,,,,,,,,,,,,,,,,
1649886934.492023,37.000000,0.000000,4269.743652,4262.563965,4170.769043,4226.666504,4244.102539,0.000000,4.000000,86.000000,,,,0.000000,4.000000,4.000000,4.000000,0.000000,4.000000,66.666664,,,,,,,,,,,,,,,,,,,,,,,,,,,,,,,,,,,,,,,,,,,,,,,,,,,,,,,,,,,,,,,
1649886934.499837,38.000000,0.000000,4273.846191,4270.256348,4177.436035,4225.128418,4249.230957,0.000000,4.000000,86.000000,,,,0.000000,4.000000,4.000000,4.000000,0.000000,4.000000,66.666664,,,,,,,,,,,,,,,,,,,,,,,,,,,,,,,,,,,,,,,,,,,,,,,,,,,,,,,,,,,,,,,
1649886934.507552,39.000000,0.000000,4271.794922,4285.641113,4181.025879,4225.641113,4263.589844,0.000000,4.000000,86.000000,,,,0.000000,4.000000,4.000000,4.000000,0.000000,4.000000,66.666664,,,,,,,,,,,,,,,,,,,,,,,,,,,,,,,,,,,,,,,,,,,,,,,,,,,,,,,,,,,,,,,
1649886934.515366,40.000000,0.000000,4261.025879,4276.922852,4181.025879,4226.666504,4253.846191,0.000000,4.000000,86.000000,,,,0.000000,4.000000,4.000000,4.000000,0.000000,4.000000,66.666664,,,,,,,,,,,,,,,,,,,,,,,,,,,,,,,,,,,,,,,,,,,,,,,,,,,,,,,,,,,,,,,
1649886934.523081,41.000000,0.000000,4259.487305,4251.794922,4174.871582,4221.538574,4231.282227,0.000000,4.000000,86.000000,,,,0.000000,4.000000,4.000000,4.000000,0.000000,4.000000,66.666664,,,,,,,,,,,,,,,,,,,,,,,,,,,,,,,,,,,,,,,,,,,,,,,,,,,,,,,,,,,,,,,
1649886934.530895,42.000000,0.000000,4255.384766,4245.128418,4166.666504,4218.461426,4216.410156,0.000000,4.000000,86.000000,,,,0.000000,4.000000,4.000000,4.000000,0.000000,4.000000,66.666664,,,,,,,,,,,,,,,,,,,,,,,,,,,,,,,,,,,,,,,,,,,,,,,,,,,,,,,,,,,,,,,
1649886934.538610,43.000000,0.000000,4241.538574,4260.512695,4171.282227,4222.051270,4222.051270,0.000000,4.000000,86.000000,,,,0.000000,4.000000,4.000000,4.000000,0.000000,4.000000,66.666664,,,,,,,,,,,,,,,,,,,,,,,,,,,,,,,,,,,,,,,,,,,,,,,,,,,,,,,,,,,,,,,
1649886934.546424,44.000000,0.000000,4244.615234,4266.153809,4179.487305,4224.615234,4234.358887,0.000000,4.000000,86.000000,,,,0.000000,4.000000,4.000000,4.000000,0.000000,4.000000,66.666664,,,,,,,,,,,,,,,,,,,,,,,,,,,,,,,,,,,,,,,,,,,,,,,,,,,,,,,,,,,,,,,
1649886934.554139,45.000000,0.000000,4256.922852,4247.179688,4170.256348,4223.077148,4231.282227,0.000000,4.000000,86.000000,,,,0.000000,4.000000,4.000000,4.000000,0.000000,4.000000,66.666664,,,,,,,,,,,,,,,,,,,,,,,,,,,,,,,,,,,,,,,,,,,,,,,,,,,,,,,,,,,,,,,
1649886934.561953,46.000000,0.000000,4261.025879,4244.102539,4158.974121,4222.563965,4223.077148,0.000000,4.000000,86.000000,,,,0.000000,4.000000,4.000000,4.000000,0.000000,4.000000,66.666664,,,,,,,,,,,,,,,,,,,,,,,,,,,,,,,,,,,,,,,,,,,,,,,,,,,,,,,,,,,,,,,
1649886934.569668,47.000000,0.000000,4265.128418,4257.436035,4164.615234,4224.102539,4230.769043,0.000000,4.000000,86.000000,,,,0.000000,4.000000,4.000000,4.000000,0.000000,4.000000,66.666664,,,,,,,,,,,,,,,,,,,,,,,,,,,,,,,,,,,,,,,,,,,,,,,,,,,,,,,,,,,,,,,
1649886934.577482,48.000000,0.000000,4264.102539,4252.820313,4173.333496,4225.641113,4240.512695,0.000000,4.000000,86.000000,,,,0.000000,4.000000,4.000000,4.000000,0.000000,4.000000,66.666664,,,,,,,,,,,,,,,,,,,,,,,,,,,,,,,,,,,,,,,,,,,,,,,,,,,,,,,,,,,,,,,
1649886934.585197,49.000000,0.000000,4254.871582,4252.820313,4181.538574,4223.589844,4237.436035,0.000000,4.000000,86.000000,,,,0.000000,4.000000,4.000000,4.000000,0.000000,4.000000,66.666664,,,,,,,,,,,,,,,,,,,,,,,,,,,,,,,,,,,,,,,6.483471,3.194011,1.036019,1.932517,0.919143,1.752429,0.685285,0.698086,0.881026,0.889513,3.958055,2.519238,1.784067,0.576576,0.311428,0.269804,0.058333,0.103989,0.041075,0.046156,4.382267,2.386888,0.959349,0.945450,0.593626
1649886934.593011,50.000000,0.000000,4256.922852,4272.820313,4190.256348,4222.563965,4235.384766,0.000000,4.000000,86.000000,,,,0.000000,4.000000,4.000000,4.000000,0.000000,4.000000,66.666664,,,,,,,,,,,,,,,,,,,,,,,,,,,,,,,,,,,,,,,,,,,,,,,,,,,,,,,,,,,,,,,
1649886934.600725,51.000000,0.000000,4272.820313,4276.410156,4186.666504,4225.641113,4244.615234,0.000000,4.000000,86.000000,,,,0.000000,4.000000,4.000000,4.000000,0.000000,4.000000,66.666664,,,,,,,,,,,,,,,,,,,,,,,,,,,,,,,,,,,,,,,,,,,,,,,,,,,,,,,,,,,,,,,
1649886934.608440,52.000000,0.000000,4276.922852,4260.000000,4173.333496,4226.153809,4251.794922,0.000000,4.000000,86.000000,,,,0.000000,4.000000,4.000000,4.000000,0.000000,4.000000,66.666664,,,,,,,,,,,,,,,,,,,,,,,,,,,,,,,,,,,,,,,,,,,,,,,,,,,,,,,,,,,,,,,
1649886934.616254,53.000000,0.000000,4269.230957,4253.846191,4169.743652,4223.589844,4250.256348,0.000000,4.000000,86.000000,,,,0.000000,4.000000,4.000000,4.000000,0.000000,4.000000,66.666664,,,,,,,,,,,,,,,,,,,,,,,,,,,,,,,,,,,,,,,,,,,,,,,,,,,,,,,,,,,,,,,
1649886934.624069,54.000000,0.000000,4277.436035,4251.794922,4174.871582,4224.102539,4255.384766,0.000000,4.000000,86.000000,,,,0.000000,4.000000,4.000000,4.000000,0.000000,4.000000,66.666664,,,,,,,,,,,,,,,,,,,,,,,,,,,,,,,,,,,,,,,,,,,,,,,,,,,,,,,,,,,,,,,
1649886934.631783,55.000000,0.000000,4290.256348,4254.871582,4173.846191,4225.128418,4264.615234,0.000000,4.000000,86.000000,,,,0.000000,4.000000,4.000000,4.000000,0.000000,4.000000,66.666664,,,,,,,,,,,,,,,,,,,,,,,,,,,,,,,,,,,,,,,,,,,,,,,,,,,,,,,,,,,,,,,
1649886934.639598,56.000000,0.000000,4279.487305,4266.153809,4170.769043,4223.589844,4251.282227,0.000000,4.000000,86.000000,,,,0.000000,4.000000,4.000000,4.000000,0.000000,4.000000,66.666664,,,,,,,,,,,,,,,,,,,,,,,,,,,,,,,,,,,,,,,,,,,,,,,,,,,,,,,,,,,,,,,
1649886934.647312,57.000000,0.000000,4262.051270,4266.153809,4171.794922,4222.563965,4231.794922,0.000000,4.000000,86.000000,,,,0.000000,4.000000,4.000000,4.000000,0.000000,4.000000,66.666664,,,,,,,,,,,,,,,,,,,,,,,,,,,,,,,,,,,,,,,,,,,,,,,,,,,,,,,,,,,,,,,
1649886934.655027,58.000000,0.000000,4267.179688,4263.589844,4176.410156,4224.615234,4237.948730,0.000000,4.000000,86.000000,,,,0.000000,4.000000,4.000000,4.000000,0.000000,4.000000,66.666664,,,,,,,,,,,,,,,,,,,,,,,,,,,,,,,,,,,,,,,,,,,,,,,,,,,,,,,,,,,,,,,
1649886934.662841,59.000000,0.000000,4271.282227,4269.230957,4173.846191,4223.589844,4252.307617,0.000000,4.000000,86.000000,,,,0.000000,4.000000,4.000000,4.000000,0.000000,4.000000,66.666664,,,,,,,,,,,,,,,,,,,,,,,,,,,,,,,,,,,,,,,,,,,,,,,,,,,,,,,,,,,,,,,
1649886934.670556,60.000000,0.000000,4261.025879,4272.307617,4164.102539,4222.563965,4252.307617,0.000000,4.000000,86.000000,,,,0.000000,4.000000,4.000000,4.000000,0.000000,4.000000,66.666664,,,,,,,,,,,,,,,,,,,,,,,,,,,,,,,,,,,,,,,,,,,,,,,,,,,,,,,,,,,,,,,
1649886934.678370,61.000000,0.000000,4252.820313,4260.512695,4154.358887,4223.077148,4238.974121,0.000000,4.000000,86.000000,,,,0.000000,4.000000,4.000000,4.000000,0.000000,4.000000,66.666664,,,,,,,,,,,,,,,,,,,,,,,,,,,,,,,,,,,,,,,,,,,,,,,,,,,,,,,,,,,,,,,
1649886934.686085,62.000000,0.000000,4246.666504,4251.282227,4152.307617,4220.512695,4220.512695,0.000000,4.000000,86.000000,,,,0.000000,4.000000,4.000000,4.000000,0.000000,4.000000,66.666664,,,,,,,,,,,,,,,,,,,,,,,,,,,,,,,,,,,,,,,,,,,,,,,,,,,,,,,,,,,,,,,
1649886934.693899,63.000000,0.000000,4243.589844,4254.871582,4157.948730,4219.487305,4213.333496,0.000000,4.000000,86.000000,,,,0.000000,4.000000,4.000000,4.000000,0.000000,4.000000,66.666664,,,,,,,,,,,,,,,,,,,,,,,,,,,,,,,,,,,,,,,,,,,,,,,,,,,,,,,,,,,,,,,
1649886934.701613,64.000000,0.000000,4253.333496,4260.512695,4155.384766,4221.025879,4219.487305,450.000000,4.000000,86.000000,,,,0.000000,4.000000,4.000000,4.000000,0.000000,4.000000,66.666664,,,,,,,,,,,,,,,,,,,,,,,,,,,,,,,,,,,,,,,,,,,,,,,,,,,,,,,,,,,,,,,
1649886934.709428,65.000000,0.000000,4255.384766,4257.948730,4152.820313,4223.589844,4224.615234,450.000000,4.000000,86.000000,,,,0.000000,4.000000,4.000000,4.000000,0.000000,4.000000,66.666664,,,,,,,,,,,,,,,,,,,,,,,,,,,,,,,,,,,,,,,5.843349,3.191523,0.900744,1.798363,0.914336,1.822281,0.668773,0.769315,0.877991,0.933618,3.530120,2.174397,1.584621,0.626115,0.313482,0.266553,0.066293,0.085694,0.043521,0.048686,4.684661,2.413383,0.824815,0.967210,0.604773
1649886934.717142,66.000000,0.000000,4235.897461,4244.615234,4157.436035,4220.000000,4221.025879,16231.000000,4.000000,86.000000,,,,0.000000,4.000000,4.000000,4.000000,0.000000,4.000000,66.666664,,,,,,,,,,,,,,,,,,,,,,,,,,,,,,,,,,,,,,,,,,,,,,,,,,,,,,,,,,,,,,,
1649886934.724957,67.000000,0.000000,4227.179688,4238.974121,4156.410156,4213.333496,4212.820313,450.000000,4.000000,86.000000,,,,0.000000,4.000000,4.000000,4.000000,0.000000,4.000000,66.666664,,,,,,,,,,,,,,,,,,,,,,,,,,,,,,,,,,,,,,,,,,,,,,,,,,,,,,,,,,,,,,,
1649886934.732671,68.000000,0.000000,4238.974121,4245.641113,4151.282227,4218.461426,4214.358887,16183.000000,4.000000,86.000000,,,,0.000000,4.000000,4.000000,4.000000,0.000000,4.000000,66.666664,,,,,,,,,,,,,,,,,,,,,,,,,,,,,,,,,,,,,,,,,,,,,,,,,,,,,,,,,,,,,,,
1649886934.740486,69.000000,0.000000,4243.077148,4249.230957,4156.922852,4219.487305,4228.717773,450.000000,4.000000,86.000000,,,,0.000000,4.000000,4.000000,4.000000,0.000000,4.000000,66.666664,,,,,,,,,,,,,,,,,,,,,,,,,,,,,,,,,,,,,,,,,,,,,,,,,,,,,,,,,,,,,,,
1649886934.748200,70.000000,0.000000,4238.974121,4249.743652,4165.641113,4214.358887,4233.846191,16199.000000,4.000000,86.000000,,,,0.000000,4.000000,4.000000,4.000000,0.000000,4.000000,66.666664,,,,,,,,,,,,,,,,,,,,,,,,,,,,,,,,,,,,,,,,,,,,,,,,,,,,,,,,,,,,,,,
1649886934.756015,71.000000,0.000000,4242.563965,4255.384766,4162.051270,4216.922852,4225.128418,450.000000,4.000000,86.000000,,,,0.000000,4.000000,4.000000,4.000000,0.000000,4.000000,66.666664,,,,,,,,,,,,,,,,,,,,,,,,,,,,,,,,,,,,,,,,,,,,,,,,,,,,,,,,,,,,,,,
1649886934.763729,72.000000,0.000000,4249.743652,4249.230957,4156.410156,4221.538574,4227.692383,450.000000,4.000000,86.000000,,,,0.000000,4.000000,4.000000,4.000000,0.000000,4.000000,66.666664,,,,,,,,,,,,,,,,,,,,,,,,,,,,,,,,,,,,,,,,,,,,,,,,,,,,,,,,,,,,,,,
1649886934.771444,73.000000,0.000000,4264.615234,4242.563965,4163.077148,4220.000000,4243.589844,0.000000,4.000000,86.000000,,,,0.000000,4.000000,4.000000,4.000000,0.000000,4.000000,66.666664,,,,,,,,,,,,,,,,,,,,,,,,,,,,,,,,,,,,,,,,,,,,,,,,,,,,,,,,,,,,,,,
1649886934.779258,74.000000,0.000000,4271.794922,4251.794922,4166.666504,4221.025879,4248.205078,450.000000,4.000000,86.000000,,,,0.000000,4.000000,4.000000,4.000000,0.000000,4.000000,66.666664,,,,,,,,,,,,,,,,,,,,,,,,,,,,,,,,,,,,,,,,,,,,,,,,,,,,,,,,,,,,,,,
1649886934.787072,75.000000,0.000000,4256.922852,4249.230957,4155.897461,4223.589844,4233.846191,16224.000000,4.000000,86.000000,,,,0.000000,4.000000,4.000000,4.000000,0.000000,4.000000,66.666664,,,,,,,,,,,,,,,,,,,,,,,,,,,,,,,,,,,,,,,,,,,,,,,,,,,,,,,,,,,,,,,
1649886934.794787,76.000000,0.000000,4251.794922,4236.410156,4151.794922,4218.974121,4225.641113,450.000000,4.000000,86.000000,,,,0.000000,4.000000,4.000000,4.000000,0.000000,4.000000,66.666664,,,,,,,,,,,,,,,,,,,,,,,,,,,,,,,,,,,,,,,,,,,,,,,,,,,,,,,,,,,,,,,
1649886934.802601,77.000000,0.000000,4264.615234,4238.974121,4159.487305,4218.461426,4237.948730,450.000000,4.000000,86.000000,,,,0.000000,4.000000,4.000000,4.000000,0.000000,4.000000,66.666664,,,,,,,,,,,,,,,,,,,,,,,,,,,,,,,,,,,,,,,,,,,,,,,,,,,,,,,,,,,,,,,
1649886934.810316,78.000000,0.000000,4260.000000,4249.230957,4165.641113,4221.538574,4245.128418,450.000000,4.000000,86.000000,,,,0.000000,4.000000,4.000000,4.000000,0.000000,4.000000,66.666664,,,,,,,,,,,,,,,,,,,,,,,,,,,,,,,,,,,,,,,,,,,,,,,,,,,,,,,,,,,,,,,
1649886934.818030,79.000000,0.000000,4245.128418,4250.769043,4166.153809,4220.512695,4235.897461,16224.000000,4.000000,86.000000,,,,0.000000,4.000000,4.000000,4.000000,0.000000,4.000000,66.666664,,,,,,,,,,,,,,,,,,,,,,,,,,,,,,,,,,,,,,,,,,,,,,,,,,,,,,,,,,,,,,,
1649886934.825845,80.000000,0.000000,4247.692383,4240.000000,4166.153809,4220.000000,4230.256348,450.000000,4.000000,86.000000,,,,0.000000,4.000000,4.000000,4.000000,0.000000,4.000000,66.666664,,,,,,,,,,,,,,,,,,,,,,,,,,,,,,,,,,,,,,,,,,,,,,,,,,,,,,,,,,,,,,,
1649886934.833559,81.000000,0.000000,4246.666504,4233.846191,4169.230957,4221.538574,4227.179688,450.000000,4.000000,86.000000,,,,0.000000,4.000000,4.000000,4.000000,0.000000,4.000000,66.666664,0.937500,66.666664,4.000000,4.000000,4.000000,0.000000,4.000000,,,,,,,,,,,,,,,,,,,,,,,,,,,,,,,,4.808100,3.028486,0.731572,1.668496,0.924368,1.663133,0.657508,0.855755,0.905490,0.927370,2.879771,1.850627,1.333644,0.773883,0.299841,0.239304,0.074117,0.063213,0.044587,0.048672,4.754304,2.351858,0.668924,0.990988,0.603421
1649886934.841374,82.000000,0.000000,4240.512695,4240.512695,4167.692383,4221.025879,4222.563965,450.000000,4.000000,86.000000,,,,0.000000,4.000000,4.000000,4.000000,0.000000,4.000000,66.666664,,,,,,,,,,,,,,,,,,,,,,,,,,,,,,,,,,,,,,,,,,,,,,,,,,,,,,,,,,,,,,,
1649886934.849088,83.000000,0.000000,4240.000000,4239.487305,4160.000000,4220.512695,4222.051270,16224.000000,4.000000,86.000000,,,,0.000000,4.000000,4.000000,4.000000,0.000000,4.000000,66.666664,,,,,,,,,,,,,,,,,,,,,,,,,,,,,,,,,,,,,,,,,,,,,,,,,,,,,,,,,,,,,,,
1649886934.856903,84.000000,0.000000,4226.666504,4225.128418,4156.410156,4218.974121,4213.846191,450.000000,4.000000,86.000000,,,,0.000000,4.000000,4.000000,4.000000,0.000000,4.000000,66.666664,,,,,,,,,,,,,,,,,,,,,,,,,,,,,,,,,,,,,,,,,,,,,,,,,,,,,,,,,,,,,,,
1649886934.864617,85.000000,0.000000,4213.333496,4222.563965,4152.820313,4213.846191,4194.871582,450.000000,4.000000,86.000000,,,,0.000000,4.000000,4.000000,4.000000,0.000000,4.000000,66.666664,,,,,,,,,,,,,,,,,,,,,,,,,,,,,,,,,,,,,,,,,,,,,,,,,,,,,,,,,,,,,,,
1649886934.872432,86.000000,0.000000,4227.692383,4233.846191,4149.230957,4214.358887,4194.358887,450.000000,4.000000,86.000000,,,,0.000000,4.000000,4.000000,4.000000,0.000000,4.000000,66.666664,,,,,,,,,,,,,,,,,,,,,,,,,,,,,,,,,,,,,,,,,,,,,,,,,,,,,,,,,,,,,,,
1649886934.880146,87.000000,0.000000,4246.666504,4241.538574,4154.358887,4220.000000,4216.922852,16224.000000,4.000000,86.000000,,,,0.000000,4.000000,4.000000,4.000000,0.000000,4.000000,66.666664,,,,,,,,,,,,,,,,,,,,,,,,,,,,,,,,,,,,,,,,,,,,,,,,,,,,,,,,,,,,,,,
1649886934.887960,88.000000,0.000000,4240.512695,4242.563965,4156.922852,4220.000000,4222.051270,450.000000,4.000000,86.000000,,,,0.000000,4.000000,4.000000,4.000000,0.000000,4.000000,66.666664,,,,,,,,,,,,,,,,,,,,,,,,,,,,,,,,,,,,,,,,,,,,,,,,,,,,,,,,,,,,,,,
1649886934.895675,89.000000,0.000000,4231.794922,4230.769043,4145.641113,4216.922852,4210.256348,450.000000,4.000000,86.000000,,,,0.000000,4.000000,4.000000,4.000000,0.000000,4.000000,66.666664,,,,,,,,,,,,,,,,,,,,,,,,,,,,,,,,,,,,,,,,,,,,,,,,,,,,,,,,,,,,,,,
1649886934.903489,90.000000,0.000000,4244.102539,4222.051270,4135.897461,4218.461426,4224.615234,450.000000,4.000000,86.000000,,,,0.000000,4.000000,4.000000,4.000000,0.000000,4.000000,66.666664,,,,,,,,,,,,,,,,,,,,,,,,,,,,,,,,,,,,,,,,,,,,,,,,,,,,,,,,,,,,,,,
1649886934.911204,91.000000,0.000000,4259.487305,4229.743652,4142.051270,4220.000000,4252.820313,16224.000000,4.000000,86.000000,,,,0.000000,4.000000,4.000000,4.000000,0.000000,4.000000,66.666664,,,,,,,,,,,,,,,,,,,,,,,,,,,,,,,,,,,,,,,,,,,,,,,,,,,,,,,,,,,,,,,
1649886934.919018,92.000000,0.000000,4266.153809,4244.102539,4161.025879,4222.563965,4256.410156,450.000000,4.000000,86.000000,,,,0.000000,4.000000,4.000000,4.000000,0.000000,4.000000,66.666664,,,,,,,,,,,,,,,,,,,,,,,,,,,,,,,,,,,,,,,,,,,,,,,,,,,,,,,,,,,,,,,
1649886934.926733,93.000000,0.000000,4257.948730,4248.717773,4173.846191,4223.077148,4235.384766,450.000000,4.000000,86.000000,,,,0.000000,4.000000,4.000000,4.000000,0.000000,4.000000,66.666664,,,,,,,,,,,,,,,,,,,,,,,,,,,,,,,,,,,,,,,,,,,,,,,,,,,,,,,,,,,,,,,
1649886934.934447,94.000000,0.000000,4245.641113,4244.615234,4167.179688,4220.000000,4224.102539,450.000000,4.000000,86.000000,,,,0.000000,4.000000,4.000000,4.000000,0.000000,4.000000,66.666664,,,,,,,,,,,,,,,,,,,,,,,,,,,,,,,,,,,,,,,,,,,,,,,,,,,,,,,,,,,,,,,
1649886934.942362,95.000000,0.000000,4241.538574,4242.051270,4163.077148,4221.025879,4228.717773,16224.000000,4.000000,86.000000,,,,0.000000,4.000000,4.000000,4.000000,0.000000,4.000000,66.666664,,,,,,,,,,,,,,,,,,,,,,,,,,,,,,,,,,,,,,,,,,,,,,,,,,,,,,,,,,,,,,,
1649886934.950176,96.000000,0.000000,4248.717773,4246.666504,4169.230957,4223.589844,4238.974121,450.000000,4.000000,86.000000,,,,0.000000,4.000000,4.000000,4.000000,0.000000,4.000000,66.666664,,,,,,,,,,,,,,,,,,,,,,,,,,,,,,,,,,,,,,,,,,,,,,,,,,,,,,,,,,,,,,,
1649886934.957990,97.000000,0.000000,4255.384766,4254.871582,4170.769043,4222.563965,4246.666504,450.000000,4.000000,86.000000,,,,0.000000,4.000000,4.000000,4.000000,0.000000,4.000000,66.666664,,,,,,,,,,,,,,,,,,,,,,,,,,,,,,,,,,,,,,,3.752174,2.739011,0.587751,1.543734,0.943183,1.354609,0.656291,0.942904,0.933793,0.884894,2.243993,1.619175,1.066687,0.986121,0.274378,0.195816,0.079089,0.043179,0.043660,0.045803,4.786942,2.204153,0.567986,0.996001,0.600952
1649886934.965805,98.000000,0.000000,4242.051270,4246.666504,4169.230957,4221.025879,4242.051270,450.000000,4.000000,86.000000,,,,0.000000,4.000000,4.000000,4.000000,0.000000,4.000000,66.666664,,,,,,,,,,,,,,,,,,,,,,,,,,,,,,,,,,,,,,,,,,,,,,,,,,,,,,,,,,,,,,,
1649886934.973519,99.000000,0.000000,4231.282227,4237.436035,4168.717773,4220.512695,4230.256348,16224.000000,4.000000,86.000000,,,,0.000000,4.000000,4.000000,4.000000,0.000000,4.000000,66.666664,,,,,,,,,,,,,,,,,,,,,,,,,,,,,,,,,,,,,,,,,,,,,,,,,,,,,,,,,,,,,,,
1649886934.981234,100.000000,0.000000,4239.487305,4238.974121,4166.153809,4218.461426,4226.153809,450.000000,4.000000,86.000000,,,,0.000000,4.000000,4.000000,4.000000,0.000000,4.000000,66.666664,,,,,,,,,,,,,,,,,,,,,,,,,,,,,,,,,,,,,,,,,,,,,,,,,,,,,,,,,,,,,,,
1649886934.989048,101.000000,0.000000,4235.384766,4230.256348,4155.897461,4216.410156,4223.589844,450.000000,4.000000,86.000000,,,,0.000000,4.000000,4.000000,4.000000,0.000000,4.000000,66.666664,,,,,,,,,,,,,,,,,,,,,,,,,,,,,,,,,,,,,,,,,,,,,,,,,,,,,,,,,,,,,,,
1649886934.996763,102.000000,0.000000,4220.512695,4227.179688,4145.128418,4217.436035,4215.897461,450.000000,4.000000,86.000000,,,,0.000000,4.000000,4.000000,4.000000,0.000000,4.000000,66.666664,,,,,,,,,,,,,,,,,,,,,,,,,,,,,,,,,,,,,,,,,,,,,,,,,,,,,,,,,,,,,,,
1649886935.004577,103.000000,0.000000,4238.461426,4242.563965,4149.743652,4221.538574,4222.563965,16224.000000,4.000000,86.000000,,,,0.000000,4.000000,4.000000,4.000000,0.000000,4.000000,66.666664,,,,,,,,,,,,,,,,,,,,,,,,,,,,,,,,,,,,,,,,,,,,,,,,,,,,,,,,,,,,,,,
1649886935.012292,104.000000,0.000000,4266.153809,4247.692383,4163.077148,4223.589844,4245.641113,450.000000,4.000000,86.000000,,,,0.000000,4.000000,4.000000,4.000000,0.000000,4.000000,66.666664,,,,,,,,,,,,,,,,,,,,,,,,,,,,,,,,,,,,,,,,,,,,,,,,,,,,,,,,,,,,,,,
1649886935.020106,105.000000,0.000000,4249.230957,4232.820313,4166.666504,4220.000000,4245.641113,450.000000,4.000000,86.000000,,,,0.000000,4.000000,4.000000,4.000000,0.000000,4.000000,66.666664,,,,,,,,,,,,,,,,,,,,,,,,,,,,,,,,,,,,,,,,,,,,,,,,,,,,,,,,,,,,,,,
1649886935.027821,106.000000,0.000000,4234.871582,4237.436035,4173.333496,4217.436035,4234.871582,450.000000,4.000000,86.000000,,,,0.000000,4.000000,4.000000,4.000000,0.000000,4.000000,66.666664,,,,,,,,,,,,,,,,,,,,,,,,,,,,,,,,,,,,,,,,,,,,,,,,,,,,,,,,,,,,,,,
1649886935.035635,107.000000,0.000000,4252.820313,4245.641113,4185.641113,4221.025879,4240.000000,16224.000000,4.000000,86.000000,,,,0.000000,4.000000,4.000000,4.000000,0.000000,4.000000,66.666664,,,,,,,,,,,,,,,,,,,,,,,,,,,,,,,,,,,,,,,,,,,,,,,,,,,,,,,,,,,,,,,
1649886935.043350,108.000000,0.000000,4253.333496,4234.871582,4184.615234,4224.102539,4237.436035,450.000000,4.000000,86.000000,,,,0.000000,4.000000,4.000000,4.000000,0.000000,4.000000,66.666664,,,,,,,,,,,,,,,,,,,,,,,,,,,,,,,,,,,,,,,,,,,,,,,,,,,,,,,,,,,,,,,
1649886935.051064,109.000000,0.000000,4233.333496,4234.358887,4177.436035,4220.000000,4220.000000,450.000000,4.000000,86.000000,,,,0.000000,4.000000,4.000000,4.000000,0.000000,4.000000,66.666664,,,,,,,,,,,,,,,,,,,,,,,,,,,,,,,,,,,,,,,,,,,,,,,,,,,,,,,,,,,,,,,
1649886935.058978,110.000000,0.000000,4235.897461,4248.205078,4173.333496,4219.487305,4222.563965,450.000000,4.000000,86.000000,,,,0.000000,4.000000,4.000000,4.000000,0.000000,4.000000,66.666664,,,,,,,,,,,,,,,,,,,,,,,,,,,,,,,,,,,,,,,,,,,,,,,,,,,,,,,,,,,,,,,
1649886935.066793,111.000000,0.000000,4243.077148,4245.641113,4166.666504,4222.051270,4238.461426,16224.000000,4.000000,86.000000,,,,0.000000,4.000000,4.000000,4.000000,0.000000,4.000000,66.666664,,,,,,,,,,,,,,,,,,,,,,,,,,,,,,,,,,,,,,,,,,,,,,,,,,,,,,,,,,,,,,,
1649886935.074607,112.000000,0.000000,4229.743652,4228.717773,4163.077148,4220.512695,4236.922852,450.000000,4.000000,86.000000,,,,0.000000,4.000000,4.000000,4.000000,0.000000,4.000000,66.666664,,,,,,,,,,,,,,,,,,,,,,,,,,,,,,,,,,,,,,,,,,,,,,,,,,,,,,,,,,,,,,,
1649886935.082521,113.000000,0.000000,4231.282227,4233.333496,4165.128418,4220.512695,4231.794922,450.000000,4.000000,86.000000,,,,0.000000,4.000000,4.000000,4.000000,0.000000,4.000000,66.666664,,,,,,,,,,,,,,,,,,,,,,,,,,,,,,,,,,,,,,,3.020982,2.387767,0.521990,1.399612,0.954987,1.033690,0.671349,1.009302,0.932510,0.827751,1.771680,1.491904,0.836140,1.194693,0.245157,0.147903,0.079379,0.029897,0.040556,0.040958,4.933883,1.987337,0.565169,0.963104,0.608848
1649886935.090436,114.000000,0.000000,4257.948730,4233.846191,4166.153809,4223.077148,4239.487305,450.000000,4.000000,86.000000,,,,0.000000,4.000000,4.000000,4.000000,0.000000,4.000000,66.666664,,,,,,,,,,,,,,,,,,,,,,,,,,,,,,,,,,,,,,,,,,,,,,,,,,,,,,,,,,,,,,,
1649886935.098250,115.000000,0.000000,4263.077148,4216.922852,4166.666504,4218.974121,4241.538574,16224.000000,4.000000,86.000000,,,,0.000000,4.000000,4.000000,4.000000,0.000000,4.000000,66.666664,,,,,,,,,,,,,,,,,,,,,,,,,,,,,,,,,,,,,,,,,,,,,,,,,,,,,,,,,,,,,,,
1649886935.106165,116.000000,0.000000,4237.436035,4222.563965,4166.666504,4214.358887,4230.769043,450.000000,4.000000,86.000000,,,,0.000000,4.000000,4.000000,4.000000,0.000000,4.000000,66.666664,,,,,,,,,,,,,,,,,,,,,,,,,,,,,,,,,,,,,,,,,,,,,,,,,,,,,,,,,,,,,,,
1649886935.114079,117.000000,0.000000,4227.179688,4238.974121,4166.666504,4218.461426,4222.051270,450.000000,4.000000,86.000000,,,,0.000000,4.000000,4.000000,4.000000,0.000000,4.000000,66.666664,,,,,,,,,,,,,,,,,,,,,,,,,,,,,,,,,,,,,,,,,,,,,,,,,,,,,,,,,,,,,,,
1649886935.121893,118.000000,0.000000,4233.846191,4233.333496,4169.743652,4221.538574,4219.487305,450.000000,4.000000,86.000000,,,,0.000000,4.000000,4.000000,4.000000,0.000000,4.000000,66.666664,,,,,,,,,,,,,,,,,,,,,,,,,,,,,,,,,,,,,,,,,,,,,,,,,,,,,,,,,,,,,,,
1649886935.129808,119.000000,0.000000,4237.948730,4234.358887,4171.282227,4219.487305,4224.615234,16224.000000,4.000000,86.000000,,,,0.000000,4.000000,4.000000,4.000000,0.000000,4.000000,66.666664,,,,,,,,,,,,,,,,,,,,,,,,,,,,,,,,,,,,,,,,,,,,,,,,,,,,,,,,,,,,,,,
1649886935.137722,120.000000,1.000000,4239.658203,4236.467285,4172.649414,4219.658203,4225.526855,14471.333008,4.000000,86.000000,,,,0.000000,4.000000,4.000000,4.000000,0.000000,4.000000,66.666664,,,,,,,,,,,,,,,,,,,,,,,,,,,,,,,,,,,,,,,,,,,,,,,,,,,,,,,,,,,,,,,
1649886935.145536,121.000000,1.000000,4241.367676,4238.575684,4174.017090,4219.829102,4226.438965,12718.666992,4.000000,86.000000,,,,0.000000,4.000000,4.000000,4.000000,0.000000,4.000000,66.666664,,,,,,,,,,,,,,,,,,,,,,,,,,,,,,,,,,,,,,,,,,,,,,,,,,,,,,,,,,,,,,,
1649886935.153351,122.000000,1.000000,4243.077148,4240.683594,4175.384766,4220.000000,4227.350586,10966.000000,4.000000,86.000000,,,,0.000000,4.000000,4.000000,4.000000,0.000000,4.000000,66.666664,,,,,,,,,,,,,,,,,,,,,,,,,,,,,,,,,,,,,,,,,,,,,,,,,,,,,,,,,,,,,,,
1649886935.161165,123.000000,1.000000,4244.786133,4242.791992,4176.751953,4220.170898,4228.262207,9213.333008,4.000000,86.000000,,,,0.000000,4.000000,4.000000,4.000000,0.000000,4.000000,66.666664,,,,,,,,,,,,,,,,,,,,,,,,,,,,,,,,,,,,,,,,,,,,,,,,,,,,,,,,,,,,,,,
1649886935.168979,124.000000,1.000000,4246.495605,4244.900391,4178.119629,4220.341797,4229.173828,7460.666504,4.000000,86.000000,,,,0.000000,4.000000,4.000000,4.000000,0.000000,4.000000,66.666664,,,,,,,,,,,,,,,,,,,,,,,,,,,,,,,,,,,,,,,,,,,,,,,,,,,,,,,,,,,,,,,
1649886935.176794,125.000000,1.000000,4248.205078,4247.008789,4179.487305,4220.512695,4230.085449,5708.000000,4.000000,86.000000,,,,0.000000,4.000000,4.000000,4.000000,0.000000,4.000000,66.666664,,,,,,,,,,,,,,,,,,,,,,,,,,,,,,,,,,,,,,,,,,,,,,,,,,,,,,,,,,,,,,,
1649886935.184608,126.000000,1.000000,4249.914551,4249.116699,4180.854492,4220.683594,4230.997070,3955.333252,4.000000,86.000000,,,,0.000000,4.000000,4.000000,4.000000,0.000000,4.000000,66.666664,,,,,,,,,,,,,,,,,,,,,,,,,,,,,,,,,,,,,,,,,,,,,,,,,,,,,,,,,,,,,,,
1649886935.192423,127.000000,1.000000,4251.624023,4251.225098,4182.222168,4220.854492,4231.908691,2202.666748,4.000000,86.000000,,,,0.000000,4.000000,4.000000,4.000000,0.000000,4.000000,66.666664,,,,,,,,,,,,,,,,,,,,,,,,,,,,,,,,,,,,,,,,,,,,,,,,,,,,,,,,,,,,,,,
1649886935.200237,0.000000,0.000000,4253.333496,4253.333496,4183.589844,4221.025879,4232.820313,450.000000,4.000000,86.000000,,,,0.000000,4.000000,4.000000,4.000000,0.000000,4.000000,66.666664,,,,,,,,,,,,,,,,,,,,,,,,,,,,,,,,,,,,,,,,,,,,,,,,,,,,,,,,,,,,,,,
1649886935.207952,1.000000,0.000000,4254.871582,4247.179688,4183.589844,4222.051270,4235.384766,450.000000,4.000000,86.000000,,,,0.000000,4.000000,4.000000,4.000000,0.000000,4.000000,66.666664,,,,,,,,,,,,,,,,,,,,,,,,,,,,,,,,,,,,,,,2.847498,2.029055,0.535058,1.212494,0.943489,0.822584,0.699652,1.034195,0.885579,0.772403,1.548714,1.438796,0.678277,1.325253,0.220302,0.109408,0.074621,0.023873,0.035805,0.035913,5.346852,1.727719,0.644515,0.890803,0.632752
1649886935.215666,2.000000,0.000000,4258.974121,4257.436035,4188.205078,4223.077148,4238.461426,16241.000000,4.000000,86.000000,,,,0.000000,4.000000,4.000000,4.000000,0.000000,4.000000,66.666664,,,,,,,,,,,,,,,,,,,,,,,,,,,,,,,,,,,,,,,,,,,,,,,,,,,,,,,,,,,,,,,
1649886935.223481,3.000000,0.000000,4270.769043,4260.000000,4192.307617,4223.589844,4248.205078,450.000000,4.000000,86.000000,,,,0.000000,4.000000,4.000000,4.000000,0.000000,4.000000,66.666664,,,,,,,,,,,,,,,,,,,,,,,,,,,,,,,,,,,,,,,,,,,,,,,,,,,,,,,,,,,,,,,
1649886935.231295,4.000000,0.000000,4267.179688,4238.461426,4187.179688,4224.102539,4248.205078,16197.000000,4.000000,86.000000,,,,0.000000,4.000000,4.000000,4.000000,0.000000,4.000000,66.666664,,,,,,,,,,,,,,,,,,,,,,,,,,,,,,,,,,,,,,,,,,,,,,,,,,,,,,,,,,,,,,,
1649886935.239009,5.000000,0.000000,4256.410156,4234.358887,4180.512695,4224.102539,4240.000000,450.000000,4.000000,86.000000,,,,0.000000,4.000000,4.000000,4.000000,0.000000,4.000000,66.666664,,,,,,,,,,,,,,,,,,,,,,,,,,,,,,,,,,,,,,,,,,,,,,,,,,,,,,,,,,,,,,,
1649886935.246824,6.000000,0.000000,4260.512695,4247.692383,4181.025879,4224.615234,4240.000000,16209.000000,4.000000,86.000000,,,,0.000000,4.000000,4.000000,4.000000,0.000000,4.000000,66.666664,,,,,,,,,,,,,,,,,,,,,,,,,,,,,,,,,,,,,,,,,,,,,,,,,,,,,,,,,,,,,,,
1649886935.254638,7.000000,0.000000,4260.000000,4243.077148,4182.563965,4223.589844,4242.563965,450.000000,4.000000,86.000000,,,,0.000000,4.000000,4.000000,4.000000,0.000000,4.000000,66.666664,,,,,,,,,,,,,,,,,,,,,,,,,,,,,,,,,,,,,,,,,,,,,,,,,,,,,,,,,,,,,,,
1649886935.262353,8.000000,0.000000,4242.051270,4241.538574,4182.051270,4222.051270,4243.077148,450.000000,4.000000,86.000000,,,,0.000000,4.000000,4.000000,4.000000,0.000000,4.000000,66.666664,,,,,,,,,,,,,,,,,,,,,,,,,,,,,,,,,,,,,,,,,,,,,,,,,,,,,,,,,,,,,,,
1649886935.270267,9.000000,0.000000,4247.179688,4257.436035,4185.641113,4222.051270,4249.230957,0.000000,4.000000,86.000000,,,,0.000000,4.000000,4.000000,4.000000,0.000000,4.000000,66.666664,,,,,,,,,,,,,,,,,,,,,,,,,,,,,,,,,,,,,,,,,,,,,,,,,,,,,,,,,,,,,,,
1649886935.278081,10.000000,0.000000,4280.000000,4253.846191,4187.692383,4224.102539,4252.820313,450.000000,4.000000,86.000000,,,,0.000000,4.000000,4.000000,4.000000,0.000000,4.000000,66.666664,,,,,,,,,,,,,,,,,,,,,,,,,,,,,,,,,,,,,,,,,,,,,,,,,,,,,,,,,,,,,,,
1649886935.285996,11.000000,0.000000,4294.358887,4245.641113,4186.666504,4224.615234,4253.846191,16211.000000,4.000000,86.000000,,,,0.000000,4.000000,4.000000,4.000000,0.000000,4.000000,66.666664,,,,,,,,,,,,,,,,,,,,,,,,,,,,,,,,,,,,,,,,,,,,,,,,,,,,,,,,,,,,,,,
1649886935.293910,12.000000,0.000000,4279.487305,4248.717773,4186.153809,4223.589844,4256.922852,450.000000,4.000000,86.000000,,,,0.000000,4.000000,4.000000,4.000000,0.000000,4.000000,66.666664,,,,,,,,,,,,,,,,,,,,,,,,,,,,,,,,,,,,,,,,,,,,,,,,,,,,,,,,,,,,,,,
1649886935.301724,13.000000,0.000000,4255.897461,4241.025879,4182.051270,4221.538574,4248.717773,450.000000,4.000000,86.000000,,,,0.000000,4.000000,4.000000,4.000000,0.000000,4.000000,66.666664,,,,,,,,,,,,,,,,,,,,,,,,,,,,,,,,,,,,,,,,,,,,,,,,,,,,,,,,,,,,,,,
1649886935.309539,14.000000,0.000000,4236.922852,4232.820313,4184.615234,4220.512695,4230.256348,450.000000,4.000000,86.000000,,,,0.000000,4.000000,4.000000,4.000000,0.000000,4.000000,66.666664,,,,,,,,,,,,,,,,,,,,,,,,,,,,,,,,,,,,,,,,,,,,,,,,,,,,,,,,,,,,,,,
1649886935.317353,15.000000,0.000000,4234.358887,4242.563965,4196.922852,4221.538574,4221.538574,16211.000000,4.000000,86.000000,,,,0.000000,4.000000,4.000000,4.000000,0.000000,4.000000,66.666664,,,,,,,,,,,,,,,,,,,,,,,,,,,,,,,,,,,,,,,,,,,,,,,,,,,,,,,,,,,,,,,
1649886935.325268,16.000000,0.000000,4248.717773,4256.922852,4203.077148,4223.589844,4228.717773,0.000000,4.000000,86.000000,,,,0.000000,4.000000,4.000000,4.000000,0.000000,4.000000,66.666664,,,,,,,,,,,,,,,,,,,,,,,,,,,,,,,,,,,,,,,,,,,,,,,,,,,,,,,,,,,,,,,
1649886935.333082,17.000000,0.000000,4256.922852,4257.436035,4200.512695,4224.615234,4240.512695,0.000000,4.000000,86.000000,,,,0.000000,4.000000,4.000000,4.000000,0.000000,4.000000,66.666664,0.937500,66.666664,4.000000,4.000000,4.000000,0.000000,4.000000,,,,,,,,,,,,,,,,,,,,,,,,,,,,,,,,3.228462,1.711590,0.603069,0.994584,0.905488,0.767416,0.734801,1.008075,0.804870,0.724104,1.518830,1.433116,0.590656,1.330909,0.204678,0.088414,0.066487,0.022720,0.030775,0.032580,5.980319,1.461975,0.761508,0.803033,0.669438
1649886935.340896,18.000000,0.000000,4257.948730,4255.384766,4202.051270,4225.128418,4250.256348,0.000000,4.000000,86.000000,,,,0.000000,4.000000,4.000000,4.000000,0.000000,4.000000,66.666664,,,,,,,,,,,,,,,,,,,,,,,,,,,,,,,,,,,,,,,,,,,,,,,,,,,,,,,,,,,,,,,
1649886935.348811,19.000000,0.000000,4263.077148,4263.589844,4200.000000,4226.153809,4254.358887,0.000000,4.000000,86.000000,,,,0.000000,4.000000,4.000000,4.000000,0.000000,4.000000,66.666664,,,,,,,,,,,,,,,,,,,,,,,,,,,,,,,,,,,,,,,,,,,,,,,,,,,,,,,,,,,,,,,
1649886935.356725,20.000000,0.000000,4267.692383,4265.641113,4192.820313,4225.641113,4254.871582,0.000000,4.000000,86.000000,,,,0.000000,4.000000,4.000000,4.000000,0.000000,4.000000,66.666664,,,,,,,,,,,,,,,,,,,,,,,,,,,,,,,,,,,,,,,,,,,,,,,,,,,,,,,,,,,,,,,
1649886935.364539,21.000000,0.000000,4261.538574,4247.692383,4188.205078,4223.077148,4251.794922,0.000000,4.000000,86.000000,,,,0.000000,4.000000,4.000000,4.000000,0.000000,4.000000,66.666664,,,,,,,,,,,,,,,,,,,,,,,,,,,,,,,,,,,,,,,,,,,,,,,,,,,,,,,,,,,,,,,
1649886935.372354,22.000000,0.000000,4250.769043,4236.410156,4182.051270,4222.051270,4249.230957,0.000000,4.000000,86.000000,,,,0.000000,4.000000,4.000000,4.000000,0.000000,4.000000,66.666664,,,,,,,,,,,,,,,,,,,,,,,,,,,,,,,,,,,,,,,,,,,,,,,,,,,,,,,,,,,,,,,
1649886935.380168,23.000000,0.000000,4262.563965,4247.179688,4173.846191,4222.563965,4250.256348,0.000000,4.000000,86.000000,,,,0.000000,4.000000,4.000000,4.000000,0.000000,4.000000,66.666664,,,,,,,,,,,,,,,,,,,,,,,,,,,,,,,,,,,,,,,,,,,,,,,,,,,,,,,,,,,,,,,
1649886935.388083,24.000000,0.000000,4274.358887,4251.282227,4174.871582,4222.051270,4249.743652,0.000000,4.000000,86.000000,,,,0.000000,4.000000,4.000000,4.000000,0.000000,4.000000,66.666664,,,,,,,,,,,,,,,,,,,,,,,,,,,,,,,,,,,,,,,,,,,,,,,,,,,,,,,,,,,,,,,
1649886935.395897,25.000000,0.000000,4261.538574,4245.128418,4188.717773,4221.538574,4255.384766,0.000000,4.000000,86.000000,,,,0.000000,4.000000,4.000000,4.000000,0.000000,4.000000,66.666664,,,,,,,,,,,,,,,,,,,,,,,,,,,,,,,,,,,,,,,,,,,,,,,,,,,,,,,,,,,,,,,
1649886935.403811,26.000000,1.000000,4261.367676,4244.672363,4187.122559,4221.880371,4254.529785,0.000000,4.000000,86.000000,,,,0.000000,4.000000,4.000000,4.000000,0.000000,4.000000,66.666664,,,,,,,,,,,,,,,,,,,,,,,,,,,,,,,,,,,,,,,,,,,,,,,,,,,,,,,,,,,,,,,
1649886935.411626,27.000000,1.000000,4261.196777,4244.216309,4185.526855,4222.222168,4253.675293,0.000000,4.000000,86.000000,,,,0.000000,4.000000,4.000000,4.000000,0.000000,4.000000,66.666664,,,,,,,,,,,,,,,,,,,,,,,,,,,,,,,,,,,,,,,,,,,,,,,,,,,,,,,,,,,,,,,
1649886935.419440,28.000000,1.000000,4261.025879,4243.760742,4183.931641,4222.563965,4252.820313,0.000000,4.000000,86.000000,,,,0.000000,4.000000,4.000000,4.000000,0.000000,4.000000,66.666664,,,,,,,,,,,,,,,,,,,,,,,,,,,,,,,,,,,,,,,,,,,,,,,,,,,,,,,,,,,,,,,
1649886935.427254,29.000000,1.000000,4260.854492,4243.304688,4182.336426,4222.905762,4251.965820,0.000000,4.000000,86.000000,,,,0.000000,4.000000,4.000000,4.000000,0.000000,4.000000,66.666664,,,,,,,,,,,,,,,,,,,,,,,,,,,,,,,,,,,,,,,,,,,,,,,,,,,,,,,,,,,,,,,
1649886935.435069,30.000000,1.000000,4260.683594,4242.849121,4180.740723,4223.248047,4251.111328,0.000000,4.000000,86.000000,,,,0.000000,4.000000,4.000000,4.000000,0.000000,4.000000,66.666664,,,,,,,,,,,,,,,,,,,,,,,,,,,,,,,,,,,,,,,,,,,,,,,,,,,,,,,,,,,,,,,
1649886935.442883,31.000000,1.000000,4260.512695,4242.393066,4179.145508,4223.589844,4250.256348,0.000000,4.000000,86.000000,,,,0.000000,4.000000,4.000000,4.000000,0.000000,4.000000,66.666664,,,,,,,,,,,,,,,,,,,,,,,,,,,,,,,,,,,,,,,,,,,,,,,,,,,,,,,,,,,,,,,
1649886935.450698,32.000000,1.000000,4260.341797,4241.937500,4177.549805,4223.931641,4249.401855,0.000000,4.000000,86.000000,,,,0.000000,4.000000,4.000000,4.000000,0.000000,4.000000,66.666664,,,,,,,,,,,,,,,,,,,,,,,,,,,,,,,,,,,,,,,,,,,,,,,,,,,,,,,,,,,,,,,
1649886935.458512,33.000000,1.000000,4260.170898,4241.481445,4175.954590,4224.273438,4248.546875,0.000000,4.000000,86.000000,,,,0.000000,4.000000,4.000000,4.000000,0.000000,4.000000,66.666664,,,,,,,,,,,,,,,,,,,,,,,,,,,,,,,,,,,,,,,3.934925,1.476160,0.698281,0.791114,0.852769,0.845744,0.764584,0.928417,0.710671,0.678566,1.571161,1.476718,0.554878,1.214740,0.197130,0.083874,0.058024,0.023631,0.027100,0.031989,6.598459,1.237589,0.872223,0.734772,0.707315
1649886935.466327,34.000000,0.000000,4260.000000,4241.025879,4174.358887,4224.615234,4247.692383,0.000000,4.000000,86.000000,,,,0.000000,4.000000,4.000000,4.000000,0.000000,4.000000,66.666664,,,,,,,,,,,,,,,,,,,,,,,,,,,,,,,,,,,,,,,,,,,,,,,,,,,,,,,,,,,,,,,
1649886935.474041,35.000000,0.000000,4252.307617,4254.871582,4175.897461,4223.589844,4247.179688,0.000000,4.000000,86.000000,,,,0.000000,4.000000,4.000000,4.000000,0.000000,4.000000,66.666664,,,,,,,,,,,,,,,,,,,,,,,,,,,,,,,,,,,,,,,,,,,,,,,,,,,,,,,,,,,,,,,
1649886935.481756,36.000000,0.000000,4237.436035,4253.846191,4173.846191,4220.512695,4246.153809,0.000000,4.000000,86.000000,,,,0.000000,4.000000,4.000000,4.000000,0.000000,4.000000,66.666664,,,,,,,,,,,,,,,,,,,,,,,,,,,,,,,,,,,,,,,,,,,,,,,,,,,,,,,,,,,,,,,
1649886935.489570,37.000000,0.000000,4231.282227,4237.436035,4167.692383,4219.487305,4238.461426,0.000000,4.000000,86.000000,,,,0.000000,4.000000,4.000000,4.000000,0.000000,4.000000,66.666664,,,,,,,,,,,,,,,,,,,,,,,,,,,,,,,,,,,,,,,,,,,,,,,,,,,,,,,,,,,,,,,
1649886935.497384,38.000000,0.000000,4247.692383,4237.436035,4167.179688,4221.025879,4232.820313,0.000000,4.000000,86.000000,,,,0.000000,4.000000,4.000000,4.000000,0.000000,4.000000,66.666664,,,,,,,,,,,,,,,,,,,,,,,,,,,,,,,,,,,,,,,,,,,,,,,,,,,,,,,,,,,,,,,
1649886935.505199,39.000000,0.000000,4254.358887,4237.948730,4169.743652,4221.538574,4236.410156,0.000000,4.000000,86.000000,,,,0.000000,4.000000,4.000000,4.000000,0.000000,4.000000,66.666664,,,,,,,,,,,,,,,,,,,,,,,,,,,,,,,,,,,,,,,,,,,,,,,,,,,,,,,,,,,,,,,
1649886935.512913,40.000000,0.000000,4244.615234,4234.358887,4165.128418,4221.025879,4240.000000,0.000000,4.000000,86.000000,,,,0.000000,4.000000,4.000000,4.000000,0.000000,4.000000,66.666664,,,,,,,,,,,,,,,,,,,,,,,,,,,,,,,,,,,,,,,,,,,,,,,,,,,,,,,,,,,,,,,
1649886935.520728,41.000000,0.000000,4235.897461,4232.307617,4154.358887,4220.000000,4232.307617,0.000000,4.000000,86.000000,,,,0.000000,4.000000,4.000000,4.000000,0.000000,4.000000,66.666664,,,,,,,,,,,,,,,,,,,,,,,,,,,,,,,,,,,,,,,,,,,,,,,,,,,,,,,,,,,,,,,
1649886935.528442,42.000000,0.000000,4240.512695,4234.358887,4155.897461,4221.025879,4227.179688,0.000000,4.000000,86.000000,,,,0.000000,4.000000,4.000000,4.000000,0.000000,4.000000,66.666664,,,,,,,,,,,,,,,,,,,,,,,,,,,,,,,,,,,,,,,,,,,,,,,,,,,,,,,,,,,,,,,
1649886935.536157,43.000000,0.000000,4256.922852,4248.205078,4166.153809,4222.563965,4241.025879,0.000000,4.000000,86.000000,,,,0.000000,4.000000,4.000000,4.000000,0.000000,4.000000,66.666664,,,,,,,,,,,,,,,,,,,,,,,,,,,,,,,,,,,,,,,,,,,,,,,,,,,,,,,,,,,,,,,
1649886935.543971,44.000000,0.000000,4264.615234,4246.153809,4159.487305,4221.025879,4255.384766,0.000000,4.000000,86.000000,,,,0.000000,4.000000,4.000000,4.000000,0.000000,4.000000,66.666664,,,,,,,,,,,,,,,,,,,,,,,,,,,,,,,,,,,,,,,,,,,,,,,,,,,,,,,,,,,,,,,
1649886935.551786,45.000000,0.000000,4264.102539,4228.717773,4152.820313,4219.487305,4257.436035,0.000000,4.000000,86.000000,,,,0.000000,4.000000,4.000000,4.000000,0.000000,4.000000,66.666664,,,,,,,,,,,,,,,,,,,,,,,,,,,,,,,,,,,,,,,,,,,,,,,,,,,,,,,,,,,,,,,
1649886935.559500,46.000000,0.000000,4266.153809,4232.820313,4164.615234,4223.077148,4263.077148,0.000000,4.000000,86.000000,,,,0.000000,4.000000,4.000000,4.000000,0.000000,4.000000,66.666664,,,,,,,,,,,,,,,,,,,,,,,,,,,,,,,,,,,,,,,,,,,,,,,,,,,,,,,,,,,,,,,
1649886935.567314,47.000000,0.000000,4264.102539,4239.487305,4174.358887,4224.615234,4267.179688,0.000000,4.000000,86.000000,,,,0.000000,4.000000,4.000000,4.000000,0.000000,4.000000,66.666664,,,,,,,,,,,,,,,,,,,,,,,,,,,,,,,,,,,,,,,,,,,,,,,,,,,,,,,,,,,,,,,
1649886935.575029,48.000000,0.000000,4269.230957,4234.871582,4179.487305,4221.025879,4266.153809,0.000000,4.000000,86.000000,,,,0.000000,4.000000,4.000000,4.000000,0.000000,4.000000,66.666664,,,,,,,,,,,,,,,,,,,,,,,,,,,,,,,,,,,,,,,,,,,,,,,,,,,,,,,,,,,,,,,
1649886935.582743,49.000000,0.000000,4284.615234,4244.615234,4188.205078,4223.077148,4271.282227,0.000000,4.000000,86.000000,,,,0.000000,4.000000,4.000000,4.000000,0.000000,4.000000,66.666664,,,,,,,,,,,,,,,,,,,,,,,,,,,,,,,,,,,,,,,4.603400,1.352097,0.817166,0.661866,0.804898,0.993471,0.773248,0.828027,0.622691,0.629243,1.632627,1.583110,0.555952,1.022037,0.192357,0.088704,0.051911,0.025129,0.025692,0.033632,6.892762,1.098943,0.965380,0.710666,0.729497
1649886935.590558,50.000000,0.000000,4273.333496,4256.410156,4182.563965,4225.128418,4269.230957,0.000000,4.000000,86.000000,,,,0.000000,4.000000,4.000000,4.000000,0.000000,4.000000,66.666664,,,,,,,,,,,,,,,,,,,,,,,,,,,,,,,,,,,,,,,,,,,,,,,,,,,,,,,,,,,,,,,
1649886935.598272,51.000000,0.000000,4241.025879,4242.563965,4164.102539,4221.025879,4245.128418,0.000000,4.000000,86.000000,,,,0.000000,4.000000,4.000000,4.000000,0.000000,4.000000,66.666664,,,,,,,,,,,,,,,,,,,,,,,,,,,,,,,,,,,,,,,,,,,,,,,,,,,,,,,,,,,,,,,
1649886935.605987,52.000000,0.000000,4225.128418,4222.563965,4161.538574,4217.436035,4226.153809,0.000000,4.000000,86.000000,,,,0.000000,4.000000,4.000000,4.000000,0.000000,4.000000,66.666664,,,,,,,,,,,,,,,,,,,,,,,,,,,,,,,,,,,,,,,,,,,,,,,,,,,,,,,,,,,,,,,
1649886935.613801,53.000000,0.000000,4225.128418,4228.205078,4169.743652,4219.487305,4232.307617,0.000000,4.000000,86.000000,,,,0.000000,4.000000,4.000000,4.000000,0.000000,4.000000,66.666664,,,,,,,,,,,,,,,,,,,,,,,,,,,,,,,,,,,,,,,,,,,,,,,,,,,,,,,,,,,,,,,
1649886935.621516,54.000000,0.000000,4234.358887,4237.436035,4168.717773,4223.077148,4247.179688,0.000000,4.000000,86.000000,,,,0.000000,4.000000,4.000000,4.000000,0.000000,4.000000,66.666664,,,,,,,,,,,,,,,,,,,,,,,,,,,,,,,,,,,,,,,,,,,,,,,,,,,,,,,,,,,,,,,
1649886935.629330,55.000000,0.000000,4243.077148,4229.743652,4160.000000,4223.077148,4248.205078,0.000000,4.000000,86.000000,,,,0.000000,4.000000,4.000000,4.000000,0.000000,4.000000,66.666664,,,,,,,,,,,,,,,,,,,,,,,,,,,,,,,,,,,,,,,,,,,,,,,,,,,,,,,,,,,,,,,
1649886935.637045,56.000000,0.000000,4240.000000,4225.128418,4155.897461,4220.512695,4240.512695,0.000000,4.000000,86.000000,,,,0.000000,4.000000,4.000000,4.000000,0.000000,4.000000,66.666664,,,,,,,,,,,,,,,,,,,,,,,,,,,,,,,,,,,,,,,,,,,,,,,,,,,,,,,,,,,,,,,
1649886935.644859,57.000000,0.000000,4249.230957,4233.333496,4162.051270,4221.025879,4247.179688,0.000000,4.000000,86.000000,,,,0.000000,4.000000,4.000000,4.000000,0.000000,4.000000,66.666664,,,,,,,,,,,,,,,,,,,,,,,,,,,,,,,,,,,,,,,,,,,,,,,,,,,,,,,,,,,,,,,
1649886935.652574,58.000000,0.000000,4258.974121,4234.871582,4167.179688,4223.589844,4255.384766,0.000000,4.000000,86.000000,,,,0.000000,4.000000,4.000000,4.000000,0.000000,4.000000,66.666664,,,,,,,,,,,,,,,,,,,,,,,,,,,,,,,,,,,,,,,,,,,,,,,,,,,,,,,,,,,,,,,
1649886935.660388,59.000000,0.000000,4246.153809,4233.333496,4169.230957,4224.102539,4253.846191,0.000000,4.000000,86.000000,,,,0.000000,4.000000,4.000000,4.000000,0.000000,4.000000,66.666664,,,,,,,,,,,,,,,,,,,,,,,,,,,,,,,,,,,,,,,,,,,,,,,,,,,,,,,,,,,,,,,
1649886935.668103,60.000000,0.000000,4247.179688,4241.538574,4162.051270,4222.051270,4257.436035,0.000000,4.000000,86.000000,,,,0.000000,4.000000,4.000000,4.000000,0.000000,4.000000,66.666664,,,,,,,,,,,,,,,,,,,,,,,,,,,,,,,,,,,,,,,,,,,,,,,,,,,,,,,,,,,,,,,
1649886935.675817,61.000000,0.000000,4270.769043,4243.589844,4149.743652,4222.563965,4258.461426,0.000000,4.000000,86.000000,,,,0.000000,4.000000,4.000000,4.000000,0.000000,4.000000,66.666664,,,,,,,,,,,,,,,,,,,,,,,,,,,,,,,,,,,,,,,,,,,,,,,,,,,,,,,,,,,,,,,
1649886935.683532,62.000000,0.000000,4271.794922,4231.282227,4147.692383,4224.102539,4248.717773,0.000000,4.000000,86.000000,,,,0.000000,4.000000,4.000000,4.000000,0.000000,4.000000,66.666664,,,,,,,,,,,,,,,,,,,,,,,,,,,,,,,,,,,,,,,,,,,,,,,,,,,,,,,,,,,,,,,
1649886935.691346,63.000000,0.000000,4246.153809,4224.615234,4150.769043,4223.589844,4235.897461,0.000000,4.000000,86.000000,,,,0.000000,4.000000,4.000000,4.000000,0.000000,4.000000,66.666664,,,,,,,,,,,,,,,,,,,,,,,,,,,,,,,,,,,,,,,,,,,,,,,,,,,,,,,,,,,,,,,
1649886935.699160,64.000000,0.000000,4229.230957,4230.769043,4151.282227,4221.025879,4231.794922,450.000000,4.000000,86.000000,,,,0.000000,4.000000,4.000000,4.000000,0.000000,4.000000,66.666664,,,,,,,,,,,,,,,,,,,,,,,,,,,,,,,,,,,,,,,,,,,,,,,,,,,,,,,,,,,,,,,
1649886935.706875,65.000000,0.000000,4235.897461,4237.436035,4155.897461,4221.025879,4237.948730,450.000000,4.000000,86.000000,,,,0.000000,4.000000,4.000000,4.000000,0.000000,4.000000,66.666664,,,,,,,,,,,,,,,,,,,,,,,,,,,,,,,,,,,,,,,4.923099,1.341199,0.972222,0.649214,0.774232,1.145874,0.748704,0.751825,0.548676,0.575040,1.651293,1.736844,0.569030,0.810498,0.184782,0.094224,0.049276,0.026580,0.026428,0.035697,6.694901,1.066091,1.057071,0.726377,0.718229
1649886935.714689,66.000000,0.000000,4244.615234,4240.000000,4158.974121,4222.563965,4235.384766,16255.000000,4.000000,86.000000,,,,0.000000,4.000000,4.000000,4.000000,0.000000,4.000000,66.666664,,,,,,,,,,,,,,,,,,,,,,,,,,,,,,,,,,,,,,,,,,,,,,,,,,,,,,,,,,,,,,,
1649886935.722404,67.000000,0.000000,4225.128418,4242.051270,4152.820313,4222.051270,4214.871582,450.000000,4.000000,86.000000,,,,0.000000,4.000000,4.000000,4.000000,0.000000,4.000000,66.666664,,,,,,,,,,,,,,,,,,,,,,,,,,,,,,,,,,,,,,,,,,,,,,,,,,,,,,,,,,,,,,,
1649886935.730218,68.000000,0.000000,4207.179688,4242.051270,4147.692383,4220.000000,4205.641113,16197.000000,4.000000,86.000000,,,,0.000000,4.000000,4.000000,4.000000,0.000000,4.000000,66.666664,,,,,,,,,,,,,,,,,,,,,,,,,,,,,,,,,,,,,,,,,,,,,,,,,,,,,,,,,,,,,,,
1649886935.737933,69.000000,0.000000,4220.000000,4237.948730,4156.922852,4218.974121,4217.948730,450.000000,4.000000,86.000000,,,,0.000000,4.000000,4.000000,4.000000,0.000000,4.000000,66.666664,,,,,,,,,,,,,,,,,,,,,,,,,,,,,,,,,,,,,,,,,,,,,,,,,,,,,,,,,,,,,,,
1649886935.745647,70.000000,0.000000,4231.794922,4231.282227,4167.692383,4220.000000,4230.769043,16218.000000,4.000000,86.000000,,,,0.000000,4.000000,4.000000,4.000000,0.000000,4.000000,66.666664,,,,,,,,,,,,,,,,,,,,,,,,,,,,,,,,,,,,,,,,,,,,,,,,,,,,,,,,,,,,,,,
1649886935.753462,71.000000,0.000000,4233.846191,4222.051270,4162.051270,4221.025879,4237.948730,450.000000,4.000000,86.000000,,,,0.000000,4.000000,4.000000,4.000000,0.000000,4.000000,66.666664,,,,,,,,,,,,,,,,,,,,,,,,,,,,,,,,,,,,,,,,,,,,,,,,,,,,,,,,,,,,,,,
1649886935.761176,72.000000,0.000000,4239.487305,4228.205078,4156.922852,4220.512695,4240.000000,450.000000,4.000000,86.000000,,,,0.000000,4.000000,4.000000,4.000000,0.000000,4.000000,66.666664,,,,,,,,,,,,,,,,,,,,,,,,,,,,,,,,,,,,,,,,,,,,,,,,,,,,,,,,,,,,,,,
1649886935.768991,73.000000,0.000000,4244.615234,4246.666504,4166.153809,4222.051270,4244.615234,0.000000,4.000000,86.000000,,,,0.000000,4.000000,4.000000,4.000000,0.000000,4.000000,66.666664,,,,,,,,,,,,,,,,,,,,,,,,,,,,,,,,,,,,,,,,,,,,,,,,,,,,,,,,,,,,,,,
1649886935.776705,74.000000,0.000000,4244.615234,4244.615234,4163.589844,4222.563965,4248.205078,450.000000,4.000000,86.000000,,,,0.000000,4.000000,4.000000,4.000000,0.000000,4.000000,66.666664,,,,,,,,,,,,,,,,,,,,,,,,,,,,,,,,,,,,,,,,,,,,,,,,,,,,,,,,,,,,,,,
1649886935.784519,75.000000,0.000000,4238.461426,4220.512695,4154.871582,4220.512695,4245.128418,16199.000000,4.000000,86.000000,,,,0.000000,4.000000,4.000000,4.000000,0.000000,4.000000,66.666664,,,,,,,,,,,,,,,,,,,,,,,,,,,,,,,,,,,,,,,,,,,,,,,,,,,,,,,,,,,,,,,
1649886935.792234,76.000000,0.000000,4221.538574,4206.666504,4162.051270,4220.000000,4248.205078,450.000000,4.000000,86.000000,,,,0.000000,4.000000,4.000000,4.000000,0.000000,4.000000,66.666664,,,,,,,,,,,,,,,,,,,,,,,,,,,,,,,,,,,,,,,,,,,,,,,,,,,,,,,,,,,,,,,
1649886935.799949,77.000000,0.000000,4216.410156,4223.077148,4168.717773,4221.538574,4248.717773,450.000000,4.000000,86.000000,,,,0.000000,4.000000,4.000000,4.000000,0.000000,4.000000,66.666664,,,,,,,,,,,,,,,,,,,,,,,,,,,,,,,,,,,,,,,,,,,,,,,,,,,,,,,,,,,,,,,
1649886935.807763,78.000000,0.000000,4234.871582,4240.000000,4170.769043,4221.538574,4235.897461,450.000000,4.000000,86.000000,,,,0.000000,4.000000,4.000000,4.000000,0.000000,4.000000,66.666664,,,,,,,,,,,,,,,,,,,,,,,,,,,,,,,,,,,,,,,,,,,,,,,,,,,,,,,,,,,,,,,
1649886935.815477,79.000000,0.000000,4246.666504,4237.436035,4173.333496,4222.051270,4227.692383,16199.000000,4.000000,86.000000,,,,0.000000,4.000000,4.000000,4.000000,0.000000,4.000000,66.666664,,,,,,,,,,,,,,,,,,,,,,,,,,,,,,,,,,,,,,,,,,,,,,,,,,,,,,,,,,,,,,,
1649886935.823392,80.000000,0.000000,4238.974121,4242.051270,4165.641113,4223.589844,4230.769043,450.000000,4.000000,86.000000,,,,0.000000,4.000000,4.000000,4.000000,0.000000,4.000000,66.666664,,,,,,,,,,,,,,,,,,,,,,,,,,,,,,,,,,,,,,,,,,,,,,,,,,,,,,,,,,,,,,,
1649886935.831206,81.000000,0.000000,4224.615234,4258.461426,4162.051270,4223.077148,4232.820313,450.000000,4.000000,86.000000,,,,0.000000,4.000000,4.000000,4.000000,0.000000,4.000000,66.666664,0.906250,66.666664,4.000000,4.000000,4.000000,0.000000,4.000000,,,,,,,,,,,,,,,,,,,,,,,,,,,,,,,,4.794786,1.425808,1.157611,0.762477,0.758373,1.262478,0.687978,0.732875,0.486898,0.522556,1.616604,1.869064,0.577368,0.629207,0.172060,0.094442,0.049688,0.027264,0.028356,0.036215,5.996023,1.125554,1.160062,0.755959,0.664264
1649886935.839120,82.000000,0.000000,4219.487305,4250.256348,4168.717773,4222.563965,4231.282227,450.000000,4.000000,86.000000,,,,0.000000,4.000000,4.000000,4.000000,0.000000,4.000000,66.666664,,,,,,,,,,,,,,,,,,,,,,,,,,,,,,,,,,,,,,,,,,,,,,,,,,,,,,,,,,,,,,,
1649886935.846935,83.000000,0.000000,4242.563965,4234.358887,4162.051270,4223.077148,4241.538574,16199.000000,4.000000,86.000000,,,,0.000000,4.000000,4.000000,4.000000,0.000000,4.000000,66.666664,,,,,,,,,,,,,,,,,,,,,,,,,,,,,,,,,,,,,,,,,,,,,,,,,,,,,,,,,,,,,,,
1649886935.854849,84.000000,0.000000,4276.410156,4242.051270,4154.871582,4223.589844,4255.384766,450.000000,4.000000,86.000000,,,,0.000000,4.000000,4.000000,4.000000,0.000000,4.000000,66.666664,,,,,,,,,,,,,,,,,,,,,,,,,,,,,,,,,,,,,,,,,,,,,,,,,,,,,,,,,,,,,,,
1649886935.862763,85.000000,0.000000,4278.974121,4246.666504,4163.589844,4223.589844,4254.871582,450.000000,4.000000,86.000000,,,,0.000000,4.000000,4.000000,4.000000,0.000000,4.000000,66.666664,,,,,,,,,,,,,,,,,,,,,,,,,,,,,,,,,,,,,,,,,,,,,,,,,,,,,,,,,,,,,,,
1649886935.870578,86.000000,0.000000,4252.307617,4238.461426,4168.205078,4223.589844,4250.769043,450.000000,4.000000,86.000000,,,,0.000000,4.000000,4.000000,4.000000,0.000000,4.000000,66.666664,,,,,,,,,,,,,,,,,,,,,,,,,,,,,,,,,,,,,,,,,,,,,,,,,,,,,,,,,,,,,,,
1649886935.878392,87.000000,0.000000,4239.487305,4237.436035,4162.563965,4223.589844,4251.794922,16199.000000,4.000000,86.000000,,,,0.000000,4.000000,4.000000,4.000000,0.000000,4.000000,66.666664,,,,,,,,,,,,,,,,,,,,,,,,,,,,,,,,,,,,,,,,,,,,,,,,,,,,,,,,,,,,,,,
1649886935.886307,88.000000,0.000000,4249.230957,4241.538574,4158.461426,4222.051270,4247.179688,450.000000,4.000000,86.000000,,,,0.000000,4.000000,4.000000,4.000000,0.000000,4.000000,66.666664,,,,,,,,,,,,,,,,,,,,,,,,,,,,,,,,,,,,,,,,,,,,,,,,,,,,,,,,,,,,,,,
1649886935.894221,89.000000,0.000000,4255.384766,4239.487305,4159.487305,4222.563965,4241.025879,450.000000,4.000000,86.000000,,,,0.000000,4.000000,4.000000,4.000000,0.000000,4.000000,66.666664,,,,,,,,,,,,,,,,,,,,,,,,,,,,,,,,,,,,,,,,,,,,,,,,,,,,,,,,,,,,,,,
1649886935.902135,90.000000,0.000000,4244.615234,4241.025879,4164.102539,4224.102539,4240.000000,450.000000,4.000000,86.000000,,,,0.000000,4.000000,4.000000,4.000000,0.000000,4.000000,66.666664,,,,,,,,,,,,,,,,,,,,,,,,,,,,,,,,,,,,,,,,,,,,,,,,,,,,,,,,,,,,,,,
1649886935.910049,91.000000,0.000000,4231.794922,4246.666504,4176.410156,4223.589844,4234.871582,16199.000000,4.000000,86.000000,,,,0.000000,4.000000,4.000000,4.000000,0.000000,4.000000,66.666664,,,,,,,,,,,,,,,,,,,,,,,,,,,,,,,,,,,,,,,,,,,,,,,,,,,,,,,,,,,,,,,
1649886935.917864,92.000000,0.000000,4240.512695,4242.051270,4181.538574,4224.102539,4239.487305,450.000000,4.000000,86.000000,,,,0.000000,4.000000,4.000000,4.000000,0.000000,4.000000,66.666664,,,,,,,,,,,,,,,,,,,,,,,,,,,,,,,,,,,,,,,,,,,,,,,,,,,,,,,,,,,,,,,
1649886935.925778,93.000000,0.000000,4264.102539,4232.307617,4171.794922,4227.179688,4254.358887,450.000000,4.000000,86.000000,,,,0.000000,4.000000,4.000000,4.000000,0.000000,4.000000,66.666664,,,,,,,,,,,,,,,,,,,,,,,,,,,,,,,,,,,,,,,,,,,,,,,,,,,,,,,,,,,,,,,
1649886935.933593,94.000000,0.000000,4264.615234,4230.769043,4161.538574,4224.102539,4247.692383,450.000000,4.000000,86.000000,,,,0.000000,4.000000,4.000000,4.000000,0.000000,4.000000,66.666664,,,,,,,,,,,,,,,,,,,,,,,,,,,,,,,,,,,,,,,,,,,,,,,,,,,,,,,,,,,,,,,
1649886935.941507,95.000000,0.000000,4234.871582,4233.333496,4159.487305,4217.436035,4229.230957,16199.000000,4.000000,86.000000,,,,0.000000,4.000000,4.000000,4.000000,0.000000,4.000000,66.666664,,,,,,,,,,,,,,,,,,,,,,,,,,,,,,,,,,,,,,,,,,,,,,,,,,,,,,,,,,,,,,,
1649886935.949321,96.000000,0.000000,4227.179688,4230.769043,4170.769043,4218.461426,4230.769043,450.000000,4.000000,86.000000,,,,0.000000,4.000000,4.000000,4.000000,0.000000,4.000000,66.666664,,,,,,,,,,,,,,,,,,,,,,,,,,,,,,,,,,,,,,,,,,,,,,,,,,,,,,,,,,,,,,,
1649886935.957236,97.000000,0.000000,4254.871582,4233.846191,4176.410156,4223.589844,4245.128418,450.000000,4.000000,86.000000,,,,0.000000,4.000000,4.000000,4.000000,0.000000,4.000000,66.666664,,,,,,,,,,,,,,,,,,,,,,,,,,,,,,,,,,,,,,,4.317245,1.613492,1.340215,0.979218,0.744832,1.314528,0.604525,0.777663,0.439128,0.478881,1.567135,1.905942,0.586999,0.504075,0.156255,0.087039,0.051898,0.026753,0.030088,0.034310,4.995817,1.286555,1.258994,0.773608,0.574072
1649886935.965150,98.000000,1.000000,4251.338867,4233.903320,4174.985840,4222.507324,4241.937500,450.000000,4.000000,86.000000,,,,0.000000,4.000000,4.000000,4.000000,0.000000,4.000000,66.666664,,,,,,,,,,,,,,,,,,,,,,,,,,,,,,,,,,,,,,,,,,,,,,,,,,,,,,,,,,,,,,,
1649886935.972964,99.000000,1.000000,4247.806152,4233.959961,4173.561035,4221.424316,4238.746582,450.000000,4.000000,86.000000,,,,0.000000,4.000000,4.000000,4.000000,0.000000,4.000000,66.666664,,,,,,,,,,,,,,,,,,,,,,,,,,,,,,,,,,,,,,,,,,,,,,,,,,,,,,,,,,,,,,,
1649886935.980779,100.000000,1.000000,4244.273438,4234.017090,4172.136719,4220.341797,4235.555664,450.000000,4.000000,86.000000,,,,0.000000,4.000000,4.000000,4.000000,0.000000,4.000000,66.666664,,,,,,,,,,,,,,,,,,,,,,,,,,,,,,,,,,,,,,,,,,,,,,,,,,,,,,,,,,,,,,,
1649886935.988593,101.000000,1.000000,4240.740723,4234.074219,4170.712402,4219.259277,4232.364746,450.000000,4.000000,86.000000,,,,0.000000,4.000000,4.000000,4.000000,0.000000,4.000000,66.666664,,,,,,,,,,,,,,,,,,,,,,,,,,,,,,,,,,,,,,,,,,,,,,,,,,,,,,,,,,,,,,,
1649886935.996408,102.000000,1.000000,4237.208008,4234.130859,4169.287598,4218.176758,4229.173828,450.000000,4.000000,86.000000,,,,0.000000,4.000000,4.000000,4.000000,0.000000,4.000000,66.666664,,,,,,,,,,,,,,,,,,,,,,,,,,,,,,,,,,,,,,,,,,,,,,,,,,,,,,,,,,,,,,,
1649886936.004222,103.000000,1.000000,4233.675293,4234.187988,4167.863281,4217.094238,4225.982910,450.000000,4.000000,86.000000,,,,0.000000,4.000000,4.000000,4.000000,0.000000,4.000000,66.666664,,,,,,,,,,,,,,,,,,,,,,,,,,,,,,,,,,,,,,,,,,,,,,,,,,,,,,,,,,,,,,,
1649886936.012036,104.000000,1.000000,4230.142578,4234.245117,4166.438965,4216.011230,4222.791992,450.000000,4.000000,86.000000,,,,0.000000,4.000000,4.000000,4.000000,0.000000,4.000000,66.666664,,,,,,,,,,,,,,,,,,,,,,,,,,,,,,,,,,,,,,,,,,,,,,,,,,,,,,,,,,,,,,,
1649886936.019851,105.000000,1.000000,4226.609863,4234.301758,4165.014160,4214.928711,4219.601074,450.000000,4.000000,86.000000,,,,0.000000,4.000000,4.000000,4.000000,0.000000,4.000000,66.666664,,,,,,,,,,,,,,,,,,,,,,,,,,,,,,,,,,,,,,,,,,,,,,,,,,,,,,,,,,,,,,,
1649886936.027665,106.000000,0.000000,4223.077148,4234.358887,4163.589844,4213.846191,4216.410156,450.000000,4.000000,86.000000,,,,0.000000,4.000000,4.000000,4.000000,0.000000,4.000000,66.666664,,,,,,,,,,,,,,,,,,,,,,,,,,,,,,,,,,,,,,,,,,,,,,,,,,,,,,,,,,,,,,,
1649886936.035380,107.000000,0.000000,4260.000000,4250.769043,4173.333496,4220.512695,4250.256348,16199.000000,4.000000,86.000000,,,,0.000000,4.000000,4.000000,4.000000,0.000000,4.000000,66.666664,,,,,,,,,,,,,,,,,,,,,,,,,,,,,,,,,,,,,,,,,,,,,,,,,,,,,,,,,,,,,,,
1649886936.043194,108.000000,0.000000,4284.102539,4258.461426,4179.487305,4226.153809,4274.358887,450.000000,4.000000,86.000000,,,,0.000000,4.000000,4.000000,4.000000,0.000000,4.000000,66.666664,,,,,,,,,,,,,,,,,,,,,,,,,,,,,,,,,,,,,,,,,,,,,,,,,,,,,,,,,,,,,,,
1649886936.050909,109.000000,0.000000,4264.102539,4245.641113,4174.358887,4223.589844,4258.974121,450.000000,4.000000,86.000000,,,,0.000000,4.000000,4.000000,4.000000,0.000000,4.000000,66.666664,,,,,,,,,,,,,,,,,,,,,,,,,,,,,,,,,,,,,,,,,,,,,,,,,,,,,,,,,,,,,,,
1649886936.058723,110.000000,0.000000,4266.666504,4227.179688,4171.282227,4223.077148,4256.410156,450.000000,4.000000,86.000000,,,,0.000000,4.000000,4.000000,4.000000,0.000000,4.000000,66.666664,,,,,,,,,,,,,,,,,,,,,,,,,,,,,,,,,,,,,,,,,,,,,,,,,,,,,,,,,,,,,,,
1649886936.066438,111.000000,0.000000,4276.922852,4228.205078,4163.077148,4224.615234,4264.615234,16199.000000,4.000000,86.000000,,,,0.000000,4.000000,4.000000,4.000000,0.000000,4.000000,66.666664,,,,,,,,,,,,,,,,,,,,,,,,,,,,,,,,,,,,,,,,,,,,,,,,,,,,,,,,,,,,,,,
1649886936.074252,112.000000,0.000000,4253.333496,4243.589844,4156.922852,4221.025879,4251.282227,450.000000,4.000000,86.000000,,,,0.000000,4.000000,4.000000,4.000000,0.000000,4.000000,66.666664,,,,,,,,,,,,,,,,,,,,,,,,,,,,,,,,,,,,,,,,,,,,,,,,,,,,,,,,,,,,,,,
1649886936.081966,113.000000,0.000000,4241.025879,4235.897461,4163.589844,4220.512695,4234.871582,450.000000,4.000000,86.000000,,,,0.000000,4.000000,4.000000,4.000000,0.000000,4.000000,66.666664,,,,,,,,,,,,,,,,,,,,,,,,,,,,,,,,,,,,,,,3.716072,1.957085,1.468680,1.247812,0.726532,1.293027,0.525832,0.863297,0.418941,0.448590,1.539355,1.809525,0.611132,0.434596,0.142776,0.073831,0.054489,0.024958,0.030351,0.030482,3.966560,1.616187,1.319373,0.762515,0.467302
1649886936.089781,114.000000,0.000000,4244.102539,4217.436035,4165.128418,4222.051270,4223.077148,450.000000,4.000000,86.000000,,,,0.000000,4.000000,4.000000,4.000000,0.000000,4.000000,66.666664,,,,,,,,,,,,,,,,,,,,,,,,,,,,,,,,,,,,,,,,,,,,,,,,,,,,,,,,,,,,,,,
1649886936.097495,115.000000,0.000000,4228.205078,4221.025879,4157.436035,4220.000000,4212.820313,16199.000000,4.000000,86.000000,,,,0.000000,4.000000,4.000000,4.000000,0.000000,4.000000,66.666664,,,,,,,,,,,,,,,,,,,,,,,,,,,,,,,,,,,,,,,,,,,,,,,,,,,,,,,,,,,,,,,
1649886936.105210,116.000000,0.000000,4225.128418,4224.615234,4160.000000,4218.461426,4218.461426,450.000000,4.000000,86.000000,,,,0.000000,4.000000,4.000000,4.000000,0.000000,4.000000,66.666664,,,,,,,,,,,,,,,,,,,,,,,,,,,,,,,,,,,,,,,,,,,,,,,,,,,,,,,,,,,,,,,
1649886936.113024,117.000000,0.000000,4248.205078,4218.461426,4174.358887,4221.025879,4240.000000,450.000000,4.000000,86.000000,,,,0.000000,4.000000,4.000000,4.000000,0.000000,4.000000,66.666664,,,,,,,,,,,,,,,,,,,,,,,,,,,,,,,,,,,,,,,,,,,,,,,,,,,,,,,,,,,,,,,
1649886936.120739,118.000000,0.000000,4258.461426,4225.128418,4186.153809,4224.102539,4251.794922,450.000000,4.000000,86.000000,,,,0.000000,4.000000,4.000000,4.000000,0.000000,4.000000,66.666664,,,,,,,,,,,,,,,,,,,,,,,,,,,,,,,,,,,,,,,,,,,,,,,,,,,,,,,,,,,,,,,
1649886936.128553,119.000000,0.000000,4260.000000,4233.333496,4179.487305,4222.563965,4248.717773,16199.000000,4.000000,86.000000,,,,0.000000,4.000000,4.000000,4.000000,0.000000,4.000000,66.666664,,,,,,,,,,,,,,,,,,,,,,,,,,,,,,,,,,,,,,,,,,,,,,,,,,,,,,,,,,,,,,,
1649886936.136368,120.000000,0.000000,4269.743652,4230.256348,4164.615234,4221.025879,4250.256348,450.000000,4.000000,86.000000,,,,0.000000,4.000000,4.000000,4.000000,0.000000,4.000000,66.666664,,,,,,,,,,,,,,,,,,,,,,,,,,,,,,,,,,,,,,,,,,,,,,,,,,,,,,,,,,,,,,,
1649886936.144082,121.000000,0.000000,4267.179688,4231.794922,4166.666504,4222.051270,4252.307617,450.000000,4.000000,86.000000,,,,0.000000,4.000000,4.000000,4.000000,0.000000,4.000000,66.666664,,,,,,,,,,,,,,,,,,,,,,,,,,,,,,,,,,,,,,,,,,,,,,,,,,,,,,,,,,,,,,,
1649886936.151797,122.000000,0.000000,4251.282227,4235.384766,4173.846191,4222.563965,4246.153809,450.000000,4.000000,86.000000,,,,0.000000,4.000000,4.000000,4.000000,0.000000,4.000000,66.666664,,,,,,,,,,,,,,,,,,,,,,,,,,,,,,,,,,,,,,,,,,,,,,,,,,,,,,,,,,,,,,,
1649886936.159611,123.000000,0.000000,4245.641113,4227.692383,4167.692383,4222.563965,4240.000000,16199.000000,4.000000,86.000000,,,,0.000000,4.000000,4.000000,4.000000,0.000000,4.000000,66.666664,,,,,,,,,,,,,,,,,,,,,,,,,,,,,,,,,,,,,,,,,,,,,,,,,,,,,,,,,,,,,,,
1649886936.167326,124.000000,0.000000,4248.205078,4216.922852,4162.563965,4221.538574,4237.948730,450.000000,4.000000,86.000000,,,,0.000000,4.000000,4.000000,4.000000,0.000000,4.000000,66.666664,,,,,,,,,,,,,,,,,,,,,,,,,,,,,,,,,,,,,,,,,,,,,,,,,,,,,,,,,,,,,,,
1649886936.175140,125.000000,0.000000,4248.205078,4223.589844,4169.230957,4220.000000,4236.922852,450.000000,4.000000,86.000000,,,,0.000000,4.000000,4.000000,4.000000,0.000000,4.000000,66.666664,,,,,,,,,,,,,,,,,,,,,,,,,,,,,,,,,,,,,,,,,,,,,,,,,,,,,,,,,,,,,,,
1649886936.182854,126.000000,0.000000,4262.563965,4244.615234,4182.563965,4223.589844,4246.666504,450.000000,4.000000,86.000000,,,,0.000000,4.000000,4.000000,4.000000,0.000000,4.000000,66.666664,,,,,,,,,,,,,,,,,,,,,,,,,,,,,,,,,,,,,,,,,,,,,,,,,,,,,,,,,,,,,,,
1649886936.190569,127.000000,0.000000,4268.717773,4250.256348,4191.282227,4227.692383,4254.358887,241.000000,4.000000,86.000000,,,,0.000000,4.000000,4.000000,4.000000,0.000000,4.000000,66.666664,,,,,,,,,,,,,,,,,,,,,,,,,,,,,,,,,,,,,,,,,,,,,,,,,,,,,,,,,,,,,,,
1649886936.198383,0.000000,0.000000,4241.538574,4232.820313,4188.717773,4225.128418,4234.871582,450.000000,4.000000,86.000000,,,,0.000000,4.000000,4.000000,4.000000,0.000000,4.000000,66.666664,,,,,,,,,,,,,,,,,,,,,,,,,,,,,,,,,,,,,,,,,,,,,,,,,,,,,,,,,,,,,,,
1649886936.206098,1.000000,0.000000,4225.128418,4223.077148,4176.922852,4220.512695,4217.436035,450.000000,4.000000,86.000000,,,,0.000000,4.000000,4.000000,4.000000,0.000000,4.000000,66.666664,,,,,,,,,,,,,,,,,,,,,,,,,,,,,,,,,,,,,,,3.231858,2.516593,1.485057,1.503466,0.713949,1.212688,0.474298,0.955140,0.444405,0.432801,1.533286,1.590487,0.653478,0.405788,0.137286,0.059675,0.057138,0.022288,0.028792,0.026063,3.164780,2.174695,1.298475,0.723814,0.368111
1649886936.213912,2.000000,0.000000,4245.128418,4232.307617,4166.153809,4220.512695,4229.743652,16240.000000,4.000000,86.000000,,,,0.000000,4.000000,4.000000,4.000000,0.000000,4.000000,66.666664,,,,,,,,,,,,,,,,,,,,,,,,,,,,,,,,,,,,,,,,,,,,,,,,,,,,,,,,,,,,,,,
1649886936.221627,3.000000,0.000000,4249.743652,4232.307617,4164.102539,4222.563965,4241.538574,450.000000,4.000000,86.000000,,,,0.000000,4.000000,4.000000,4.000000,0.000000,4.000000,66.666664,,,,,,,,,,,,,,,,,,,,,,,,,,,,,,,,,,,,,,,,,,,,,,,,,,,,,,,,,,,,,,,
1649886936.229441,4.000000,0.000000,4232.820313,4217.948730,4167.692383,4222.563965,4230.769043,16227.000000,4.000000,86.000000,,,,0.000000,4.000000,4.000000,4.000000,0.000000,4.000000,66.666664,,,,,,,,,,,,,,,,,,,,,,,,,,,,,,,,,,,,,,,,,,,,,,,,,,,,,,,,,,,,,,,
1649886936.237256,5.000000,0.000000,4233.333496,4225.641113,4170.256348,4218.974121,4223.077148,450.000000,4.000000,86.000000,,,,0.000000,4.000000,4.000000,4.000000,0.000000,4.000000,66.666664,,,,,,,,,,,,,,,,,,,,,,,,,,,,,,,,,,,,,,,,,,,,,,,,,,,,,,,,,,,,,,,
1649886936.244970,6.000000,0.000000,4244.615234,4253.846191,4177.436035,4220.512695,4233.333496,16185.000000,4.000000,86.000000,,,,0.000000,4.000000,4.000000,4.000000,0.000000,4.000000,66.666664,,,,,,,,,,,,,,,,,,,,,,,,,,,,,,,,,,,,,,,,,,,,,,,,,,,,,,,,,,,,,,,
1649886936.252685,7.000000,0.000000,4245.641113,4250.256348,4174.358887,4223.077148,4234.358887,450.000000,4.000000,86.000000,,,,0.000000,4.000000,4.000000,4.000000,0.000000,4.000000,66.666664,,,,,,,,,,,,,,,,,,,,,,,,,,,,,,,,,,,,,,,,,,,,,,,,,,,,,,,,,,,,,,,
1649886936.260499,8.000000,0.000000,4236.410156,4220.000000,4154.871582,4214.871582,4222.051270,450.000000,4.000000,86.000000,,,,0.000000,4.000000,4.000000,4.000000,0.000000,4.000000,66.666664,,,,,,,,,,,,,,,,,,,,,,,,,,,,,,,,,,,,,,,,,,,,,,,,,,,,,,,,,,,,,,,
1649886936.268313,9.000000,0.000000,4227.179688,4220.512695,4151.794922,4213.846191,4215.384766,4.000000,4.000000,86.000000,,,,0.000000,4.000000,4.000000,4.000000,0.000000,4.000000,66.666664,,,,,,,,,,,,,,,,,,,,,,,,,,,,,,,,,,,,,,,,,,,,,,,,,,,,,,,,,,,,,,,
1649886936.276028,10.000000,0.000000,4225.128418,4240.000000,4170.256348,4220.512695,4210.769043,450.000000,4.000000,86.000000,,,,0.000000,4.000000,4.000000,4.000000,0.000000,4.000000,66.666664,,,,,,,,,,,,,,,,,,,,,,,,,,,,,,,,,,,,,,,,,,,,,,,,,,,,,,,,,,,,,,,
1649886936.283742,11.000000,0.000000,4234.871582,4225.128418,4178.461426,4220.512695,4213.333496,16185.000000,4.000000,86.000000,,,,0.000000,4.000000,4.000000,4.000000,0.000000,4.000000,66.666664,,,,,,,,,,,,,,,,,,,,,,,,,,,,,,,,,,,,,,,,,,,,,,,,,,,,,,,,,,,,,,,
1649886936.291557,12.000000,0.000000,4244.102539,4204.615234,4174.871582,4217.948730,4228.717773,450.000000,4.000000,86.000000,,,,0.000000,4.000000,4.000000,4.000000,0.000000,4.000000,66.666664,,,,,,,,,,,,,,,,,,,,,,,,,,,,,,,,,,,,,,,,,,,,,,,,,,,,,,,,,,,,,,,
1649886936.299271,13.000000,0.000000,4233.333496,4224.615234,4172.820313,4218.461426,4230.256348,450.000000,4.000000,86.000000,,,,0.000000,4.000000,4.000000,4.000000,0.000000,4.000000,66.666664,,,,,,,,,,,,,,,,,,,,,,,,,,,,,,,,,,,,,,,,,,,,,,,,,,,,,,,,,,,,,,,
1649886936.307086,14.000000,0.000000,4221.025879,4244.615234,4168.717773,4222.563965,4210.256348,450.000000,4.000000,86.000000,,,,0.000000,4.000000,4.000000,4.000000,0.000000,4.000000,66.666664,,,,,,,,,,,,,,,,,,,,,,,,,,,,,,,,,,,,,,,,,,,,,,,,,,,,,,,,,,,,,,,
1649886936.314800,15.000000,0.000000,4228.205078,4231.794922,4161.025879,4218.974121,4204.615234,16185.000000,4.000000,86.000000,,,,0.000000,4.000000,4.000000,4.000000,0.000000,4.000000,66.666664,,,,,,,,,,,,,,,,,,,,,,,,,,,,,,,,,,,,,,,,,,,,,,,,,,,,,,,,,,,,,,,
1649886936.322515,16.000000,0.000000,4242.051270,4224.102539,4156.922852,4212.307617,4215.897461,0.000000,4.000000,86.000000,,,,0.000000,4.000000,4.000000,4.000000,0.000000,4.000000,66.666664,,,,,,,,,,,,,,,,,,,,,,,,,,,,,,,,,,,,,,,,,,,,,,,,,,,,,,,,,,,,,,,
1649886936.330329,17.000000,0.000000,4240.512695,4232.307617,4160.000000,4215.384766,4214.358887,0.000000,4.000000,86.000000,,,,0.000000,4.000000,4.000000,4.000000,0.000000,4.000000,66.666664,0.875000,66.666664,4.000000,4.000000,4.000000,0.000000,4.000000,,,,,,,,,,,,,,,,,,,,,,,,,,,,,,,,2.983648,3.287206,1.380626,1.684369,0.731960,1.112862,0.458518,1.013694,0.518982,0.429374,1.539013,1.300360,0.705065,0.400188,0.142009,0.049994,0.059380,0.021074,0.026164,0.022541,2.705726,2.960160,1.208818,0.673620,0.299188
1649886936.338144,18.000000,0.000000,4216.410156,4224.615234,4162.051270,4218.461426,4196.410156,0.000000,4.000000,86.000000,,,,0.000000,4.000000,4.000000,4.000000,0.000000,4.000000,66.666664,,,,,,,,,,,,,,,,,,,,,,,,,,,,,,,,,,,,,,,,,,,,,,,,,,,,,,,,,,,,,,,
1649886936.345858,19.000000,0.000000,4201.025879,4218.461426,4158.461426,4213.846191,4184.615234,0.000000,4.000000,86.000000,,,,0.000000,4.000000,4.000000,4.000000,0.000000,4.000000,66.666664,,,,,,,,,,,,,,,,,,,,,,,,,,,,,,,,,,,,,,,,,,,,,,,,,,,,,,,,,,,,,,,
1649886936.353772,20.000000,0.000000,4228.205078,4235.384766,4161.025879,4214.871582,4200.000000,0.000000,4.000000,86.000000,,,,0.000000,4.000000,4.000000,4.000000,0.000000,4.000000,66.666664,,,,,,,,,,,,,,,,,,,,,,,,,,,,,,,,,,,,,,,,,,,,,,,,,,,,,,,,,,,,,,,
1649886936.361587,21.000000,0.000000,4255.384766,4243.077148,4168.717773,4220.512695,4225.128418,0.000000,4.000000,86.000000,,,,0.000000,4.000000,4.000000,4.000000,0.000000,4.000000,66.666664,,,,,,,,,,,,,,,,,,,,,,,,,,,,,,,,,,,,,,,,,,,,,,,,,,,,,,,,,,,,,,,
1649886936.369401,22.000000,0.000000,4251.282227,4237.948730,4172.307617,4219.487305,4236.410156,0.000000,4.000000,86.000000,,,,0.000000,4.000000,4.000000,4.000000,0.000000,4.000000,66.666664,,,,,,,,,,,,,,,,,,,,,,,,,,,,,,,,,,,,,,,,,,,,,,,,,,,,,,,,,,,,,,,
1649886936.377116,23.000000,0.000000,4251.282227,4246.153809,4172.307617,4221.025879,4236.922852,0.000000,4.000000,86.000000,,,,0.000000,4.000000,4.000000,4.000000,0.000000,4.000000,66.666664,,,,,,,,,,,,,,,,,,,,,,,,,,,,,,,,,,,,,,,,,,,,,,,,,,,,,,,,,,,,,,,
1649886936.384930,24.000000,0.000000,4253.846191,4247.179688,4167.179688,4222.563965,4230.256348,0.000000,4.000000,86.000000,,,,0.000000,4.000000,4.000000,4.000000,0.000000,4.000000,66.666664,,,,,,,,,,,,,,,,,,,,,,,,,,,,,,,,,,,,,,,,,,,,,,,,,,,,,,,,,,,,,,,
1649886936.392645,25.000000,0.000000,4244.102539,4230.256348,4161.025879,4220.512695,4224.102539,0.000000,4.000000,86.000000,,,,0.000000,4.000000,4.000000,4.000000,0.000000,4.000000,66.666664,,,,,,,,,,,,,,,,,,,,,,,,,,,,,,,,,,,,,,,,,,,,,,,,,,,,,,,,,,,,,,,
1649886936.400459,26.000000,0.000000,4243.589844,4224.102539,4161.538574,4222.563965,4228.205078,0.000000,4.000000,86.000000,,,,0.000000,4.000000,4.000000,4.000000,0.000000,4.000000,66.666664,,,,,,,,,,,,,,,,,,,,,,,,,,,,,,,,,,,,,,,,,,,,,,,,,,,,,,,,,,,,,,,
1649886936.408174,27.000000,0.000000,4251.282227,4225.128418,4161.025879,4221.538574,4236.410156,0.000000,4.000000,86.000000,,,,0.000000,4.000000,4.000000,4.000000,0.000000,4.000000,66.666664,,,,,,,,,,,,,,,,,,,,,,,,,,,,,,,,,,,,,,,,,,,,,,,,,,,,,,,,,,,,,,,
1649886936.415988,28.000000,0.000000,4248.717773,4220.000000,4157.948730,4220.512695,4240.000000,0.000000,4.000000,86.000000,,,,0.000000,4.000000,4.000000,4.000000,0.000000,4.000000,66.666664,,,,,,,,,,,,,,,,,,,,,,,,,,,,,,,,,,,,,,,,,,,,,,,,,,,,,,,,,,,,,,,
1649886936.423703,29.000000,0.000000,4241.025879,4227.692383,4163.077148,4222.563965,4232.820313,0.000000,4.000000,86.000000,,,,0.000000,4.000000,4.000000,4.000000,0.000000,4.000000,66.666664,,,,,,,,,,,,,,,,,,,,,,,,,,,,,,,,,,,,,,,,,,,,,,,,,,,,,,,,,,,,,,,
1649886936.431517,30.000000,0.000000,4230.256348,4237.948730,4166.153809,4221.538574,4221.538574,0.000000,4.000000,86.000000,,,,0.000000,4.000000,4.000000,4.000000,0.000000,4.000000,66.666664,,,,,,,,,,,,,,,,,,,,,,,,,,,,,,,,,,,,,,,,,,,,,,,,,,,,,,,,,,,,,,,
1649886936.439231,31.000000,0.000000,4236.922852,4236.922852,4164.615234,4218.974121,4230.256348,0.000000,4.000000,86.000000,,,,0.000000,4.000000,4.000000,4.000000,0.000000,4.000000,66.666664,,,,,,,,,,,,,,,,,,,,,,,,,,,,,,,,,,,,,,,,,,,,,,,,,,,,,,,,,,,,,,,
1649886936.447046,32.000000,0.000000,4263.077148,4243.077148,4171.794922,4220.512695,4254.358887,0.000000,4.000000,86.000000,,,,0.000000,4.000000,4.000000,4.000000,0.000000,4.000000,66.666664,,,,,,,,,,,,,,,,,,,,,,,,,,,,,,,,,,,,,,,,,,,,,,,,,,,,,,,,,,,,,,,
1649886936.454760,33.000000,0.000000,4265.641113,4245.128418,4172.820313,4224.615234,4257.436035,0.000000,4.000000,86.000000,,,,0.000000,4.000000,4.000000,4.000000,0.000000,4.000000,66.666664,,,,,,,,,,,,,,,,,,,,,,,,,,,,,,,,,,,,,,,2.935272,4.167960,1.238316,1.755999,0.800398,1.027566,0.471254,1.010413,0.623465,0.436455,1.521523,1.003666,0.759866,0.413836,0.155802,0.048786,0.060951,0.024381,0.023565,0.021022,2.528528,3.875731,1.130967,0.627459,0.274406
1649886936.462575,34.000000,0.000000,4248.205078,4234.871582,4155.897461,4223.077148,4234.871582,0.000000,4.000000,86.000000,,,,0.000000,4.000000,4.000000,4.000000,0.000000,4.000000,66.666664,,,,,,,,,,,,,,,,,,,,,,,,,,,,,,,,,,,,,,,,,,,,,,,,,,,,,,,,,,,,,,,
1649886936.470289,35.000000,0.000000,4243.077148,4234.358887,4149.230957,4218.974121,4222.051270,0.000000,4.000000,86.000000,,,,0.000000,4.000000,4.000000,4.000000,0.000000,4.000000,66.666664,,,,,,,,,,,,,,,,,,,,,,,,,,,,,,,,,,,,,,,,,,,,,,,,,,,,,,,,,,,,,,,
1649886936.478104,36.000000,0.000000,4254.358887,4242.051270,4165.128418,4221.538574,4235.384766,0.000000,4.000000,86.000000,,,,0.000000,4.000000,4.000000,4.000000,0.000000,4.000000,66.666664,,,,,,,,,,,,,,,,,,,,,,,,,,,,,,,,,,,,,,,,,,,,,,,,,,,,,,,,,,,,,,,
1649886936.485818,37.000000,0.000000,4262.563965,4243.589844,4170.769043,4224.615234,4242.051270,0.000000,4.000000,86.000000,,,,0.000000,4.000000,4.000000,4.000000,0.000000,4.000000,66.666664,,,,,,,,,,,,,,,,,,,,,,,,,,,,,,,,,,,,,,,,,,,,,,,,,,,,,,,,,,,,,,,
1649886936.493533,38.000000,0.000000,4255.897461,4241.025879,4160.000000,4222.563965,4230.769043,0.000000,4.000000,86.000000,,,,0.000000,4.000000,4.000000,4.000000,0.000000,4.000000,66.666664,,,,,,,,,,,,,,,,,,,,,,,,,,,,,,,,,,,,,,,,,,,,,,,,,,,,,,,,,,,,,,,
1649886936.501347,39.000000,0.000000,4250.769043,4230.256348,4157.436035,4223.077148,4230.256348,0.000000,4.000000,86.000000,,,,0.000000,4.000000,4.000000,4.000000,0.000000,4.000000,66.666664,,,,,,,,,,,,,,,,,,,,,,,,,,,,,,,,,,,,,,,,,,,,,,,,,,,,,,,,,,,,,,,
1649886936.509162,40.000000,0.000000,4253.846191,4220.000000,4156.922852,4224.102539,4234.871582,0.000000,4.000000,86.000000,,,,0.000000,4.000000,4.000000,4.000000,0.000000,4.000000,66.666664,,,,,,,,,,,,,,,,,,,,,,,,,,,,,,,,,,,,,,,,,,,,,,,,,,,,,,,,,,,,,,,
1649886936.516876,41.000000,0.000000,4248.717773,4229.230957,4147.692383,4220.000000,4222.563965,0.000000,4.000000,86.000000,,,,0.000000,4.000000,4.000000,4.000000,0.000000,4.000000,66.666664,,,,,,,,,,,,,,,,,,,,,,,,,,,,,,,,,,,,,,,,,,,,,,,,,,,,,,,,,,,,,,,
1649886936.524790,42.000000,0.000000,4234.871582,4236.410156,4146.666504,4218.974121,4217.948730,0.000000,4.000000,86.000000,,,,0.000000,4.000000,4.000000,4.000000,0.000000,4.000000,66.666664,,,,,,,,,,,,,,,,,,,,,,,,,,,,,,,,,,,,,,,,,,,,,,,,,,,,,,,,,,,,,,,
1649886936.532605,43.000000,0.000000,4232.820313,4234.358887,4161.538574,4222.051270,4229.230957,0.000000,4.000000,86.000000,,,,0.000000,4.000000,4.000000,4.000000,0.000000,4.000000,66.666664,,,,,,,,,,,,,,,,,,,,,,,,,,,,,,,,,,,,,,,,,,,,,,,,,,,,,,,,,,,,,,,
1649886936.540419,44.000000,0.000000,4237.436035,4240.000000,4169.230957,4221.025879,4228.205078,0.000000,4.000000,86.000000,,,,0.000000,4.000000,4.000000,4.000000,0.000000,4.000000,66.666664,,,,,,,,,,,,,,,,,,,,,,,,,,,,,,,,,,,,,,,,,,,,,,,,,,,,,,,,,,,,,,,
1649886936.548234,45.000000,0.000000,4242.563965,4232.820313,4155.897461,4220.000000,4220.512695,0.000000,4.000000,86.000000,,,,0.000000,4.000000,4.000000,4.000000,0.000000,4.000000,66.666664,,,,,,,,,,,,,,,,,,,,,,,,,,,,,,,,,,,,,,,,,,,,,,,,,,,,,,,,,,,,,,,
1649886936.556148,46.000000,0.000000,4252.820313,4212.307617,4144.615234,4220.512695,4226.666504,0.000000,4.000000,86.000000,,,,0.000000,4.000000,4.000000,4.000000,0.000000,4.000000,66.666664,,,,,,,,,,,,,,,,,,,,,,,,,,,,,,,,,,,,,,,,,,,,,,,,,,,,,,,,,,,,,,,
1649886936.563962,47.000000,0.000000,4241.025879,4222.563965,4153.846191,4220.000000,4231.282227,0.000000,4.000000,86.000000,,,,0.000000,4.000000,4.000000,4.000000,0.000000,4.000000,66.666664,,,,,,,,,,,,,,,,,,,,,,,,,,,,,,,,,,,,,,,,,,,,,,,,,,,,,,,,,,,,,,,
1649886936.571877,48.000000,0.000000,4226.666504,4244.102539,4167.692383,4221.025879,4225.641113,0.000000,4.000000,86.000000,,,,0.000000,4.000000,4.000000,4.000000,0.000000,4.000000,66.666664,,,,,,,,,,,,,,,,,,,,,,,,,,,,,,,,,,,,,,,,,,,,,,,,,,,,,,,,,,,,,,,
1649886936.579691,49.000000,0.000000,4235.897461,4229.230957,4165.128418,4221.025879,4215.897461,0.000000,4.000000,86.000000,,,,0.000000,4.000000,4.000000,4.000000,0.000000,4.000000,66.666664,,,,,,,,,,,,,,,,,,,,,,,,,,,,,,,,,,,,,,,2.916718,4.979205,1.191265,1.724274,0.917187,0.996588,0.497800,0.946051,0.728171,0.458500,1.437152,0.747866,0.821599,0.449006,0.174444,0.055789,0.062241,0.034290,0.022013,0.022042,2.461284,4.760550,1.179264,0.594903,0.296072
1649886936.587605,50.000000,0.000000,4238.461426,4221.538574,4156.410156,4221.025879,4209.230957,0.000000,4.000000,86.000000,,,,0.000000,4.000000,4.000000,4.000000,0.000000,4.000000,66.666664,,,,,,,,,,,,,,,,,,,,,,,,,,,,,,,,,,,,,,,,,,,,,,,,,,,,,,,,,,,,,,,
1649886936.595520,51.000000,0.000000,4224.615234,4241.538574,4157.436035,4222.051270,4216.922852,0.000000,4.000000,86.000000,,,,0.000000,4.000000,4.000000,4.000000,0.000000,4.000000,66.666664,,,,,,,,,,,,,,,,,,,,,,,,,,,,,,,,,,,,,,,,,,,,,,,,,,,,,,,,,,,,,,,
1649886936.603334,52.000000,0.000000,4228.717773,4242.051270,4163.077148,4221.538574,4228.717773,0.000000,4.000000,86.000000,,,,0.000000,4.000000,4.000000,4.000000,0.000000,4.000000,66.666664,,,,,,,,,,,,,,,,,,,,,,,,,,,,,,,,,,,,,,,,,,,,,,,,,,,,,,,,,,,,,,,
1649886936.611148,53.000000,0.000000,4248.717773,4231.282227,4163.077148,4221.025879,4232.307617,0.000000,4.000000,86.000000,,,,0.000000,4.000000,4.000000,4.000000,0.000000,4.000000,66.666664,,,,,,,,,,,,,,,,,,,,,,,,,,,,,,,,,,,,,,,,,,,,,,,,,,,,,,,,,,,,,,,
