title:david_g_Left, start timestamp:1649887034.464438, stop timestamp:1649887039.526653, headset type:INSIGHT, headset serial:A2D201AE, headset firmware:932, channels:84, sampling rate:eeg_128;pm_0.1;pow_8, samples:648       , version:2.1, 
Timestamp,EEG.Counter,EEG.Interpolated,EEG.AF3,EEG.T7,EEG.Pz,EEG.T8,EEG.AF4,EEG.RawCq,EEG.Battery,EEG.BatteryPercent,MarkerIndex,MarkerType,MarkerValueInt,EEG.MarkerHardware,CQ.AF3,CQ.T7,CQ.Pz,CQ.T8,CQ.AF4,CQ.Overall,EQ.SampleRateQuality,EQ.OVERALL,EQ.AF3,EQ.T7,EQ.Pz,EQ.T8,EQ.AF4,PM.Engagement.IsActive,PM.Engagement.Scaled,PM.Engagement.Raw,PM.Engagement.Min,PM.Engagement.Max,PM.Excitement.IsActive,PM.Excitement.Scaled,PM.Excitement.Raw,PM.Excitement.Min,PM.Excitement.Max,PM.LongTermExcitement,PM.Stress.IsActive,PM.Stress.Scaled,PM.Stress.Raw,PM.Stress.Min,PM.Stress.Max,PM.Relaxation.IsActive,PM.Relaxation.Scaled,PM.Relaxation.Raw,PM.Relaxation.Min,PM.Relaxation.Max,PM.Interest.IsActive,PM.Interest.Scaled,PM.Interest.Raw,PM.Interest.Min,PM.Interest.Max,PM.Focus.IsActive,PM.Focus.Scaled,PM.Focus.Raw,PM.Focus.Min,PM.Focus.Max,POW.AF3.Theta,POW.AF3.Alpha,POW.AF3.BetaL,POW.AF3.BetaH,POW.AF3.Gamma,POW.T7.Theta,POW.T7.Alpha,POW.T7.BetaL,POW.T7.BetaH,POW.T7.Gamma,POW.Pz.Theta,POW.Pz.Alpha,POW.Pz.BetaL,POW.Pz.BetaH,POW.Pz.Gamma,POW.T8.Theta,POW.T8.Alpha,POW.T8.BetaL,POW.T8.BetaH,POW.T8.Gamma,POW.AF4.Theta,POW.AF4.Alpha,POW.AF4.BetaL,POW.AF4.BetaH,POW.AF4.Gamma
1649887034.464438,21.000000,0.000000,4232.307617,4222.051270,4156.410156,4216.410156,4222.563965,0.000000,4.000000,86.000000,,,,0.000000,4.000000,4.000000,4.000000,0.000000,4.000000,66.666664,,,,,,,,,,,,,,,,,,,,,,,,,,,,,,,,,,,,,,,,,,,,,,,,,,,,,,,,,,,,,,,
1649887034.472152,22.000000,0.000000,4223.589844,4224.102539,4149.743652,4217.436035,4208.717773,0.000000,4.000000,86.000000,,,,0.000000,4.000000,4.000000,4.000000,0.000000,4.000000,66.666664,,,,,,,,,,,,,,,,,,,,,,,,,,,,,,,,,,,,,,,,,,,,,,,,,,,,,,,,,,,,,,,
1649887034.480067,23.000000,0.000000,4191.282227,4207.692383,4109.230957,4215.384766,4167.692383,0.000000,4.000000,86.000000,,,,0.000000,4.000000,4.000000,4.000000,0.000000,4.000000,66.666664,,,,,,,,,,,,,,,,,,,,,,,,,,,,,,,,,,,,,,,,,,,,,,,,,,,,,,,,,,,,,,,
1649887034.487881,24.000000,0.000000,4164.102539,4186.153809,4081.025635,4208.717773,4146.666504,0.000000,4.000000,86.000000,,,,0.000000,4.000000,4.000000,4.000000,0.000000,4.000000,66.666664,,,,,,,,,,,,,,,,,,,,,,,,,,,,,,,,,,,,,,,,,,,,,,,,,,,,,,,,,,,,,,,
1649887034.495695,25.000000,0.000000,4211.794922,4218.461426,4136.922852,4216.922852,4202.051270,0.000000,4.000000,86.000000,,,,0.000000,4.000000,4.000000,4.000000,0.000000,4.000000,66.666664,,,,,,,,,,,,,,,,,,,,,,,,,,,,,,,,,,,,,,,,,,,,,,,,,,,,,,,,,,,,,,,
1649887034.503510,26.000000,0.000000,4277.436035,4266.153809,4201.538574,4229.230957,4263.077148,0.000000,4.000000,86.000000,,,,0.000000,4.000000,4.000000,4.000000,0.000000,4.000000,66.666664,,,,,,,,,,,,,,,,,,,,,,,,,,,,,,,,,,,,,,,,,,,,,,,,,,,,,,,,,,,,,,,
1649887034.511324,27.000000,0.000000,4264.102539,4263.589844,4194.358887,4224.615234,4254.358887,0.000000,4.000000,86.000000,,,,0.000000,4.000000,4.000000,4.000000,0.000000,4.000000,66.666664,,,,,,,,,,,,,,,,,,,,,,,,,,,,,,,,,,,,,,,,,,,,,,,,,,,,,,,,,,,,,,,
1649887034.519039,28.000000,0.000000,4232.820313,4238.461426,4173.333496,4215.897461,4230.256348,0.000000,4.000000,86.000000,,,,0.000000,4.000000,4.000000,4.000000,0.000000,4.000000,66.666664,,,,,,,,,,,,,,,,,,,,,,,,,,,,,,,,,,,,,,,4.043494,2.986502,0.961726,0.293670,0.421998,1.291170,0.824129,0.307798,0.399274,0.555791,2.937267,1.301581,0.654347,0.504921,0.144078,0.022010,0.013042,0.006488,0.008698,0.005083,3.756909,2.843149,0.670437,0.338818,0.166190
1649887034.526853,29.000000,0.000000,4261.025879,4232.820313,4184.102539,4217.436035,4242.051270,0.000000,4.000000,86.000000,,,,0.000000,4.000000,4.000000,4.000000,0.000000,4.000000,66.666664,,,,,,,,,,,,,,,,,,,,,,,,,,,,,,,,,,,,,,,,,,,,,,,,,,,,,,,,,,,,,,,
1649887034.534568,30.000000,0.000000,4287.692383,4232.307617,4188.205078,4224.102539,4255.384766,0.000000,4.000000,86.000000,,,,0.000000,4.000000,4.000000,4.000000,0.000000,4.000000,66.666664,,,,,,,,,,,,,,,,,,,,,,,,,,,,,,,,,,,,,,,,,,,,,,,,,,,,,,,,,,,,,,,
1649887034.542482,31.000000,0.000000,4262.051270,4228.205078,4178.974121,4225.128418,4246.666504,0.000000,4.000000,86.000000,,,,0.000000,4.000000,4.000000,4.000000,0.000000,4.000000,66.666664,,,,,,,,,,,,,,,,,,,,,,,,,,,,,,,,,,,,,,,,,,,,,,,,,,,,,,,,,,,,,,,
1649887034.550296,32.000000,0.000000,4234.358887,4224.615234,4172.307617,4219.487305,4227.692383,0.000000,4.000000,86.000000,,,,0.000000,4.000000,4.000000,4.000000,0.000000,4.000000,66.666664,,,,,,,,,,,,,,,,,,,,,,,,,,,,,,,,,,,,,,,,,,,,,,,,,,,,,,,,,,,,,,,
1649887034.558211,33.000000,0.000000,4245.128418,4224.615234,4163.589844,4215.384766,4226.153809,0.000000,4.000000,86.000000,,,,0.000000,4.000000,4.000000,4.000000,0.000000,4.000000,66.666664,,,,,,,,,,,,,,,,,,,,,,,,,,,,,,,,,,,,,,,,,,,,,,,,,,,,,,,,,,,,,,,
1649887034.566025,34.000000,0.000000,4262.563965,4235.897461,4161.025879,4220.000000,4248.205078,0.000000,4.000000,86.000000,,,,0.000000,4.000000,4.000000,4.000000,0.000000,4.000000,66.666664,,,,,,,,,,,,,,,,,,,,,,,,,,,,,,,,,,,,,,,,,,,,,,,,,,,,,,,,,,,,,,,
1649887034.573939,35.000000,0.000000,4262.051270,4235.384766,4157.948730,4220.512695,4248.205078,0.000000,4.000000,86.000000,,,,0.000000,4.000000,4.000000,4.000000,0.000000,4.000000,66.666664,,,,,,,,,,,,,,,,,,,,,,,,,,,,,,,,,,,,,,,,,,,,,,,,,,,,,,,,,,,,,,,
1649887034.581754,36.000000,0.000000,4260.512695,4223.077148,4149.743652,4215.897461,4223.077148,0.000000,4.000000,86.000000,,,,0.000000,4.000000,4.000000,4.000000,0.000000,4.000000,66.666664,,,,,,,,,,,,,,,,,,,,,,,,,,,,,,,,,,,,,,,,,,,,,,,,,,,,,,,,,,,,,,,
1649887034.589568,37.000000,0.000000,4251.794922,4219.487305,4142.563965,4216.410156,4216.922852,0.000000,4.000000,86.000000,,,,0.000000,4.000000,4.000000,4.000000,0.000000,4.000000,66.666664,,,,,,,,,,,,,,,,,,,,,,,,,,,,,,,,,,,,,,,,,,,,,,,,,,,,,,,,,,,,,,,
1649887034.597482,38.000000,0.000000,4238.974121,4213.846191,4135.897461,4216.922852,4224.102539,0.000000,4.000000,86.000000,,,,0.000000,4.000000,4.000000,4.000000,0.000000,4.000000,66.666664,,,,,,,,,,,,,,,,,,,,,,,,,,,,,,,,,,,,,,,,,,,,,,,,,,,,,,,,,,,,,,,
1649887034.605297,39.000000,0.000000,4239.487305,4204.102539,4136.922852,4215.897461,4220.512695,0.000000,4.000000,86.000000,,,,0.000000,4.000000,4.000000,4.000000,0.000000,4.000000,66.666664,,,,,,,,,,,,,,,,,,,,,,,,,,,,,,,,,,,,,,,,,,,,,,,,,,,,,,,,,,,,,,,
1649887034.613211,40.000000,0.000000,4235.384766,4208.205078,4148.205078,4217.948730,4215.897461,0.000000,4.000000,86.000000,,,,0.000000,4.000000,4.000000,4.000000,0.000000,4.000000,66.666664,,,,,,,,,,,,,,,,,,,,,,,,,,,,,,,,,,,,,,,,,,,,,,,,,,,,,,,,,,,,,,,
1649887034.621026,41.000000,0.000000,4224.615234,4220.000000,4158.974121,4216.410156,4209.230957,0.000000,4.000000,86.000000,,,,0.000000,4.000000,4.000000,4.000000,0.000000,4.000000,66.666664,,,,,,,,,,,,,,,,,,,,,,,,,,,,,,,,,,,,,,,,,,,,,,,,,,,,,,,,,,,,,,,
1649887034.628940,42.000000,0.000000,4233.333496,4220.000000,4169.230957,4213.846191,4207.692383,0.000000,4.000000,86.000000,,,,0.000000,4.000000,4.000000,4.000000,0.000000,4.000000,66.666664,,,,,,,,,,,,,,,,,,,,,,,,,,,,,,,,,,,,,,,,,,,,,,,,,,,,,,,,,,,,,,,
1649887034.636754,43.000000,0.000000,4252.820313,4221.025879,4189.743652,4222.051270,4233.333496,0.000000,4.000000,86.000000,,,,0.000000,4.000000,4.000000,4.000000,0.000000,4.000000,66.666664,,,,,,,,,,,,,,,,,,,,,,,,,,,,,,,,,,,,,,,,,,,,,,,,,,,,,,,,,,,,,,,
1649887034.644569,44.000000,0.000000,4266.666504,4234.871582,4201.025879,4225.128418,4261.025879,0.000000,4.000000,86.000000,,,,0.000000,4.000000,4.000000,4.000000,0.000000,4.000000,66.666664,,,,,,,,,,,,,,,,,,,,,,,,,,,,,,,,,,,,,,,3.852575,3.048139,0.816941,0.272301,0.389937,1.599796,0.741882,0.284505,0.408982,0.509446,3.318313,1.336302,0.588961,0.504157,0.143069,0.025128,0.012980,0.004992,0.008862,0.005597,3.529553,3.071253,0.580332,0.328088,0.173420
1649887034.652283,45.000000,0.000000,4278.461426,4247.179688,4196.410156,4221.538574,4262.051270,0.000000,4.000000,86.000000,,,,0.000000,4.000000,4.000000,4.000000,0.000000,4.000000,66.666664,,,,,,,,,,,,,,,,,,,,,,,,,,,,,,,,,,,,,,,,,,,,,,,,,,,,,,,,,,,,,,,
1649887034.660198,46.000000,0.000000,4281.025879,4248.717773,4190.256348,4225.641113,4256.410156,0.000000,4.000000,86.000000,,,,0.000000,4.000000,4.000000,4.000000,0.000000,4.000000,66.666664,,,,,,,,,,,,,,,,,,,,,,,,,,,,,,,,,,,,,,,,,,,,,,,,,,,,,,,,,,,,,,,
1649887034.668112,47.000000,0.000000,4276.410156,4241.025879,4180.000000,4225.641113,4256.922852,0.000000,4.000000,86.000000,,,,0.000000,4.000000,4.000000,4.000000,0.000000,4.000000,66.666664,,,,,,,,,,,,,,,,,,,,,,,,,,,,,,,,,,,,,,,,,,,,,,,,,,,,,,,,,,,,,,,
1649887034.675926,48.000000,0.000000,4280.512695,4243.077148,4174.871582,4221.025879,4255.384766,0.000000,4.000000,86.000000,,,,0.000000,4.000000,4.000000,4.000000,0.000000,4.000000,66.666664,,,,,,,,,,,,,,,,,,,,,,,,,,,,,,,,,,,,,,,,,,,,,,,,,,,,,,,,,,,,,,,
1649887034.683741,49.000000,0.000000,4288.717773,4254.358887,4179.487305,4224.615234,4259.487305,0.000000,4.000000,86.000000,,,,0.000000,4.000000,4.000000,4.000000,0.000000,4.000000,66.666664,,,,,,,,,,,,,,,,,,,,,,,,,,,,,,,,,,,,,,,,,,,,,,,,,,,,,,,,,,,,,,,
1649887034.691655,50.000000,0.000000,4272.307617,4243.589844,4165.641113,4223.589844,4249.743652,0.000000,4.000000,86.000000,,,,0.000000,4.000000,4.000000,4.000000,0.000000,4.000000,66.666664,,,,,,,,,,,,,,,,,,,,,,,,,,,,,,,,,,,,,,,,,,,,,,,,,,,,,,,,,,,,,,,
1649887034.699469,51.000000,0.000000,4245.128418,4220.512695,4134.871582,4214.358887,4227.692383,0.000000,4.000000,86.000000,,,,0.000000,4.000000,4.000000,4.000000,0.000000,4.000000,66.666664,,,,,,,,,,,,,,,,,,,,,,,,,,,,,,,,,,,,,,,,,,,,,,,,,,,,,,,,,,,,,,,
1649887034.707384,52.000000,0.000000,4244.615234,4222.563965,4122.563965,4216.410156,4224.102539,0.000000,4.000000,86.000000,,,,0.000000,4.000000,4.000000,4.000000,0.000000,4.000000,66.666664,,,,,,,,,,,,,,,,,,,,,,,,,,,,,,,,,,,,,,,,,,,,,,,,,,,,,,,,,,,,,,,
1649887034.715298,53.000000,1.000000,4245.014160,4221.937500,4127.179688,4216.581055,4224.045410,0.000000,4.000000,86.000000,,,,0.000000,4.000000,4.000000,4.000000,0.000000,4.000000,66.666664,,,,,,,,,,,,,,,,,,,,,,,,,,,,,,,,,,,,,,,,,,,,,,,,,,,,,,,,,,,,,,,
1649887034.723112,54.000000,1.000000,4245.413086,4221.310547,4131.794922,4216.751953,4223.988770,0.000000,4.000000,86.000000,,,,0.000000,4.000000,4.000000,4.000000,0.000000,4.000000,66.666664,,,,,,,,,,,,,,,,,,,,,,,,,,,,,,,,,,,,,,,,,,,,,,,,,,,,,,,,,,,,,,,
1649887034.730927,55.000000,1.000000,4245.812012,4220.683594,4136.410156,4216.922852,4223.931641,0.000000,4.000000,86.000000,,,,0.000000,4.000000,4.000000,4.000000,0.000000,4.000000,66.666664,,,,,,,,,,,,,,,,,,,,,,,,,,,,,,,,,,,,,,,,,,,,,,,,,,,,,,,,,,,,,,,
1649887034.738741,56.000000,1.000000,4246.210938,4220.057129,4141.025879,4217.094238,4223.874512,0.000000,4.000000,86.000000,,,,0.000000,4.000000,4.000000,4.000000,0.000000,4.000000,66.666664,,,,,,,,,,,,,,,,,,,,,,,,,,,,,,,,,,,,,,,,,,,,,,,,,,,,,,,,,,,,,,,
1649887034.746556,57.000000,1.000000,4246.609863,4219.430176,4145.641113,4217.265137,4223.817871,0.000000,4.000000,86.000000,,,,0.000000,4.000000,4.000000,4.000000,0.000000,4.000000,66.666664,,,,,,,,,,,,,,,,,,,,,,,,,,,,,,,,,,,,,,,,,,,,,,,,,,,,,,,,,,,,,,,
1649887034.754370,58.000000,1.000000,4247.008789,4218.803223,4150.256348,4217.436035,4223.760742,0.000000,4.000000,86.000000,,,,0.000000,4.000000,4.000000,4.000000,0.000000,4.000000,66.666664,,,,,,,,,,,,,,,,,,,,,,,,,,,,,,,,,,,,,,,,,,,,,,,,,,,,,,,,,,,,,,,
1649887034.762184,59.000000,1.000000,4247.407227,4218.176758,4154.871582,4217.606934,4223.703613,0.000000,4.000000,86.000000,,,,0.000000,4.000000,4.000000,4.000000,0.000000,4.000000,66.666664,,,,,,,,,,,,,,,,,,,,,,,,,,,,,,,,,,,,,,,,,,,,,,,,,,,,,,,,,,,,,,,
1649887034.769999,60.000000,1.000000,4247.806152,4217.549805,4159.487305,4217.777832,4223.646484,0.000000,4.000000,86.000000,,,,0.000000,4.000000,4.000000,4.000000,0.000000,4.000000,66.666664,,,,,,,,,,,,,,,,,,,,,,,,,,,,,,,,,,,,,,,3.702213,3.102193,0.732149,0.321816,0.402636,1.766955,0.787592,0.331505,0.458912,0.470618,3.424231,1.809859,0.610043,0.566941,0.168466,0.032682,0.015128,0.005621,0.010142,0.007195,3.286551,3.259690,0.560518,0.356474,0.206918
1649887034.777813,61.000000,0.000000,4248.205078,4216.922852,4164.102539,4217.948730,4223.589844,0.000000,4.000000,86.000000,,,,0.000000,4.000000,4.000000,4.000000,0.000000,4.000000,66.666664,,,,,,,,,,,,,,,,,,,,,,,,,,,,,,,,,,,,,,,,,,,,,,,,,,,,,,,,,,,,,,,
1649887034.785528,62.000000,0.000000,4231.794922,4215.897461,4155.897461,4217.948730,4216.410156,0.000000,4.000000,86.000000,,,,0.000000,4.000000,4.000000,4.000000,0.000000,4.000000,66.666664,,,,,,,,,,,,,,,,,,,,,,,,,,,,,,,,,,,,,,,,,,,,,,,,,,,,,,,,,,,,,,,
1649887034.793242,63.000000,0.000000,4230.769043,4209.230957,4148.205078,4216.922852,4220.512695,0.000000,4.000000,86.000000,,,,0.000000,4.000000,4.000000,4.000000,0.000000,4.000000,66.666664,,,,,,,,,,,,,,,,,,,,,,,,,,,,,,,,,,,,,,,,,,,,,,,,,,,,,,,,,,,,,,,
1649887034.801057,64.000000,0.000000,4242.051270,4189.230957,4125.641113,4216.410156,4224.102539,450.000000,4.000000,86.000000,,,,0.000000,4.000000,4.000000,4.000000,0.000000,4.000000,66.666664,,,,,,,,,,,,,,,,,,,,,,,,,,,,,,,,,,,,,,,,,,,,,,,,,,,,,,,,,,,,,,,
1649887034.808871,65.000000,0.000000,4246.666504,4193.846191,4117.436035,4216.410156,4228.205078,450.000000,4.000000,86.000000,,,,0.000000,4.000000,4.000000,4.000000,0.000000,4.000000,66.666664,,,,,,,,,,,,,,,,,,,,,,,,,,,,,,,,,,,,,,,,,,,,,,,,,,,,,,,,,,,,,,,
1649887034.816586,66.000000,0.000000,4242.051270,4218.461426,4134.358887,4216.922852,4230.256348,16229.000000,4.000000,86.000000,,,,0.000000,4.000000,4.000000,4.000000,0.000000,4.000000,66.666664,,,,,,,,,,,,,,,,,,,,,,,,,,,,,,,,,,,,,,,,,,,,,,,,,,,,,,,,,,,,,,,
1649887034.824300,67.000000,0.000000,4227.179688,4209.230957,4139.487305,4216.410156,4215.384766,450.000000,4.000000,86.000000,,,,0.000000,4.000000,4.000000,4.000000,0.000000,4.000000,66.666664,,,,,,,,,,,,,,,,,,,,,,,,,,,,,,,,,,,,,,,,,,,,,,,,,,,,,,,,,,,,,,,
1649887034.832115,68.000000,0.000000,4220.000000,4192.820313,4136.922852,4214.871582,4206.153809,16219.000000,4.000000,86.000000,,,,0.000000,4.000000,4.000000,4.000000,0.000000,4.000000,66.666664,,,,,,,,,,,,,,,,,,,,,,,,,,,,,,,,,,,,,,,,,,,,,,,,,,,,,,,,,,,,,,,
1649887034.839929,69.000000,0.000000,4231.794922,4208.717773,4160.512695,4214.871582,4222.051270,450.000000,4.000000,86.000000,,,,0.000000,4.000000,4.000000,4.000000,0.000000,4.000000,66.666664,,,,,,,,,,,,,,,,,,,,,,,,,,,,,,,,,,,,,,,,,,,,,,,,,,,,,,,,,,,,,,,
1649887034.847643,70.000000,0.000000,4242.051270,4215.384766,4184.102539,4216.922852,4229.230957,16179.000000,4.000000,86.000000,,,,0.000000,4.000000,4.000000,4.000000,0.000000,4.000000,66.666664,,,,,,,,,,,,,,,,,,,,,,,,,,,,,,,,,,,,,,,,,,,,,,,,,,,,,,,,,,,,,,,
1649887034.855458,71.000000,0.000000,4232.307617,4205.641113,4184.102539,4217.436035,4215.384766,450.000000,4.000000,86.000000,,,,0.000000,4.000000,4.000000,4.000000,0.000000,4.000000,66.666664,,,,,,,,,,,,,,,,,,,,,,,,,,,,,,,,,,,,,,,,,,,,,,,,,,,,,,,,,,,,,,,
1649887034.863172,72.000000,0.000000,4225.128418,4208.717773,4180.512695,4216.410156,4213.846191,450.000000,4.000000,86.000000,,,,0.000000,4.000000,4.000000,4.000000,0.000000,4.000000,66.666664,,,,,,,,,,,,,,,,,,,,,,,,,,,,,,,,,,,,,,,,,,,,,,,,,,,,,,,,,,,,,,,
1649887034.870987,73.000000,0.000000,4236.410156,4211.282227,4182.563965,4216.410156,4222.051270,0.000000,4.000000,86.000000,,,,0.000000,4.000000,4.000000,4.000000,0.000000,4.000000,66.666664,,,,,,,,,,,,,,,,,,,,,,,,,,,,,,,,,,,,,,,,,,,,,,,,,,,,,,,,,,,,,,,
1649887034.878701,74.000000,0.000000,4234.358887,4218.974121,4182.563965,4216.922852,4220.000000,450.000000,4.000000,86.000000,,,,0.000000,4.000000,4.000000,4.000000,0.000000,4.000000,66.666664,,,,,,,,,,,,,,,,,,,,,,,,,,,,,,,,,,,,,,,,,,,,,,,,,,,,,,,,,,,,,,,
1649887034.886616,75.000000,0.000000,4223.077148,4229.743652,4176.410156,4216.922852,4217.436035,16201.000000,4.000000,86.000000,,,,0.000000,4.000000,4.000000,4.000000,0.000000,4.000000,66.666664,,,,,,,,,,,,,,,,,,,,,,,,,,,,,,,,,,,,,,,,,,,,,,,,,,,,,,,,,,,,,,,
1649887034.894430,76.000000,0.000000,4236.410156,4219.487305,4169.743652,4216.922852,4219.487305,450.000000,4.000000,86.000000,,,,0.000000,4.000000,4.000000,4.000000,0.000000,4.000000,66.666664,0.734375,66.666664,4.000000,4.000000,4.000000,0.000000,4.000000,,,,,,,,,,,,,,,,,,,,,,,,,,,,,,,,3.738879,3.170776,0.885646,0.484238,0.493530,1.792835,0.878239,0.506458,0.552913,0.452881,3.216249,3.050776,0.815998,0.728266,0.238942,0.047168,0.021389,0.008133,0.012680,0.011203,3.185528,3.426256,0.758987,0.470964,0.286922
1649887034.902244,77.000000,0.000000,4248.717773,4209.230957,4161.025879,4217.436035,4215.897461,450.000000,4.000000,86.000000,,,,0.000000,4.000000,4.000000,4.000000,0.000000,4.000000,66.666664,,,,,,,,,,,,,,,,,,,,,,,,,,,,,,,,,,,,,,,,,,,,,,,,,,,,,,,,,,,,,,,
1649887034.910059,78.000000,0.000000,4233.846191,4211.282227,4145.641113,4216.410156,4214.358887,450.000000,4.000000,86.000000,,,,0.000000,4.000000,4.000000,4.000000,0.000000,4.000000,66.666664,,,,,,,,,,,,,,,,,,,,,,,,,,,,,,,,,,,,,,,,,,,,,,,,,,,,,,,,,,,,,,,
1649887034.917873,79.000000,0.000000,4230.769043,4210.256348,4134.358887,4215.897461,4227.692383,16201.000000,4.000000,86.000000,,,,0.000000,4.000000,4.000000,4.000000,0.000000,4.000000,66.666664,,,,,,,,,,,,,,,,,,,,,,,,,,,,,,,,,,,,,,,,,,,,,,,,,,,,,,,,,,,,,,,
1649887034.925588,80.000000,0.000000,4241.538574,4201.538574,4127.179688,4216.922852,4236.410156,450.000000,4.000000,86.000000,,,,0.000000,4.000000,4.000000,4.000000,0.000000,4.000000,66.666664,,,,,,,,,,,,,,,,,,,,,,,,,,,,,,,,,,,,,,,,,,,,,,,,,,,,,,,,,,,,,,,
1649887034.933502,81.000000,0.000000,4242.563965,4200.512695,4123.077148,4217.436035,4231.794922,450.000000,4.000000,86.000000,,,,0.000000,4.000000,4.000000,4.000000,0.000000,4.000000,66.666664,,,,,,,,,,,,,,,,,,,,,,,,,,,,,,,,,,,,,,,,,,,,,,,,,,,,,,,,,,,,,,,
1649887034.941316,82.000000,0.000000,4244.102539,4213.846191,4135.384766,4216.410156,4230.769043,450.000000,4.000000,86.000000,,,,0.000000,4.000000,4.000000,4.000000,0.000000,4.000000,66.666664,,,,,,,,,,,,,,,,,,,,,,,,,,,,,,,,,,,,,,,,,,,,,,,,,,,,,,,,,,,,,,,
1649887034.949131,83.000000,0.000000,4252.820313,4225.128418,4164.102539,4215.897461,4237.436035,16201.000000,4.000000,86.000000,,,,0.000000,4.000000,4.000000,4.000000,0.000000,4.000000,66.666664,,,,,,,,,,,,,,,,,,,,,,,,,,,,,,,,,,,,,,,,,,,,,,,,,,,,,,,,,,,,,,,
1649887034.956845,84.000000,0.000000,4257.436035,4229.743652,4189.230957,4216.922852,4241.025879,450.000000,4.000000,86.000000,,,,0.000000,4.000000,4.000000,4.000000,0.000000,4.000000,66.666664,,,,,,,,,,,,,,,,,,,,,,,,,,,,,,,,,,,,,,,,,,,,,,,,,,,,,,,,,,,,,,,
1649887034.964560,85.000000,0.000000,4250.769043,4240.000000,4198.974121,4218.461426,4240.512695,450.000000,4.000000,86.000000,,,,0.000000,4.000000,4.000000,4.000000,0.000000,4.000000,66.666664,,,,,,,,,,,,,,,,,,,,,,,,,,,,,,,,,,,,,,,,,,,,,,,,,,,,,,,,,,,,,,,
1649887034.972374,86.000000,0.000000,4238.974121,4243.589844,4193.846191,4218.461426,4236.410156,450.000000,4.000000,86.000000,,,,0.000000,4.000000,4.000000,4.000000,0.000000,4.000000,66.666664,,,,,,,,,,,,,,,,,,,,,,,,,,,,,,,,,,,,,,,,,,,,,,,,,,,,,,,,,,,,,,,
1649887034.980089,87.000000,0.000000,4241.025879,4233.846191,4187.692383,4217.436035,4234.871582,16201.000000,4.000000,86.000000,,,,0.000000,4.000000,4.000000,4.000000,0.000000,4.000000,66.666664,,,,,,,,,,,,,,,,,,,,,,,,,,,,,,,,,,,,,,,,,,,,,,,,,,,,,,,,,,,,,,,
1649887034.987903,88.000000,0.000000,4251.794922,4231.282227,4186.666504,4218.461426,4240.000000,450.000000,4.000000,86.000000,,,,0.000000,4.000000,4.000000,4.000000,0.000000,4.000000,66.666664,,,,,,,,,,,,,,,,,,,,,,,,,,,,,,,,,,,,,,,,,,,,,,,,,,,,,,,,,,,,,,,
1649887034.995618,89.000000,0.000000,4252.820313,4228.717773,4170.256348,4219.487305,4243.077148,450.000000,4.000000,86.000000,,,,0.000000,4.000000,4.000000,4.000000,0.000000,4.000000,66.666664,,,,,,,,,,,,,,,,,,,,,,,,,,,,,,,,,,,,,,,,,,,,,,,,,,,,,,,,,,,,,,,
1649887035.003532,90.000000,0.000000,4247.692383,4214.871582,4146.153809,4218.461426,4241.025879,450.000000,4.000000,86.000000,,,,0.000000,4.000000,4.000000,4.000000,0.000000,4.000000,66.666664,,,,,,,,,,,,,,,,,,,,,,,,,,,,,,,,,,,,,,,,,,,,,,,,,,,,,,,,,,,,,,,
1649887035.011446,91.000000,0.000000,4245.641113,4218.461426,4145.641113,4217.436035,4234.358887,16201.000000,4.000000,86.000000,,,,0.000000,4.000000,4.000000,4.000000,0.000000,4.000000,66.666664,,,,,,,,,,,,,,,,,,,,,,,,,,,,,,,,,,,,,,,,,,,,,,,,,,,,,,,,,,,,,,,
1649887035.019261,92.000000,0.000000,4247.692383,4238.974121,4161.025879,4217.948730,4233.846191,450.000000,4.000000,86.000000,,,,0.000000,4.000000,4.000000,4.000000,0.000000,4.000000,66.666664,,,,,,,,,,,,,,,,,,,,,,,,,,,,,,,,,,,,,,,4.001677,3.324028,1.413627,0.759850,0.675322,1.742379,1.005947,0.848438,0.688471,0.463281,2.828823,5.337325,1.265426,0.985666,0.362553,0.070815,0.034035,0.013065,0.016831,0.019091,3.335248,3.641219,1.279579,0.694351,0.427628
1649887035.027175,93.000000,0.000000,4248.205078,4248.205078,4161.538574,4218.461426,4239.487305,450.000000,4.000000,86.000000,,,,0.000000,4.000000,4.000000,4.000000,0.000000,4.000000,66.666664,,,,,,,,,,,,,,,,,,,,,,,,,,,,,,,,,,,,,,,,,,,,,,,,,,,,,,,,,,,,,,,
1649887035.035089,94.000000,1.000000,4248.604004,4244.843262,4161.709473,4218.404785,4239.430176,450.000000,4.000000,86.000000,,,,0.000000,4.000000,4.000000,4.000000,0.000000,4.000000,66.666664,,,,,,,,,,,,,,,,,,,,,,,,,,,,,,,,,,,,,,,,,,,,,,,,,,,,,,,,,,,,,,,
1649887035.042904,95.000000,1.000000,4249.002930,4241.481445,4161.880371,4218.347656,4239.373047,450.000000,4.000000,86.000000,,,,0.000000,4.000000,4.000000,4.000000,0.000000,4.000000,66.666664,,,,,,,,,,,,,,,,,,,,,,,,,,,,,,,,,,,,,,,,,,,,,,,,,,,,,,,,,,,,,,,
1649887035.050718,96.000000,1.000000,4249.401855,4238.119629,4162.051270,4218.290527,4239.316406,450.000000,4.000000,86.000000,,,,0.000000,4.000000,4.000000,4.000000,0.000000,4.000000,66.666664,,,,,,,,,,,,,,,,,,,,,,,,,,,,,,,,,,,,,,,,,,,,,,,,,,,,,,,,,,,,,,,
1649887035.058533,97.000000,1.000000,4249.800781,4234.757813,4162.222168,4218.233398,4239.259277,450.000000,4.000000,86.000000,,,,0.000000,4.000000,4.000000,4.000000,0.000000,4.000000,66.666664,,,,,,,,,,,,,,,,,,,,,,,,,,,,,,,,,,,,,,,,,,,,,,,,,,,,,,,,,,,,,,,
1649887035.066347,98.000000,1.000000,4250.199219,4231.395996,4162.393066,4218.176758,4239.202148,450.000000,4.000000,86.000000,,,,0.000000,4.000000,4.000000,4.000000,0.000000,4.000000,66.666664,,,,,,,,,,,,,,,,,,,,,,,,,,,,,,,,,,,,,,,,,,,,,,,,,,,,,,,,,,,,,,,
1649887035.074161,99.000000,1.000000,4250.598145,4228.034180,4162.563965,4218.119629,4239.145508,450.000000,4.000000,86.000000,,,,0.000000,4.000000,4.000000,4.000000,0.000000,4.000000,66.666664,,,,,,,,,,,,,,,,,,,,,,,,,,,,,,,,,,,,,,,,,,,,,,,,,,,,,,,,,,,,,,,
1649887035.081976,100.000000,1.000000,4250.997070,4224.672363,4162.734863,4218.062500,4239.088379,450.000000,4.000000,86.000000,,,,0.000000,4.000000,4.000000,4.000000,0.000000,4.000000,66.666664,,,,,,,,,,,,,,,,,,,,,,,,,,,,,,,,,,,,,,,,,,,,,,,,,,,,,,,,,,,,,,,
1649887035.089790,101.000000,1.000000,4251.395996,4221.310547,4162.905762,4218.005859,4239.031250,450.000000,4.000000,86.000000,,,,0.000000,4.000000,4.000000,4.000000,0.000000,4.000000,66.666664,,,,,,,,,,,,,,,,,,,,,,,,,,,,,,,,,,,,,,,,,,,,,,,,,,,,,,,,,,,,,,,
1649887035.097605,102.000000,0.000000,4251.794922,4217.948730,4163.077148,4217.948730,4238.974121,450.000000,4.000000,86.000000,,,,0.000000,4.000000,4.000000,4.000000,0.000000,4.000000,66.666664,,,,,,,,,,,,,,,,,,,,,,,,,,,,,,,,,,,,,,,,,,,,,,,,,,,,,,,,,,,,,,,
1649887035.105319,103.000000,0.000000,4243.589844,4212.820313,4156.922852,4216.922852,4226.153809,16201.000000,4.000000,86.000000,,,,0.000000,4.000000,4.000000,4.000000,0.000000,4.000000,66.666664,,,,,,,,,,,,,,,,,,,,,,,,,,,,,,,,,,,,,,,,,,,,,,,,,,,,,,,,,,,,,,,
1649887035.113133,104.000000,0.000000,4255.897461,4221.025879,4155.384766,4217.948730,4230.769043,450.000000,4.000000,86.000000,,,,0.000000,4.000000,4.000000,4.000000,0.000000,4.000000,66.666664,,,,,,,,,,,,,,,,,,,,,,,,,,,,,,,,,,,,,,,,,,,,,,,,,,,,,,,,,,,,,,,
1649887035.120948,105.000000,0.000000,4262.563965,4227.692383,4146.153809,4217.948730,4238.461426,450.000000,4.000000,86.000000,,,,0.000000,4.000000,4.000000,4.000000,0.000000,4.000000,66.666664,,,,,,,,,,,,,,,,,,,,,,,,,,,,,,,,,,,,,,,,,,,,,,,,,,,,,,,,,,,,,,,
1649887035.128662,106.000000,0.000000,4244.615234,4216.410156,4136.922852,4216.410156,4230.769043,450.000000,4.000000,86.000000,,,,0.000000,4.000000,4.000000,4.000000,0.000000,4.000000,66.666664,,,,,,,,,,,,,,,,,,,,,,,,,,,,,,,,,,,,,,,,,,,,,,,,,,,,,,,,,,,,,,,
1649887035.136477,107.000000,0.000000,4221.025879,4209.230957,4132.820313,4216.410156,4208.205078,16201.000000,4.000000,86.000000,,,,0.000000,4.000000,4.000000,4.000000,0.000000,4.000000,66.666664,,,,,,,,,,,,,,,,,,,,,,,,,,,,,,,,,,,,,,,,,,,,,,,,,,,,,,,,,,,,,,,
1649887035.144191,108.000000,0.000000,4206.153809,4221.538574,4127.179688,4216.922852,4186.153809,450.000000,4.000000,86.000000,,,,0.000000,4.000000,4.000000,4.000000,0.000000,4.000000,66.666664,,,,,,,,,,,,,,,,,,,,,,,,,,,,,,,,,,,,,,,4.415380,3.581558,2.283053,1.096636,0.919774,1.730550,1.182867,1.329001,0.845475,0.500408,2.535665,8.714664,1.896940,1.290684,0.525595,0.102513,0.053629,0.020312,0.022214,0.030798,3.723628,3.924383,2.075653,0.996795,0.619179
1649887035.152006,109.000000,0.000000,4197.436035,4220.000000,4125.641113,4214.871582,4180.512695,450.000000,4.000000,86.000000,,,,0.000000,4.000000,4.000000,4.000000,0.000000,4.000000,66.666664,,,,,,,,,,,,,,,,,,,,,,,,,,,,,,,,,,,,,,,,,,,,,,,,,,,,,,,,,,,,,,,
1649887035.159720,110.000000,0.000000,4215.897461,4213.846191,4140.000000,4214.871582,4199.487305,450.000000,4.000000,86.000000,,,,0.000000,4.000000,4.000000,4.000000,0.000000,4.000000,66.666664,,,,,,,,,,,,,,,,,,,,,,,,,,,,,,,,,,,,,,,,,,,,,,,,,,,,,,,,,,,,,,,
1649887035.167635,111.000000,0.000000,4244.615234,4228.717773,4160.000000,4217.436035,4224.615234,16201.000000,4.000000,86.000000,,,,0.000000,4.000000,4.000000,4.000000,0.000000,4.000000,66.666664,,,,,,,,,,,,,,,,,,,,,,,,,,,,,,,,,,,,,,,,,,,,,,,,,,,,,,,,,,,,,,,
1649887035.175449,112.000000,0.000000,4244.615234,4237.948730,4170.256348,4218.461426,4233.846191,450.000000,4.000000,86.000000,,,,0.000000,4.000000,4.000000,4.000000,0.000000,4.000000,66.666664,,,,,,,,,,,,,,,,,,,,,,,,,,,,,,,,,,,,,,,,,,,,,,,,,,,,,,,,,,,,,,,
1649887035.183263,113.000000,0.000000,4243.077148,4232.820313,4175.384766,4217.436035,4235.384766,450.000000,4.000000,86.000000,,,,0.000000,4.000000,4.000000,4.000000,0.000000,4.000000,66.666664,,,,,,,,,,,,,,,,,,,,,,,,,,,,,,,,,,,,,,,,,,,,,,,,,,,,,,,,,,,,,,,
1649887035.190978,114.000000,0.000000,4253.846191,4231.794922,4183.077148,4217.436035,4235.897461,450.000000,4.000000,86.000000,,,,0.000000,4.000000,4.000000,4.000000,0.000000,4.000000,66.666664,,,,,,,,,,,,,,,,,,,,,,,,,,,,,,,,,,,,,,,,,,,,,,,,,,,,,,,,,,,,,,,
1649887035.198892,115.000000,0.000000,4254.871582,4243.589844,4184.102539,4216.922852,4232.307617,16201.000000,4.000000,86.000000,,,,0.000000,4.000000,4.000000,4.000000,0.000000,4.000000,66.666664,,,,,,,,,,,,,,,,,,,,,,,,,,,,,,,,,,,,,,,,,,,,,,,,,,,,,,,,,,,,,,,
1649887035.206806,116.000000,0.000000,4251.282227,4244.102539,4178.974121,4217.948730,4228.205078,450.000000,4.000000,86.000000,,,,0.000000,4.000000,4.000000,4.000000,0.000000,4.000000,66.666664,,,,,,,,,,,,,,,,,,,,,,,,,,,,,,,,,,,,,,,,,,,,,,,,,,,,,,,,,,,,,,,
1649887035.214621,117.000000,0.000000,4255.897461,4229.230957,4176.922852,4218.461426,4233.333496,450.000000,4.000000,86.000000,,,,0.000000,4.000000,4.000000,4.000000,0.000000,4.000000,66.666664,,,,,,,,,,,,,,,,,,,,,,,,,,,,,,,,,,,,,,,,,,,,,,,,,,,,,,,,,,,,,,,
1649887035.222435,118.000000,0.000000,4259.487305,4231.794922,4170.769043,4216.922852,4243.589844,450.000000,4.000000,86.000000,,,,0.000000,4.000000,4.000000,4.000000,0.000000,4.000000,66.666664,,,,,,,,,,,,,,,,,,,,,,,,,,,,,,,,,,,,,,,,,,,,,,,,,,,,,,,,,,,,,,,
1649887035.230250,119.000000,0.000000,4256.922852,4246.153809,4166.153809,4217.436035,4246.153809,16201.000000,4.000000,86.000000,,,,0.000000,4.000000,4.000000,4.000000,0.000000,4.000000,66.666664,,,,,,,,,,,,,,,,,,,,,,,,,,,,,,,,,,,,,,,,,,,,,,,,,,,,,,,,,,,,,,,
1649887035.238164,120.000000,0.000000,4254.871582,4246.666504,4168.717773,4218.974121,4238.974121,450.000000,4.000000,86.000000,,,,0.000000,4.000000,4.000000,4.000000,0.000000,4.000000,66.666664,,,,,,,,,,,,,,,,,,,,,,,,,,,,,,,,,,,,,,,,,,,,,,,,,,,,,,,,,,,,,,,
1649887035.246078,121.000000,0.000000,4243.589844,4237.436035,4164.615234,4218.974121,4231.794922,450.000000,4.000000,86.000000,,,,0.000000,4.000000,4.000000,4.000000,0.000000,4.000000,66.666664,,,,,,,,,,,,,,,,,,,,,,,,,,,,,,,,,,,,,,,,,,,,,,,,,,,,,,,,,,,,,,,
1649887035.253893,122.000000,0.000000,4230.769043,4229.743652,4154.871582,4217.948730,4228.205078,450.000000,4.000000,86.000000,,,,0.000000,4.000000,4.000000,4.000000,0.000000,4.000000,66.666664,,,,,,,,,,,,,,,,,,,,,,,,,,,,,,,,,,,,,,,,,,,,,,,,,,,,,,,,,,,,,,,
1649887035.261807,123.000000,0.000000,4233.846191,4225.128418,4159.487305,4216.922852,4222.563965,16201.000000,4.000000,86.000000,,,,0.000000,4.000000,4.000000,4.000000,0.000000,4.000000,66.666664,,,,,,,,,,,,,,,,,,,,,,,,,,,,,,,,,,,,,,,,,,,,,,,,,,,,,,,,,,,,,,,
1649887035.269621,124.000000,0.000000,4238.974121,4227.692383,4169.230957,4216.922852,4212.307617,450.000000,4.000000,86.000000,,,,0.000000,4.000000,4.000000,4.000000,0.000000,4.000000,66.666664,,,,,,,,,,,,,,,,,,,,,,,,,,,,,,,,,,,,,,,4.838673,3.884793,3.261055,1.400599,1.163011,1.824908,1.422513,1.855733,0.981722,0.552948,2.556138,12.857186,2.580839,1.560540,0.691794,0.136335,0.077480,0.028399,0.027494,0.044067,4.250386,4.214527,2.934469,1.295230,0.822944
1649887035.277536,125.000000,0.000000,4226.153809,4226.153809,4171.282227,4218.461426,4198.461426,450.000000,4.000000,86.000000,,,,0.000000,4.000000,4.000000,4.000000,0.000000,4.000000,66.666664,,,,,,,,,,,,,,,,,,,,,,,,,,,,,,,,,,,,,,,,,,,,,,,,,,,,,,,,,,,,,,,
1649887035.285350,126.000000,0.000000,4212.307617,4218.461426,4167.692383,4217.436035,4188.717773,450.000000,4.000000,86.000000,,,,0.000000,4.000000,4.000000,4.000000,0.000000,4.000000,66.666664,,,,,,,,,,,,,,,,,,,,,,,,,,,,,,,,,,,,,,,,,,,,,,,,,,,,,,,,,,,,,,,
1649887035.293264,127.000000,0.000000,4215.897461,4224.102539,4164.615234,4214.871582,4189.743652,241.000000,4.000000,86.000000,,,,0.000000,4.000000,4.000000,4.000000,0.000000,4.000000,66.666664,,,,,,,,,,,,,,,,,,,,,,,,,,,,,,,,,,,,,,,,,,,,,,,,,,,,,,,,,,,,,,,
1649887035.301079,0.000000,0.000000,4229.743652,4242.051270,4176.922852,4215.384766,4202.563965,450.000000,4.000000,86.000000,,,,0.000000,4.000000,4.000000,4.000000,0.000000,4.000000,66.666664,,,,,,,,,,,,,,,,,,,,,,,,,,,,,,,,,,,,,,,,,,,,,,,,,,,,,,,,,,,,,,,
1649887035.308893,1.000000,0.000000,4244.102539,4249.230957,4193.846191,4217.948730,4214.871582,450.000000,4.000000,86.000000,,,,0.000000,4.000000,4.000000,4.000000,0.000000,4.000000,66.666664,,,,,,,,,,,,,,,,,,,,,,,,,,,,,,,,,,,,,,,,,,,,,,,,,,,,,,,,,,,,,,,
1649887035.316808,2.000000,0.000000,4253.333496,4237.948730,4194.871582,4218.974121,4224.102539,16245.000000,4.000000,86.000000,,,,0.000000,4.000000,4.000000,4.000000,0.000000,4.000000,66.666664,,,,,,,,,,,,,,,,,,,,,,,,,,,,,,,,,,,,,,,,,,,,,,,,,,,,,,,,,,,,,,,
1649887035.324722,3.000000,0.000000,4254.871582,4228.205078,4180.000000,4218.974121,4229.743652,450.000000,4.000000,86.000000,,,,0.000000,4.000000,4.000000,4.000000,0.000000,4.000000,66.666664,,,,,,,,,,,,,,,,,,,,,,,,,,,,,,,,,,,,,,,,,,,,,,,,,,,,,,,,,,,,,,,
1649887035.332536,4.000000,0.000000,4250.256348,4231.282227,4168.205078,4217.948730,4229.230957,16156.000000,4.000000,86.000000,,,,0.000000,4.000000,4.000000,4.000000,0.000000,4.000000,66.666664,,,,,,,,,,,,,,,,,,,,,,,,,,,,,,,,,,,,,,,,,,,,,,,,,,,,,,,,,,,,,,,
1649887035.340451,5.000000,0.000000,4254.358887,4244.615234,4175.897461,4217.948730,4235.897461,450.000000,4.000000,86.000000,,,,0.000000,4.000000,4.000000,4.000000,0.000000,4.000000,66.666664,,,,,,,,,,,,,,,,,,,,,,,,,,,,,,,,,,,,,,,,,,,,,,,,,,,,,,,,,,,,,,,
1649887035.348365,6.000000,0.000000,4266.153809,4253.333496,4188.717773,4219.487305,4248.717773,16228.000000,4.000000,86.000000,,,,0.000000,4.000000,4.000000,4.000000,0.000000,4.000000,66.666664,,,,,,,,,,,,,,,,,,,,,,,,,,,,,,,,,,,,,,,,,,,,,,,,,,,,,,,,,,,,,,,
1649887035.356179,7.000000,0.000000,4270.256348,4247.692383,4183.589844,4218.461426,4248.717773,450.000000,4.000000,86.000000,,,,0.000000,4.000000,4.000000,4.000000,0.000000,4.000000,66.666664,,,,,,,,,,,,,,,,,,,,,,,,,,,,,,,,,,,,,,,,,,,,,,,,,,,,,,,,,,,,,,,
1649887035.363994,8.000000,0.000000,4262.563965,4236.922852,4174.358887,4215.897461,4239.487305,450.000000,4.000000,86.000000,,,,0.000000,4.000000,4.000000,4.000000,0.000000,4.000000,66.666664,,,,,,,,,,,,,,,,,,,,,,,,,,,,,,,,,,,,,,,,,,,,,,,,,,,,,,,,,,,,,,,
1649887035.371908,9.000000,0.000000,4245.128418,4233.333496,4182.051270,4216.410156,4227.692383,0.000000,4.000000,86.000000,,,,0.000000,4.000000,4.000000,4.000000,0.000000,4.000000,66.666664,,,,,,,,,,,,,,,,,,,,,,,,,,,,,,,,,,,,,,,,,,,,,,,,,,,,,,,,,,,,,,,
1649887035.379822,10.000000,1.000000,4244.159668,4232.421875,4180.683594,4216.353516,4227.692383,450.000000,4.000000,86.000000,,,,0.000000,4.000000,4.000000,4.000000,0.000000,4.000000,66.666664,,,,,,,,,,,,,,,,,,,,,,,,,,,,,,,,,,,,,,,,,,,,,,,,,,,,,,,,,,,,,,,
1649887035.387637,11.000000,1.000000,4243.190918,4231.509766,4179.316406,4216.296387,4227.692383,16201.000000,4.000000,86.000000,,,,0.000000,4.000000,4.000000,4.000000,0.000000,4.000000,66.666664,,,,,,,,,,,,,,,,,,,,,,,,,,,,,,,,,,,,,,,,,,,,,,,,,,,,,,,,,,,,,,,
1649887035.395451,12.000000,1.000000,4242.222168,4230.598145,4177.948730,4216.239258,4227.692383,450.000000,4.000000,86.000000,,,,0.000000,4.000000,4.000000,4.000000,0.000000,4.000000,66.666664,0.742188,66.666664,4.000000,4.000000,4.000000,0.000000,4.000000,,,,,,,,,,,,,,,,,,,,,,,,,,,,,,,,5.127090,4.129858,4.026699,1.585613,1.330512,2.026827,1.697369,2.304714,1.051049,0.602551,2.891452,17.061426,3.165475,1.714618,0.814420,0.162698,0.099841,0.035049,0.030850,0.055091,4.766484,4.387668,3.581083,1.499200,0.982231
1649887035.403266,13.000000,1.000000,4241.253418,4229.686523,4176.581055,4216.182129,4227.692383,450.000000,4.000000,86.000000,,,,0.000000,4.000000,4.000000,4.000000,0.000000,4.000000,66.666664,,,,,,,,,,,,,,,,,,,,,,,,,,,,,,,,,,,,,,,,,,,,,,,,,,,,,,,,,,,,,,,
1649887035.411080,14.000000,1.000000,4240.284668,4228.774902,4175.213867,4216.125488,4227.692383,450.000000,4.000000,86.000000,,,,0.000000,4.000000,4.000000,4.000000,0.000000,4.000000,66.666664,,,,,,,,,,,,,,,,,,,,,,,,,,,,,,,,,,,,,,,,,,,,,,,,,,,,,,,,,,,,,,,
1649887035.418894,15.000000,1.000000,4239.316406,4227.863281,4173.846191,4216.068359,4227.692383,16201.000000,4.000000,86.000000,,,,0.000000,4.000000,4.000000,4.000000,0.000000,4.000000,66.666664,,,,,,,,,,,,,,,,,,,,,,,,,,,,,,,,,,,,,,,,,,,,,,,,,,,,,,,,,,,,,,,
1649887035.426709,16.000000,1.000000,4238.347656,4226.951660,4172.478516,4216.011230,4227.692383,0.000000,4.000000,86.000000,,,,0.000000,4.000000,4.000000,4.000000,0.000000,4.000000,66.666664,,,,,,,,,,,,,,,,,,,,,,,,,,,,,,,,,,,,,,,,,,,,,,,,,,,,,,,,,,,,,,,
1649887035.434523,17.000000,1.000000,4237.378906,4226.040039,4171.111328,4215.954590,4227.692383,0.000000,4.000000,86.000000,,,,0.000000,4.000000,4.000000,4.000000,0.000000,4.000000,66.666664,,,,,,,,,,,,,,,,,,,,,,,,,,,,,,,,,,,,,,,,,,,,,,,,,,,,,,,,,,,,,,,
1649887035.442338,18.000000,0.000000,4236.410156,4225.128418,4169.743652,4215.897461,4227.692383,0.000000,4.000000,86.000000,,,,0.000000,4.000000,4.000000,4.000000,0.000000,4.000000,66.666664,,,,,,,,,,,,,,,,,,,,,,,,,,,,,,,,,,,,,,,,,,,,,,,,,,,,,,,,,,,,,,,
1649887035.450052,19.000000,0.000000,4246.153809,4235.897461,4168.205078,4216.410156,4231.794922,0.000000,4.000000,86.000000,,,,0.000000,4.000000,4.000000,4.000000,0.000000,4.000000,66.666664,,,,,,,,,,,,,,,,,,,,,,,,,,,,,,,,,,,,,,,,,,,,,,,,,,,,,,,,,,,,,,,
1649887035.457866,20.000000,0.000000,4243.077148,4243.589844,4180.512695,4218.461426,4227.179688,0.000000,4.000000,86.000000,,,,0.000000,4.000000,4.000000,4.000000,0.000000,4.000000,66.666664,,,,,,,,,,,,,,,,,,,,,,,,,,,,,,,,,,,,,,,,,,,,,,,,,,,,,,,,,,,,,,,
1649887035.465581,21.000000,0.000000,4236.410156,4244.615234,4192.307617,4217.436035,4228.205078,0.000000,4.000000,86.000000,,,,0.000000,4.000000,4.000000,4.000000,0.000000,4.000000,66.666664,,,,,,,,,,,,,,,,,,,,,,,,,,,,,,,,,,,,,,,,,,,,,,,,,,,,,,,,,,,,,,,
1649887035.473395,22.000000,0.000000,4255.897461,4250.256348,4192.307617,4216.922852,4243.077148,0.000000,4.000000,86.000000,,,,0.000000,4.000000,4.000000,4.000000,0.000000,4.000000,66.666664,,,,,,,,,,,,,,,,,,,,,,,,,,,,,,,,,,,,,,,,,,,,,,,,,,,,,,,,,,,,,,,
1649887035.481110,23.000000,0.000000,4280.512695,4259.487305,4194.871582,4223.077148,4261.538574,0.000000,4.000000,86.000000,,,,0.000000,4.000000,4.000000,4.000000,0.000000,4.000000,66.666664,,,,,,,,,,,,,,,,,,,,,,,,,,,,,,,,,,,,,,,,,,,,,,,,,,,,,,,,,,,,,,,
1649887035.488824,24.000000,0.000000,4278.461426,4262.563965,4206.666504,4222.563965,4265.641113,0.000000,4.000000,86.000000,,,,0.000000,4.000000,4.000000,4.000000,0.000000,4.000000,66.666664,,,,,,,,,,,,,,,,,,,,,,,,,,,,,,,,,,,,,,,,,,,,,,,,,,,,,,,,,,,,,,,
1649887035.496639,25.000000,0.000000,4272.820313,4263.077148,4217.436035,4223.077148,4257.948730,0.000000,4.000000,86.000000,,,,0.000000,4.000000,4.000000,4.000000,0.000000,4.000000,66.666664,,,,,,,,,,,,,,,,,,,,,,,,,,,,,,,,,,,,,,,,,,,,,,,,,,,,,,,,,,,,,,,
1649887035.504453,26.000000,0.000000,4274.871582,4259.487305,4219.487305,4226.153809,4258.974121,0.000000,4.000000,86.000000,,,,0.000000,4.000000,4.000000,4.000000,0.000000,4.000000,66.666664,,,,,,,,,,,,,,,,,,,,,,,,,,,,,,,,,,,,,,,,,,,,,,,,,,,,,,,,,,,,,,,
1649887035.512168,27.000000,0.000000,4275.384766,4254.871582,4214.358887,4222.051270,4269.743652,0.000000,4.000000,86.000000,,,,0.000000,4.000000,4.000000,4.000000,0.000000,4.000000,66.666664,,,,,,,,,,,,,,,,,,,,,,,,,,,,,,,,,,,,,,,,,,,,,,,,,,,,,,,,,,,,,,,
1649887035.519982,28.000000,0.000000,4285.128418,4261.538574,4208.205078,4222.563965,4270.256348,0.000000,4.000000,86.000000,,,,0.000000,4.000000,4.000000,4.000000,0.000000,4.000000,66.666664,,,,,,,,,,,,,,,,,,,,,,,,,,,,,,,,,,,,,,,5.212584,4.238768,4.330621,1.611918,1.368681,2.280231,1.939826,2.565798,1.024647,0.629798,3.396307,20.432495,3.521107,1.702653,0.856626,0.172454,0.114008,0.038243,0.030855,0.060183,5.185950,4.345900,3.830046,1.556600,1.045053
1649887035.527697,29.000000,0.000000,4292.307617,4254.871582,4207.692383,4226.153809,4259.487305,0.000000,4.000000,86.000000,,,,0.000000,4.000000,4.000000,4.000000,0.000000,4.000000,66.666664,,,,,,,,,,,,,,,,,,,,,,,,,,,,,,,,,,,,,,,,,,,,,,,,,,,,,,,,,,,,,,,
1649887035.535411,30.000000,0.000000,4278.461426,4233.333496,4211.794922,4222.051270,4254.871582,0.000000,4.000000,86.000000,,,,0.000000,4.000000,4.000000,4.000000,0.000000,4.000000,66.666664,,,,,,,,,,,,,,,,,,,,,,,,,,,,,,,,,,,,,,,,,,,,,,,,,,,,,,,,,,,,,,,
1649887035.543126,31.000000,0.000000,4263.077148,4242.563965,4209.230957,4217.436035,4249.743652,0.000000,4.000000,86.000000,,,,0.000000,4.000000,4.000000,4.000000,0.000000,4.000000,66.666664,,,,,,,,,,,,,,,,,,,,,,,,,,,,,,,,,,,,,,,,,,,,,,,,,,,,,,,,,,,,,,,
1649887035.550940,32.000000,0.000000,4258.461426,4264.102539,4201.025879,4219.487305,4242.563965,0.000000,4.000000,86.000000,,,,0.000000,4.000000,4.000000,4.000000,0.000000,4.000000,66.666664,,,,,,,,,,,,,,,,,,,,,,,,,,,,,,,,,,,,,,,,,,,,,,,,,,,,,,,,,,,,,,,
1649887035.558655,33.000000,1.000000,4260.063965,4262.756348,4199.871582,4219.487305,4243.846191,0.000000,4.000000,86.000000,,,,0.000000,4.000000,4.000000,4.000000,0.000000,4.000000,66.666664,,,,,,,,,,,,,,,,,,,,,,,,,,,,,,,,,,,,,,,,,,,,,,,,,,,,,,,,,,,,,,,
1649887035.566469,34.000000,1.000000,4261.666504,4261.410156,4198.717773,4219.487305,4245.128418,0.000000,4.000000,86.000000,,,,0.000000,4.000000,4.000000,4.000000,0.000000,4.000000,66.666664,,,,,,,,,,,,,,,,,,,,,,,,,,,,,,,,,,,,,,,,,,,,,,,,,,,,,,,,,,,,,,,
1649887035.574283,35.000000,1.000000,4263.269043,4260.063965,4197.563965,4219.487305,4246.410156,0.000000,4.000000,86.000000,,,,0.000000,4.000000,4.000000,4.000000,0.000000,4.000000,66.666664,,,,,,,,,,,,,,,,,,,,,,,,,,,,,,,,,,,,,,,,,,,,,,,,,,,,,,,,,,,,,,,
1649887035.582098,36.000000,1.000000,4264.871582,4258.717773,4196.410156,4219.487305,4247.692383,0.000000,4.000000,86.000000,,,,0.000000,4.000000,4.000000,4.000000,0.000000,4.000000,66.666664,,,,,,,,,,,,,,,,,,,,,,,,,,,,,,,,,,,,,,,,,,,,,,,,,,,,,,,,,,,,,,,
1649887035.589912,37.000000,1.000000,4266.474121,4257.371582,4195.256348,4219.487305,4248.974121,0.000000,4.000000,86.000000,,,,0.000000,4.000000,4.000000,4.000000,0.000000,4.000000,66.666664,,,,,,,,,,,,,,,,,,,,,,,,,,,,,,,,,,,,,,,,,,,,,,,,,,,,,,,,,,,,,,,
1649887035.597727,38.000000,1.000000,4268.077148,4256.025879,4194.102539,4219.487305,4250.256348,0.000000,4.000000,86.000000,,,,0.000000,4.000000,4.000000,4.000000,0.000000,4.000000,66.666664,,,,,,,,,,,,,,,,,,,,,,,,,,,,,,,,,,,,,,,,,,,,,,,,,,,,,,,,,,,,,,,
1649887035.605541,39.000000,1.000000,4269.679688,4254.679688,4192.948730,4219.487305,4251.538574,0.000000,4.000000,86.000000,,,,0.000000,4.000000,4.000000,4.000000,0.000000,4.000000,66.666664,,,,,,,,,,,,,,,,,,,,,,,,,,,,,,,,,,,,,,,,,,,,,,,,,,,,,,,,,,,,,,,
1649887035.613355,40.000000,0.000000,4271.282227,4253.333496,4191.794922,4219.487305,4252.820313,0.000000,4.000000,86.000000,,,,0.000000,4.000000,4.000000,4.000000,0.000000,4.000000,66.666664,,,,,,,,,,,,,,,,,,,,,,,,,,,,,,,,,,,,,,,,,,,,,,,,,,,,,,,,,,,,,,,
1649887035.621070,41.000000,0.000000,4286.153809,4254.358887,4185.128418,4227.179688,4263.589844,0.000000,4.000000,86.000000,,,,0.000000,4.000000,4.000000,4.000000,0.000000,4.000000,66.666664,,,,,,,,,,,,,,,,,,,,,,,,,,,,,,,,,,,,,,,,,,,,,,,,,,,,,,,,,,,,,,,
1649887035.628884,42.000000,0.000000,4285.128418,4262.563965,4180.000000,4226.153809,4267.179688,0.000000,4.000000,86.000000,,,,0.000000,4.000000,4.000000,4.000000,0.000000,4.000000,66.666664,,,,,,,,,,,,,,,,,,,,,,,,,,,,,,,,,,,,,,,,,,,,,,,,,,,,,,,,,,,,,,,
1649887035.636699,43.000000,0.000000,4283.077148,4253.333496,4186.153809,4221.538574,4266.666504,0.000000,4.000000,86.000000,,,,0.000000,4.000000,4.000000,4.000000,0.000000,4.000000,66.666664,,,,,,,,,,,,,,,,,,,,,,,,,,,,,,,,,,,,,,,,,,,,,,,,,,,,,,,,,,,,,,,
1649887035.644413,44.000000,0.000000,4291.282227,4248.205078,4191.794922,4225.128418,4275.897461,0.000000,4.000000,86.000000,,,,0.000000,4.000000,4.000000,4.000000,0.000000,4.000000,66.666664,,,,,,,,,,,,,,,,,,,,,,,,,,,,,,,,,,,,,,,5.146167,4.138564,4.104918,1.507804,1.266068,2.505067,2.066730,2.584769,0.907903,0.622205,3.845195,22.181097,3.592367,1.525262,0.808733,0.161452,0.115248,0.037190,0.027212,0.057579,5.543271,4.036331,3.663186,1.477225,0.988569
1649887035.652228,45.000000,0.000000,4283.589844,4258.461426,4191.282227,4223.589844,4268.717773,0.000000,4.000000,86.000000,,,,0.000000,4.000000,4.000000,4.000000,0.000000,4.000000,66.666664,,,,,,,,,,,,,,,,,,,,,,,,,,,,,,,,,,,,,,,,,,,,,,,,,,,,,,,,,,,,,,,
1649887035.659942,46.000000,0.000000,4258.461426,4258.461426,4193.846191,4215.384766,4238.461426,0.000000,4.000000,86.000000,,,,0.000000,4.000000,4.000000,4.000000,0.000000,4.000000,66.666664,,,,,,,,,,,,,,,,,,,,,,,,,,,,,,,,,,,,,,,,,,,,,,,,,,,,,,,,,,,,,,,
1649887035.667757,47.000000,0.000000,4251.282227,4245.641113,4195.897461,4216.410156,4229.230957,0.000000,4.000000,86.000000,,,,0.000000,4.000000,4.000000,4.000000,0.000000,4.000000,66.666664,,,,,,,,,,,,,,,,,,,,,,,,,,,,,,,,,,,,,,,,,,,,,,,,,,,,,,,,,,,,,,,
1649887035.675471,48.000000,0.000000,4275.384766,4235.384766,4193.846191,4225.128418,4249.230957,0.000000,4.000000,86.000000,,,,0.000000,4.000000,4.000000,4.000000,0.000000,4.000000,66.666664,,,,,,,,,,,,,,,,,,,,,,,,,,,,,,,,,,,,,,,,,,,,,,,,,,,,,,,,,,,,,,,
1649887035.683186,49.000000,0.000000,4298.461426,4242.563965,4190.256348,4226.153809,4267.179688,0.000000,4.000000,86.000000,,,,0.000000,4.000000,4.000000,4.000000,0.000000,4.000000,66.666664,,,,,,,,,,,,,,,,,,,,,,,,,,,,,,,,,,,,,,,,,,,,,,,,,,,,,,,,,,,,,,,
1649887035.691000,50.000000,0.000000,4293.333496,4253.846191,4185.128418,4218.461426,4267.692383,0.000000,4.000000,86.000000,,,,0.000000,4.000000,4.000000,4.000000,0.000000,4.000000,66.666664,,,,,,,,,,,,,,,,,,,,,,,,,,,,,,,,,,,,,,,,,,,,,,,,,,,,,,,,,,,,,,,
1649887035.698715,51.000000,0.000000,4286.153809,4254.358887,4189.743652,4218.461426,4259.487305,0.000000,4.000000,86.000000,,,,0.000000,4.000000,4.000000,4.000000,0.000000,4.000000,66.666664,,,,,,,,,,,,,,,,,,,,,,,,,,,,,,,,,,,,,,,,,,,,,,,,,,,,,,,,,,,,,,,
1649887035.706529,52.000000,0.000000,4297.436035,4254.871582,4203.077148,4224.615234,4269.230957,0.000000,4.000000,86.000000,,,,0.000000,4.000000,4.000000,4.000000,0.000000,4.000000,66.666664,,,,,,,,,,,,,,,,,,,,,,,,,,,,,,,,,,,,,,,,,,,,,,,,,,,,,,,,,,,,,,,
1649887035.714243,53.000000,0.000000,4309.743652,4261.538574,4203.589844,4227.179688,4296.410156,0.000000,4.000000,86.000000,,,,0.000000,4.000000,4.000000,4.000000,0.000000,4.000000,66.666664,,,,,,,,,,,,,,,,,,,,,,,,,,,,,,,,,,,,,,,,,,,,,,,,,,,,,,,,,,,,,,,
1649887035.722158,54.000000,0.000000,4317.948730,4257.436035,4189.230957,4226.153809,4307.179688,0.000000,4.000000,86.000000,,,,0.000000,4.000000,4.000000,4.000000,0.000000,4.000000,66.666664,,,,,,,,,,,,,,,,,,,,,,,,,,,,,,,,,,,,,,,,,,,,,,,,,,,,,,,,,,,,,,,
1649887035.729972,55.000000,0.000000,4323.077148,4241.025879,4176.410156,4225.641113,4296.922852,0.000000,4.000000,86.000000,,,,0.000000,4.000000,4.000000,4.000000,0.000000,4.000000,66.666664,,,,,,,,,,,,,,,,,,,,,,,,,,,,,,,,,,,,,,,,,,,,,,,,,,,,,,,,,,,,,,,
1649887035.737787,56.000000,0.000000,4320.000000,4238.461426,4171.794922,4226.666504,4294.871582,0.000000,4.000000,86.000000,,,,0.000000,4.000000,4.000000,4.000000,0.000000,4.000000,66.666664,,,,,,,,,,,,,,,,,,,,,,,,,,,,,,,,,,,,,,,,,,,,,,,,,,,,,,,,,,,,,,,
1649887035.745701,57.000000,0.000000,4311.794922,4245.128418,4176.922852,4224.102539,4300.000000,0.000000,4.000000,86.000000,,,,0.000000,4.000000,4.000000,4.000000,0.000000,4.000000,66.666664,,,,,,,,,,,,,,,,,,,,,,,,,,,,,,,,,,,,,,,,,,,,,,,,,,,,,,,,,,,,,,,
1649887035.753615,58.000000,1.000000,4308.846191,4243.653809,4178.846191,4224.294922,4295.128418,56.250000,4.000000,86.000000,,,,0.000000,4.000000,4.000000,4.000000,0.000000,4.000000,66.666664,,,,,,,,,,,,,,,,,,,,,,,,,,,,,,,,,,,,,,,,,,,,,,,,,,,,,,,,,,,,,,,
1649887035.761430,59.000000,1.000000,4305.897461,4242.179688,4180.769043,4224.487305,4290.256348,112.500000,4.000000,86.000000,,,,0.000000,4.000000,4.000000,4.000000,0.000000,4.000000,66.666664,,,,,,,,,,,,,,,,,,,,,,,,,,,,,,,,,,,,,,,,,,,,,,,,,,,,,,,,,,,,,,,
1649887035.769244,60.000000,1.000000,4302.948730,4240.705078,4182.692383,4224.679688,4285.384766,168.750000,4.000000,86.000000,,,,0.000000,4.000000,4.000000,4.000000,0.000000,4.000000,66.666664,,,,,,,,,,,,,,,,,,,,,,,,,,,,,,,,,,,,,,,5.137447,3.805977,3.472399,1.349046,1.056863,2.661115,2.024971,2.383276,0.740889,0.581475,4.124545,21.909214,3.410392,1.235812,0.692287,0.135591,0.103117,0.032574,0.021014,0.048400,5.954260,3.484941,3.213541,1.322923,0.830876
1649887035.777058,61.000000,1.000000,4300.000000,4239.230957,4184.615234,4224.871582,4280.512695,225.000000,4.000000,86.000000,,,,0.000000,4.000000,4.000000,4.000000,0.000000,4.000000,66.666664,,,,,,,,,,,,,,,,,,,,,,,,,,,,,,,,,,,,,,,,,,,,,,,,,,,,,,,,,,,,,,,
1649887035.784873,62.000000,1.000000,4297.051270,4237.756348,4186.538574,4225.063965,4275.641113,281.250000,4.000000,86.000000,,,,0.000000,4.000000,4.000000,4.000000,0.000000,4.000000,66.666664,,,,,,,,,,,,,,,,,,,,,,,,,,,,,,,,,,,,,,,,,,,,,,,,,,,,,,,,,,,,,,,
1649887035.792687,63.000000,1.000000,4294.102539,4236.282227,4188.461426,4225.256348,4270.769043,337.500000,4.000000,86.000000,,,,0.000000,4.000000,4.000000,4.000000,0.000000,4.000000,66.666664,,,,,,,,,,,,,,,,,,,,,,,,,,,,,,,,,,,,,,,,,,,,,,,,,,,,,,,,,,,,,,,
1649887035.800502,64.000000,1.000000,4291.153809,4234.807617,4190.384766,4225.448730,4265.897461,450.000000,4.000000,86.000000,,,,0.000000,4.000000,4.000000,4.000000,0.000000,4.000000,66.666664,,,,,,,,,,,,,,,,,,,,,,,,,,,,,,,,,,,,,,,,,,,,,,,,,,,,,,,,,,,,,,,
1649887035.808316,65.000000,0.000000,4288.205078,4233.333496,4192.307617,4225.641113,4261.025879,450.000000,4.000000,86.000000,,,,0.000000,4.000000,4.000000,4.000000,0.000000,4.000000,66.666664,,,,,,,,,,,,,,,,,,,,,,,,,,,,,,,,,,,,,,,,,,,,,,,,,,,,,,,,,,,,,,,
1649887035.816130,66.000000,0.000000,4272.820313,4238.974121,4191.794922,4224.615234,4258.974121,16236.000000,4.000000,86.000000,,,,0.000000,4.000000,4.000000,4.000000,0.000000,4.000000,66.666664,,,,,,,,,,,,,,,,,,,,,,,,,,,,,,,,,,,,,,,,,,,,,,,,,,,,,,,,,,,,,,,
1649887035.823845,67.000000,0.000000,4272.307617,4247.179688,4193.846191,4224.102539,4252.307617,450.000000,4.000000,86.000000,,,,0.000000,4.000000,4.000000,4.000000,0.000000,4.000000,66.666664,,,,,,,,,,,,,,,,,,,,,,,,,,,,,,,,,,,,,,,,,,,,,,,,,,,,,,,,,,,,,,,
1649887035.831659,68.000000,0.000000,4282.563965,4253.846191,4201.025879,4224.102539,4257.436035,16202.000000,4.000000,86.000000,,,,0.000000,4.000000,4.000000,4.000000,0.000000,4.000000,66.666664,,,,,,,,,,,,,,,,,,,,,,,,,,,,,,,,,,,,,,,,,,,,,,,,,,,,,,,,,,,,,,,
1649887035.839374,69.000000,0.000000,4282.051270,4256.410156,4203.077148,4223.589844,4264.615234,450.000000,4.000000,86.000000,,,,0.000000,4.000000,4.000000,4.000000,0.000000,4.000000,66.666664,,,,,,,,,,,,,,,,,,,,,,,,,,,,,,,,,,,,,,,,,,,,,,,,,,,,,,,,,,,,,,,
1649887035.847088,70.000000,0.000000,4276.922852,4251.282227,4201.025879,4224.102539,4258.974121,16204.000000,4.000000,86.000000,,,,0.000000,4.000000,4.000000,4.000000,0.000000,4.000000,66.666664,,,,,,,,,,,,,,,,,,,,,,,,,,,,,,,,,,,,,,,,,,,,,,,,,,,,,,,,,,,,,,,
1649887035.854903,71.000000,0.000000,4280.000000,4250.769043,4203.077148,4223.589844,4255.897461,450.000000,4.000000,86.000000,,,,0.000000,4.000000,4.000000,4.000000,0.000000,4.000000,66.666664,,,,,,,,,,,,,,,,,,,,,,,,,,,,,,,,,,,,,,,,,,,,,,,,,,,,,,,,,,,,,,,
1649887035.862717,72.000000,0.000000,4290.256348,4253.846191,4203.077148,4223.589844,4264.102539,450.000000,4.000000,86.000000,,,,0.000000,4.000000,4.000000,4.000000,0.000000,4.000000,66.666664,,,,,,,,,,,,,,,,,,,,,,,,,,,,,,,,,,,,,,,,,,,,,,,,,,,,,,,,,,,,,,,
1649887035.870432,73.000000,0.000000,4293.333496,4251.282227,4202.051270,4224.102539,4266.153809,0.000000,4.000000,86.000000,,,,0.000000,4.000000,4.000000,4.000000,0.000000,4.000000,66.666664,,,,,,,,,,,,,,,,,,,,,,,,,,,,,,,,,,,,,,,,,,,,,,,,,,,,,,,,,,,,,,,
1649887035.878246,74.000000,0.000000,4292.307617,4253.333496,4205.641113,4222.563965,4267.179688,450.000000,4.000000,86.000000,,,,0.000000,4.000000,4.000000,4.000000,0.000000,4.000000,66.666664,,,,,,,,,,,,,,,,,,,,,,,,,,,,,,,,,,,,,,,,,,,,,,,,,,,,,,,,,,,,,,,
1649887035.885961,75.000000,0.000000,4292.307617,4264.615234,4209.230957,4221.025879,4274.358887,16182.000000,4.000000,86.000000,,,,0.000000,4.000000,4.000000,4.000000,0.000000,4.000000,66.666664,,,,,,,,,,,,,,,,,,,,,,,,,,,,,,,,,,,,,,,,,,,,,,,,,,,,,,,,,,,,,,,
1649887035.893675,76.000000,0.000000,4286.153809,4262.563965,4207.179688,4223.589844,4271.282227,450.000000,4.000000,86.000000,,,,0.000000,4.000000,4.000000,4.000000,0.000000,4.000000,66.666664,0.769531,66.666664,4.000000,4.000000,4.000000,0.000000,4.000000,,,,,,,,,,,,,,,,,,,,,,,,,,,,,,,,5.446998,3.304736,2.657670,1.217479,0.806775,2.768443,1.831838,2.048544,0.581107,0.522891,4.257777,19.753168,3.061932,0.920587,0.549187,0.108269,0.082624,0.026174,0.014543,0.036444,6.581760,2.813504,2.674244,1.170487,0.624604
1649887035.901390,77.000000,0.000000,4285.128418,4242.051270,4203.589844,4225.641113,4261.025879,450.000000,4.000000,86.000000,,,,0.000000,4.000000,4.000000,4.000000,0.000000,4.000000,66.666664,,,,,,,,,,,,,,,,,,,,,,,,,,,,,,,,,,,,,,,,,,,,,,,,,,,,,,,,,,,,,,,
1649887035.909304,78.000000,0.000000,4276.410156,4235.384766,4197.436035,4224.102539,4242.563965,450.000000,4.000000,86.000000,,,,0.000000,4.000000,4.000000,4.000000,0.000000,4.000000,66.666664,,,,,,,,,,,,,,,,,,,,,,,,,,,,,,,,,,,,,,,,,,,,,,,,,,,,,,,,,,,,,,,
1649887035.917118,79.000000,0.000000,4238.461426,4248.205078,4187.692383,4217.948730,4215.897461,16182.000000,4.000000,86.000000,,,,0.000000,4.000000,4.000000,4.000000,0.000000,4.000000,66.666664,,,,,,,,,,,,,,,,,,,,,,,,,,,,,,,,,,,,,,,,,,,,,,,,,,,,,,,,,,,,,,,
1649887035.924933,80.000000,0.000000,4215.897461,4248.717773,4178.974121,4214.871582,4202.051270,450.000000,4.000000,86.000000,,,,0.000000,4.000000,4.000000,4.000000,0.000000,4.000000,66.666664,,,,,,,,,,,,,,,,,,,,,,,,,,,,,,,,,,,,,,,,,,,,,,,,,,,,,,,,,,,,,,,
1649887035.932747,81.000000,0.000000,4232.820313,4229.743652,4172.307617,4218.461426,4204.615234,450.000000,4.000000,86.000000,,,,0.000000,4.000000,4.000000,4.000000,0.000000,4.000000,66.666664,,,,,,,,,,,,,,,,,,,,,,,,,,,,,,,,,,,,,,,,,,,,,,,,,,,,,,,,,,,,,,,
1649887035.940661,82.000000,0.000000,4254.358887,4228.717773,4181.025879,4221.025879,4220.000000,450.000000,4.000000,86.000000,,,,0.000000,4.000000,4.000000,4.000000,0.000000,4.000000,66.666664,,,,,,,,,,,,,,,,,,,,,,,,,,,,,,,,,,,,,,,,,,,,,,,,,,,,,,,,,,,,,,,
1649887035.948476,83.000000,0.000000,4278.974121,4255.897461,4200.000000,4222.563965,4247.692383,16182.000000,4.000000,86.000000,,,,0.000000,4.000000,4.000000,4.000000,0.000000,4.000000,66.666664,,,,,,,,,,,,,,,,,,,,,,,,,,,,,,,,,,,,,,,,,,,,,,,,,,,,,,,,,,,,,,,
1649887035.956390,84.000000,0.000000,4294.871582,4269.743652,4196.410156,4225.128418,4263.589844,450.000000,4.000000,86.000000,,,,0.000000,4.000000,4.000000,4.000000,0.000000,4.000000,66.666664,,,,,,,,,,,,,,,,,,,,,,,,,,,,,,,,,,,,,,,,,,,,,,,,,,,,,,,,,,,,,,,
1649887035.964205,85.000000,0.000000,4285.641113,4257.436035,4177.948730,4224.615234,4261.538574,450.000000,4.000000,86.000000,,,,0.000000,4.000000,4.000000,4.000000,0.000000,4.000000,66.666664,,,,,,,,,,,,,,,,,,,,,,,,,,,,,,,,,,,,,,,,,,,,,,,,,,,,,,,,,,,,,,,
1649887035.972119,86.000000,0.000000,4290.256348,4247.692383,4183.589844,4222.563965,4270.256348,450.000000,4.000000,86.000000,,,,0.000000,4.000000,4.000000,4.000000,0.000000,4.000000,66.666664,,,,,,,,,,,,,,,,,,,,,,,,,,,,,,,,,,,,,,,,,,,,,,,,,,,,,,,,,,,,,,,
1649887035.979933,87.000000,0.000000,4306.666504,4252.307617,4197.436035,4225.641113,4282.563965,16182.000000,4.000000,86.000000,,,,0.000000,4.000000,4.000000,4.000000,0.000000,4.000000,66.666664,,,,,,,,,,,,,,,,,,,,,,,,,,,,,,,,,,,,,,,,,,,,,,,,,,,,,,,,,,,,,,,
1649887035.987848,88.000000,1.000000,4301.709473,4252.079590,4195.327637,4224.786133,4277.777832,14434.000000,4.000000,86.000000,,,,0.000000,4.000000,4.000000,4.000000,0.000000,4.000000,66.666664,,,,,,,,,,,,,,,,,,,,,,,,,,,,,,,,,,,,,,,,,,,,,,,,,,,,,,,,,,,,,,,
1649887035.995662,89.000000,1.000000,4296.751953,4251.852051,4193.219238,4223.931641,4272.991211,12686.000000,4.000000,86.000000,,,,0.000000,4.000000,4.000000,4.000000,0.000000,4.000000,66.666664,,,,,,,,,,,,,,,,,,,,,,,,,,,,,,,,,,,,,,,,,,,,,,,,,,,,,,,,,,,,,,,
1649887036.003476,90.000000,1.000000,4291.794922,4251.624023,4191.111328,4223.077148,4268.205078,10938.000000,4.000000,86.000000,,,,0.000000,4.000000,4.000000,4.000000,0.000000,4.000000,66.666664,,,,,,,,,,,,,,,,,,,,,,,,,,,,,,,,,,,,,,,,,,,,,,,,,,,,,,,,,,,,,,,
1649887036.011291,91.000000,1.000000,4286.837402,4251.395996,4189.002930,4222.222168,4263.418945,9190.000000,4.000000,86.000000,,,,0.000000,4.000000,4.000000,4.000000,0.000000,4.000000,66.666664,,,,,,,,,,,,,,,,,,,,,,,,,,,,,,,,,,,,,,,,,,,,,,,,,,,,,,,,,,,,,,,
1649887036.019105,92.000000,1.000000,4281.880371,4251.167969,4186.894531,4221.367676,4258.632324,7442.000000,4.000000,86.000000,,,,0.000000,4.000000,4.000000,4.000000,0.000000,4.000000,66.666664,,,,,,,,,,,,,,,,,,,,,,,,,,,,,,,,,,,,,,,6.224771,2.834797,1.900097,1.160131,0.585602,2.833745,1.562398,1.685550,0.471486,0.463933,4.332254,16.280190,2.622228,0.656629,0.420441,0.092363,0.062871,0.020362,0.010431,0.026597,7.497845,2.294436,2.221586,1.068171,0.434732
1649887036.026920,93.000000,1.000000,4276.922852,4250.939941,4184.786133,4220.512695,4253.846191,5694.000000,4.000000,86.000000,,,,0.000000,4.000000,4.000000,4.000000,0.000000,4.000000,66.666664,,,,,,,,,,,,,,,,,,,,,,,,,,,,,,,,,,,,,,,,,,,,,,,,,,,,,,,,,,,,,,,
1649887036.034734,94.000000,1.000000,4271.965820,4250.712402,4182.678223,4219.658203,4249.060059,3946.000000,4.000000,86.000000,,,,0.000000,4.000000,4.000000,4.000000,0.000000,4.000000,66.666664,,,,,,,,,,,,,,,,,,,,,,,,,,,,,,,,,,,,,,,,,,,,,,,,,,,,,,,,,,,,,,,
1649887036.042548,95.000000,1.000000,4267.008789,4250.484375,4180.569824,4218.803223,4244.273438,2198.000000,4.000000,86.000000,,,,0.000000,4.000000,4.000000,4.000000,0.000000,4.000000,66.666664,,,,,,,,,,,,,,,,,,,,,,,,,,,,,,,,,,,,,,,,,,,,,,,,,,,,,,,,,,,,,,,
1649887036.050363,96.000000,0.000000,4262.051270,4250.256348,4178.461426,4217.948730,4239.487305,450.000000,4.000000,86.000000,,,,0.000000,4.000000,4.000000,4.000000,0.000000,4.000000,66.666664,,,,,,,,,,,,,,,,,,,,,,,,,,,,,,,,,,,,,,,,,,,,,,,,,,,,,,,,,,,,,,,
1649887036.058077,97.000000,0.000000,4267.692383,4242.051270,4179.487305,4223.077148,4245.128418,450.000000,4.000000,86.000000,,,,0.000000,4.000000,4.000000,4.000000,0.000000,4.000000,66.666664,,,,,,,,,,,,,,,,,,,,,,,,,,,,,,,,,,,,,,,,,,,,,,,,,,,,,,,,,,,,,,,
1649887036.065892,98.000000,0.000000,4276.922852,4231.282227,4177.436035,4223.077148,4249.230957,450.000000,4.000000,86.000000,,,,0.000000,4.000000,4.000000,4.000000,0.000000,4.000000,66.666664,,,,,,,,,,,,,,,,,,,,,,,,,,,,,,,,,,,,,,,,,,,,,,,,,,,,,,,,,,,,,,,
1649887036.073706,99.000000,0.000000,4276.922852,4233.846191,4182.563965,4221.025879,4257.948730,16182.000000,4.000000,86.000000,,,,0.000000,4.000000,4.000000,4.000000,0.000000,4.000000,66.666664,,,,,,,,,,,,,,,,,,,,,,,,,,,,,,,,,,,,,,,,,,,,,,,,,,,,,,,,,,,,,,,
1649887036.081521,100.000000,0.000000,4282.563965,4257.436035,4197.948730,4224.615234,4265.641113,450.000000,4.000000,86.000000,,,,0.000000,4.000000,4.000000,4.000000,0.000000,4.000000,66.666664,,,,,,,,,,,,,,,,,,,,,,,,,,,,,,,,,,,,,,,,,,,,,,,,,,,,,,,,,,,,,,,
1649887036.089235,101.000000,0.000000,4276.410156,4269.743652,4198.974121,4226.153809,4247.179688,450.000000,4.000000,86.000000,,,,0.000000,4.000000,4.000000,4.000000,0.000000,4.000000,66.666664,,,,,,,,,,,,,,,,,,,,,,,,,,,,,,,,,,,,,,,,,,,,,,,,,,,,,,,,,,,,,,,
1649887036.097050,102.000000,0.000000,4247.179688,4245.641113,4181.538574,4216.922852,4217.436035,450.000000,4.000000,86.000000,,,,0.000000,4.000000,4.000000,4.000000,0.000000,4.000000,66.666664,,,,,,,,,,,,,,,,,,,,,,,,,,,,,,,,,,,,,,,,,,,,,,,,,,,,,,,,,,,,,,,
1649887036.104764,103.000000,0.000000,4233.333496,4220.512695,4175.897461,4215.384766,4214.358887,16182.000000,4.000000,86.000000,,,,0.000000,4.000000,4.000000,4.000000,0.000000,4.000000,66.666664,,,,,,,,,,,,,,,,,,,,,,,,,,,,,,,,,,,,,,,,,,,,,,,,,,,,,,,,,,,,,,,
1649887036.112578,104.000000,0.000000,4240.512695,4230.769043,4183.077148,4221.538574,4225.641113,450.000000,4.000000,86.000000,,,,0.000000,4.000000,4.000000,4.000000,0.000000,4.000000,66.666664,,,,,,,,,,,,,,,,,,,,,,,,,,,,,,,,,,,,,,,,,,,,,,,,,,,,,,,,,,,,,,,
1649887036.120293,105.000000,0.000000,4242.051270,4250.769043,4177.948730,4217.948730,4225.641113,450.000000,4.000000,86.000000,,,,0.000000,4.000000,4.000000,4.000000,0.000000,4.000000,66.666664,,,,,,,,,,,,,,,,,,,,,,,,,,,,,,,,,,,,,,,,,,,,,,,,,,,,,,,,,,,,,,,
1649887036.128107,106.000000,0.000000,4247.692383,4247.179688,4168.205078,4215.384766,4231.794922,450.000000,4.000000,86.000000,,,,0.000000,4.000000,4.000000,4.000000,0.000000,4.000000,66.666664,,,,,,,,,,,,,,,,,,,,,,,,,,,,,,,,,,,,,,,,,,,,,,,,,,,,,,,,,,,,,,,
1649887036.135822,107.000000,0.000000,4257.948730,4243.077148,4167.179688,4218.974121,4238.461426,16182.000000,4.000000,86.000000,,,,0.000000,4.000000,4.000000,4.000000,0.000000,4.000000,66.666664,,,,,,,,,,,,,,,,,,,,,,,,,,,,,,,,,,,,,,,,,,,,,,,,,,,,,,,,,,,,,,,
1649887036.143636,108.000000,0.000000,4252.820313,4247.692383,4170.256348,4219.487305,4232.307617,450.000000,4.000000,86.000000,,,,0.000000,4.000000,4.000000,4.000000,0.000000,4.000000,66.666664,,,,,,,,,,,,,,,,,,,,,,,,,,,,,,,,,,,,,,,7.445339,2.666546,1.351627,1.169266,0.439304,2.879055,1.310989,1.378466,0.423460,0.416176,4.425655,12.265807,2.129385,0.485634,0.329565,0.093892,0.052642,0.017088,0.010342,0.022361,8.677158,2.232541,1.937667,1.015507,0.309410
1649887036.151351,109.000000,0.000000,4239.487305,4247.179688,4178.461426,4217.948730,4224.102539,450.000000,4.000000,86.000000,,,,0.000000,4.000000,4.000000,4.000000,0.000000,4.000000,66.666664,,,,,,,,,,,,,,,,,,,,,,,,,,,,,,,,,,,,,,,,,,,,,,,,,,,,,,,,,,,,,,,
1649887036.159065,110.000000,0.000000,4238.974121,4245.641113,4188.205078,4216.922852,4221.538574,450.000000,4.000000,86.000000,,,,0.000000,4.000000,4.000000,4.000000,0.000000,4.000000,66.666664,,,,,,,,,,,,,,,,,,,,,,,,,,,,,,,,,,,,,,,,,,,,,,,,,,,,,,,,,,,,,,,
1649887036.166880,111.000000,0.000000,4255.384766,4254.358887,4193.333496,4217.948730,4227.692383,16182.000000,4.000000,86.000000,,,,0.000000,4.000000,4.000000,4.000000,0.000000,4.000000,66.666664,,,,,,,,,,,,,,,,,,,,,,,,,,,,,,,,,,,,,,,,,,,,,,,,,,,,,,,,,,,,,,,
1649887036.174694,112.000000,0.000000,4265.641113,4262.563965,4191.794922,4217.948730,4233.846191,450.000000,4.000000,86.000000,,,,0.000000,4.000000,4.000000,4.000000,0.000000,4.000000,66.666664,,,,,,,,,,,,,,,,,,,,,,,,,,,,,,,,,,,,,,,,,,,,,,,,,,,,,,,,,,,,,,,
1649887036.182409,113.000000,0.000000,4254.871582,4253.333496,4184.615234,4217.436035,4227.692383,450.000000,4.000000,86.000000,,,,0.000000,4.000000,4.000000,4.000000,0.000000,4.000000,66.666664,,,,,,,,,,,,,,,,,,,,,,,,,,,,,,,,,,,,,,,,,,,,,,,,,,,,,,,,,,,,,,,
1649887036.190223,114.000000,0.000000,4245.128418,4232.307617,4174.358887,4217.436035,4229.230957,450.000000,4.000000,86.000000,,,,0.000000,4.000000,4.000000,4.000000,0.000000,4.000000,66.666664,,,,,,,,,,,,,,,,,,,,,,,,,,,,,,,,,,,,,,,,,,,,,,,,,,,,,,,,,,,,,,,
1649887036.197938,115.000000,0.000000,4252.820313,4230.256348,4169.743652,4220.000000,4243.589844,16182.000000,4.000000,86.000000,,,,0.000000,4.000000,4.000000,4.000000,0.000000,4.000000,66.666664,,,,,,,,,,,,,,,,,,,,,,,,,,,,,,,,,,,,,,,,,,,,,,,,,,,,,,,,,,,,,,,
1649887036.205652,116.000000,0.000000,4256.410156,4243.077148,4170.769043,4221.025879,4238.461426,450.000000,4.000000,86.000000,,,,0.000000,4.000000,4.000000,4.000000,0.000000,4.000000,66.666664,,,,,,,,,,,,,,,,,,,,,,,,,,,,,,,,,,,,,,,,,,,,,,,,,,,,,,,,,,,,,,,
1649887036.213466,117.000000,0.000000,4243.589844,4231.794922,4162.563965,4218.461426,4213.846191,450.000000,4.000000,86.000000,,,,0.000000,4.000000,4.000000,4.000000,0.000000,4.000000,66.666664,,,,,,,,,,,,,,,,,,,,,,,,,,,,,,,,,,,,,,,,,,,,,,,,,,,,,,,,,,,,,,,
1649887036.221181,118.000000,0.000000,4230.256348,4216.410156,4151.794922,4216.410156,4201.538574,450.000000,4.000000,86.000000,,,,0.000000,4.000000,4.000000,4.000000,0.000000,4.000000,66.666664,,,,,,,,,,,,,,,,,,,,,,,,,,,,,,,,,,,,,,,,,,,,,,,,,,,,,,,,,,,,,,,
1649887036.228895,119.000000,0.000000,4238.461426,4230.769043,4158.974121,4217.436035,4215.384766,16182.000000,4.000000,86.000000,,,,0.000000,4.000000,4.000000,4.000000,0.000000,4.000000,66.666664,,,,,,,,,,,,,,,,,,,,,,,,,,,,,,,,,,,,,,,,,,,,,,,,,,,,,,,,,,,,,,,
1649887036.236710,120.000000,0.000000,4260.000000,4243.589844,4173.846191,4217.948730,4235.384766,450.000000,4.000000,86.000000,,,,0.000000,4.000000,4.000000,4.000000,0.000000,4.000000,66.666664,,,,,,,,,,,,,,,,,,,,,,,,,,,,,,,,,,,,,,,,,,,,,,,,,,,,,,,,,,,,,,,
1649887036.244524,121.000000,0.000000,4257.436035,4240.000000,4176.922852,4216.922852,4231.794922,450.000000,4.000000,86.000000,,,,0.000000,4.000000,4.000000,4.000000,0.000000,4.000000,66.666664,,,,,,,,,,,,,,,,,,,,,,,,,,,,,,,,,,,,,,,,,,,,,,,,,,,,,,,,,,,,,,,
1649887036.252239,122.000000,0.000000,4240.000000,4241.538574,4172.307617,4217.436035,4210.769043,450.000000,4.000000,86.000000,,,,0.000000,4.000000,4.000000,4.000000,0.000000,4.000000,66.666664,,,,,,,,,,,,,,,,,,,,,,,,,,,,,,,,,,,,,,,,,,,,,,,,,,,,,,,,,,,,,,,
1649887036.260053,123.000000,0.000000,4240.000000,4244.102539,4165.641113,4217.948730,4202.051270,16182.000000,4.000000,86.000000,,,,0.000000,4.000000,4.000000,4.000000,0.000000,4.000000,66.666664,,,,,,,,,,,,,,,,,,,,,,,,,,,,,,,,,,,,,,,,,,,,,,,,,,,,,,,,,,,,,,,
1649887036.267768,124.000000,0.000000,4246.153809,4243.077148,4160.000000,4217.436035,4213.333496,450.000000,4.000000,86.000000,,,,0.000000,4.000000,4.000000,4.000000,0.000000,4.000000,66.666664,,,,,,,,,,,,,,,,,,,,,,,,,,,,,,,,,,,,,,,8.844033,3.029997,1.047258,1.209731,0.375738,2.892125,1.140053,1.167218,0.422565,0.384606,4.526041,8.438009,1.605555,0.409475,0.276847,0.109005,0.057423,0.017117,0.014583,0.024278,9.919210,2.833956,1.814891,0.987889,0.261500
1649887036.275582,125.000000,0.000000,4245.641113,4240.000000,4160.000000,4217.436035,4223.077148,450.000000,4.000000,86.000000,,,,0.000000,4.000000,4.000000,4.000000,0.000000,4.000000,66.666664,,,,,,,,,,,,,,,,,,,,,,,,,,,,,,,,,,,,,,,,,,,,,,,,,,,,,,,,,,,,,,,
1649887036.283297,126.000000,0.000000,4234.358887,4227.692383,4155.897461,4217.436035,4220.000000,450.000000,4.000000,86.000000,,,,0.000000,4.000000,4.000000,4.000000,0.000000,4.000000,66.666664,,,,,,,,,,,,,,,,,,,,,,,,,,,,,,,,,,,,,,,,,,,,,,,,,,,,,,,,,,,,,,,
1649887036.291111,127.000000,0.000000,4230.256348,4224.615234,4152.307617,4216.922852,4217.948730,241.000000,4.000000,86.000000,,,,0.000000,4.000000,4.000000,4.000000,0.000000,4.000000,66.666664,,,,,,,,,,,,,,,,,,,,,,,,,,,,,,,,,,,,,,,,,,,,,,,,,,,,,,,,,,,,,,,
1649887036.298826,0.000000,0.000000,4245.128418,4237.948730,4167.692383,4216.922852,4229.230957,450.000000,4.000000,86.000000,,,,0.000000,4.000000,4.000000,4.000000,0.000000,4.000000,66.666664,,,,,,,,,,,,,,,,,,,,,,,,,,,,,,,,,,,,,,,,,,,,,,,,,,,,,,,,,,,,,,,
1649887036.306540,1.000000,0.000000,4254.358887,4246.153809,4185.128418,4217.436035,4236.410156,450.000000,4.000000,86.000000,,,,0.000000,4.000000,4.000000,4.000000,0.000000,4.000000,66.666664,,,,,,,,,,,,,,,,,,,,,,,,,,,,,,,,,,,,,,,,,,,,,,,,,,,,,,,,,,,,,,,
1649887036.314454,2.000000,0.000000,4254.871582,4235.897461,4185.641113,4217.436035,4227.692383,16209.000000,4.000000,86.000000,,,,0.000000,4.000000,4.000000,4.000000,0.000000,4.000000,66.666664,,,,,,,,,,,,,,,,,,,,,,,,,,,,,,,,,,,,,,,,,,,,,,,,,,,,,,,,,,,,,,,
1649887036.322269,3.000000,0.000000,4261.025879,4228.717773,4175.384766,4218.461426,4228.205078,450.000000,4.000000,86.000000,,,,0.000000,4.000000,4.000000,4.000000,0.000000,4.000000,66.666664,,,,,,,,,,,,,,,,,,,,,,,,,,,,,,,,,,,,,,,,,,,,,,,,,,,,,,,,,,,,,,,
1649887036.330083,4.000000,0.000000,4258.461426,4241.538574,4165.641113,4218.461426,4241.025879,16185.000000,4.000000,86.000000,,,,0.000000,4.000000,4.000000,4.000000,0.000000,4.000000,66.666664,,,,,,,,,,,,,,,,,,,,,,,,,,,,,,,,,,,,,,,,,,,,,,,,,,,,,,,,,,,,,,,
1649887036.337898,5.000000,0.000000,4251.282227,4250.769043,4161.025879,4216.922852,4237.436035,450.000000,4.000000,86.000000,,,,0.000000,4.000000,4.000000,4.000000,0.000000,4.000000,66.666664,,,,,,,,,,,,,,,,,,,,,,,,,,,,,,,,,,,,,,,,,,,,,,,,,,,,,,,,,,,,,,,
1649887036.345612,6.000000,0.000000,4257.948730,4244.102539,4163.589844,4218.461426,4225.641113,16164.000000,4.000000,86.000000,,,,0.000000,4.000000,4.000000,4.000000,0.000000,4.000000,66.666664,,,,,,,,,,,,,,,,,,,,,,,,,,,,,,,,,,,,,,,,,,,,,,,,,,,,,,,,,,,,,,,
1649887036.353526,7.000000,0.000000,4259.487305,4248.205078,4169.230957,4219.487305,4226.153809,450.000000,4.000000,86.000000,,,,0.000000,4.000000,4.000000,4.000000,0.000000,4.000000,66.666664,,,,,,,,,,,,,,,,,,,,,,,,,,,,,,,,,,,,,,,,,,,,,,,,,,,,,,,,,,,,,,,
1649887036.361341,8.000000,0.000000,4255.384766,4260.512695,4170.256348,4217.436035,4232.307617,450.000000,4.000000,86.000000,,,,0.000000,4.000000,4.000000,4.000000,0.000000,4.000000,66.666664,,,,,,,,,,,,,,,,,,,,,,,,,,,,,,,,,,,,,,,,,,,,,,,,,,,,,,,,,,,,,,,
1649887036.369255,9.000000,0.000000,4246.666504,4246.666504,4170.256348,4216.922852,4224.102539,0.000000,4.000000,86.000000,,,,0.000000,4.000000,4.000000,4.000000,0.000000,4.000000,66.666664,,,,,,,,,,,,,,,,,,,,,,,,,,,,,,,,,,,,,,,,,,,,,,,,,,,,,,,,,,,,,,,
1649887036.377070,10.000000,0.000000,4234.358887,4230.256348,4173.333496,4217.948730,4212.820313,450.000000,4.000000,86.000000,,,,0.000000,4.000000,4.000000,4.000000,0.000000,4.000000,66.666664,,,,,,,,,,,,,,,,,,,,,,,,,,,,,,,,,,,,,,,,,,,,,,,,,,,,,,,,,,,,,,,
1649887036.384984,11.000000,0.000000,4246.666504,4240.000000,4174.358887,4217.436035,4218.974121,16219.000000,4.000000,86.000000,,,,0.000000,4.000000,4.000000,4.000000,0.000000,4.000000,66.666664,,,,,,,,,,,,,,,,,,,,,,,,,,,,,,,,,,,,,,,,,,,,,,,,,,,,,,,,,,,,,,,
1649887036.392798,12.000000,0.000000,4263.589844,4246.666504,4178.461426,4218.461426,4230.256348,450.000000,4.000000,86.000000,,,,0.000000,4.000000,4.000000,4.000000,0.000000,4.000000,66.666664,0.820313,66.666664,4.000000,4.000000,4.000000,0.000000,4.000000,,,,,,,,,,,,,,,,,,,,,,,,,,,,,,,,9.996517,3.958262,0.930016,1.255186,0.370999,2.799119,1.038835,1.043689,0.451650,0.371935,4.504876,5.297494,1.096076,0.400460,0.247558,0.126894,0.076507,0.019729,0.022044,0.030196,10.883204,4.052794,1.787781,0.975868,0.270927
1649887036.400713,13.000000,0.000000,4261.025879,4240.512695,4183.077148,4219.487305,4231.794922,450.000000,4.000000,86.000000,,,,0.000000,4.000000,4.000000,4.000000,0.000000,4.000000,66.666664,,,,,,,,,,,,,,,,,,,,,,,,,,,,,,,,,,,,,,,,,,,,,,,,,,,,,,,,,,,,,,,
1649887036.408627,14.000000,0.000000,4256.922852,4241.025879,4174.871582,4218.974121,4226.153809,450.000000,4.000000,86.000000,,,,0.000000,4.000000,4.000000,4.000000,0.000000,4.000000,66.666664,,,,,,,,,,,,,,,,,,,,,,,,,,,,,,,,,,,,,,,,,,,,,,,,,,,,,,,,,,,,,,,
1649887036.416441,15.000000,0.000000,4251.282227,4248.717773,4166.666504,4217.436035,4226.153809,16219.000000,4.000000,86.000000,,,,0.000000,4.000000,4.000000,4.000000,0.000000,4.000000,66.666664,,,,,,,,,,,,,,,,,,,,,,,,,,,,,,,,,,,,,,,,,,,,,,,,,,,,,,,,,,,,,,,
1649887036.424256,16.000000,0.000000,4249.743652,4242.051270,4164.615234,4217.436035,4231.282227,0.000000,4.000000,86.000000,,,,0.000000,4.000000,4.000000,4.000000,0.000000,4.000000,66.666664,,,,,,,,,,,,,,,,,,,,,,,,,,,,,,,,,,,,,,,,,,,,,,,,,,,,,,,,,,,,,,,
1649887036.432170,17.000000,0.000000,4260.000000,4232.307617,4160.512695,4218.461426,4230.769043,0.000000,4.000000,86.000000,,,,0.000000,4.000000,4.000000,4.000000,0.000000,4.000000,66.666664,,,,,,,,,,,,,,,,,,,,,,,,,,,,,,,,,,,,,,,,,,,,,,,,,,,,,,,,,,,,,,,
1649887036.439984,18.000000,0.000000,4254.358887,4241.538574,4158.974121,4218.461426,4223.589844,0.000000,4.000000,86.000000,,,,0.000000,4.000000,4.000000,4.000000,0.000000,4.000000,66.666664,,,,,,,,,,,,,,,,,,,,,,,,,,,,,,,,,,,,,,,,,,,,,,,,,,,,,,,,,,,,,,,
1649887036.447899,19.000000,0.000000,4242.563965,4248.205078,4165.641113,4217.436035,4220.512695,0.000000,4.000000,86.000000,,,,0.000000,4.000000,4.000000,4.000000,0.000000,4.000000,66.666664,,,,,,,,,,,,,,,,,,,,,,,,,,,,,,,,,,,,,,,,,,,,,,,,,,,,,,,,,,,,,,,
1649887036.455713,20.000000,0.000000,4249.743652,4242.051270,4171.282227,4217.436035,4227.179688,0.000000,4.000000,86.000000,,,,0.000000,4.000000,4.000000,4.000000,0.000000,4.000000,66.666664,,,,,,,,,,,,,,,,,,,,,,,,,,,,,,,,,,,,,,,,,,,,,,,,,,,,,,,,,,,,,,,
1649887036.463627,21.000000,1.000000,4252.478516,4241.766602,4171.965820,4217.549805,4228.433105,0.000000,4.000000,86.000000,,,,0.000000,4.000000,4.000000,4.000000,0.000000,4.000000,66.666664,,,,,,,,,,,,,,,,,,,,,,,,,,,,,,,,,,,,,,,,,,,,,,,,,,,,,,,,,,,,,,,
1649887036.471442,22.000000,1.000000,4255.213867,4241.481445,4172.649414,4217.663574,4229.686523,0.000000,4.000000,86.000000,,,,0.000000,4.000000,4.000000,4.000000,0.000000,4.000000,66.666664,,,,,,,,,,,,,,,,,,,,,,,,,,,,,,,,,,,,,,,,,,,,,,,,,,,,,,,,,,,,,,,
1649887036.479256,23.000000,1.000000,4257.948730,4241.196777,4173.333496,4217.777832,4230.939941,0.000000,4.000000,86.000000,,,,0.000000,4.000000,4.000000,4.000000,0.000000,4.000000,66.666664,,,,,,,,,,,,,,,,,,,,,,,,,,,,,,,,,,,,,,,,,,,,,,,,,,,,,,,,,,,,,,,
1649887036.487071,24.000000,1.000000,4260.683594,4240.911621,4174.017090,4217.891602,4232.193848,0.000000,4.000000,86.000000,,,,0.000000,4.000000,4.000000,4.000000,0.000000,4.000000,66.666664,,,,,,,,,,,,,,,,,,,,,,,,,,,,,,,,,,,,,,,,,,,,,,,,,,,,,,,,,,,,,,,
1649887036.494885,25.000000,1.000000,4263.418945,4240.626953,4174.700684,4218.005859,4233.447266,0.000000,4.000000,86.000000,,,,0.000000,4.000000,4.000000,4.000000,0.000000,4.000000,66.666664,,,,,,,,,,,,,,,,,,,,,,,,,,,,,,,,,,,,,,,,,,,,,,,,,,,,,,,,,,,,,,,
1649887036.502699,26.000000,1.000000,4266.153809,4240.341797,4175.384766,4218.119629,4234.700684,0.000000,4.000000,86.000000,,,,0.000000,4.000000,4.000000,4.000000,0.000000,4.000000,66.666664,,,,,,,,,,,,,,,,,,,,,,,,,,,,,,,,,,,,,,,,,,,,,,,,,,,,,,,,,,,,,,,
1649887036.510514,27.000000,1.000000,4268.888672,4240.057129,4176.068359,4218.233398,4235.954590,0.000000,4.000000,86.000000,,,,0.000000,4.000000,4.000000,4.000000,0.000000,4.000000,66.666664,,,,,,,,,,,,,,,,,,,,,,,,,,,,,,,,,,,,,,,,,,,,,,,,,,,,,,,,,,,,,,,
1649887036.518328,28.000000,1.000000,4271.624023,4239.771973,4176.751953,4218.347656,4237.208008,0.000000,4.000000,86.000000,,,,0.000000,4.000000,4.000000,4.000000,0.000000,4.000000,66.666664,,,,,,,,,,,,,,,,,,,,,,,,,,,,,,,,,,,,,,,10.484684,5.238370,0.910421,1.304173,0.393569,2.570333,0.972731,0.979132,0.507326,0.380989,4.235741,3.095431,0.702366,0.427670,0.227908,0.136233,0.102904,0.023458,0.030697,0.036758,11.217799,5.576774,1.788137,0.997658,0.306584
1649887036.526143,29.000000,0.000000,4274.358887,4239.487305,4177.436035,4218.461426,4238.461426,0.000000,4.000000,86.000000,,,,0.000000,4.000000,4.000000,4.000000,0.000000,4.000000,66.666664,,,,,,,,,,,,,,,,,,,,,,,,,,,,,,,,,,,,,,,,,,,,,,,,,,,,,,,,,,,,,,,
1649887036.533857,30.000000,0.000000,4262.051270,4242.563965,4181.025879,4218.974121,4236.410156,0.000000,4.000000,86.000000,,,,0.000000,4.000000,4.000000,4.000000,0.000000,4.000000,66.666664,,,,,,,,,,,,,,,,,,,,,,,,,,,,,,,,,,,,,,,,,,,,,,,,,,,,,,,,,,,,,,,
1649887036.541672,31.000000,0.000000,4257.436035,4266.666504,4187.692383,4217.948730,4235.897461,0.000000,4.000000,86.000000,,,,0.000000,4.000000,4.000000,4.000000,0.000000,4.000000,66.666664,,,,,,,,,,,,,,,,,,,,,,,,,,,,,,,,,,,,,,,,,,,,,,,,,,,,,,,,,,,,,,,
1649887036.549386,32.000000,0.000000,4270.769043,4266.153809,4182.051270,4218.461426,4229.230957,0.000000,4.000000,86.000000,,,,0.000000,4.000000,4.000000,4.000000,0.000000,4.000000,66.666664,,,,,,,,,,,,,,,,,,,,,,,,,,,,,,,,,,,,,,,,,,,,,,,,,,,,,,,,,,,,,,,
1649887036.557200,33.000000,0.000000,4264.615234,4247.179688,4178.461426,4218.461426,4226.153809,0.000000,4.000000,86.000000,,,,0.000000,4.000000,4.000000,4.000000,0.000000,4.000000,66.666664,,,,,,,,,,,,,,,,,,,,,,,,,,,,,,,,,,,,,,,,,,,,,,,,,,,,,,,,,,,,,,,
1649887036.564915,34.000000,0.000000,4242.563965,4247.692383,4186.666504,4218.461426,4226.153809,0.000000,4.000000,86.000000,,,,0.000000,4.000000,4.000000,4.000000,0.000000,4.000000,66.666664,,,,,,,,,,,,,,,,,,,,,,,,,,,,,,,,,,,,,,,,,,,,,,,,,,,,,,,,,,,,,,,
1649887036.572729,35.000000,0.000000,4240.000000,4254.871582,4187.179688,4218.461426,4221.538574,0.000000,4.000000,86.000000,,,,0.000000,4.000000,4.000000,4.000000,0.000000,4.000000,66.666664,,,,,,,,,,,,,,,,,,,,,,,,,,,,,,,,,,,,,,,,,,,,,,,,,,,,,,,,,,,,,,,
1649887036.580544,36.000000,0.000000,4246.666504,4246.153809,4173.846191,4218.461426,4213.846191,0.000000,4.000000,86.000000,,,,0.000000,4.000000,4.000000,4.000000,0.000000,4.000000,66.666664,,,,,,,,,,,,,,,,,,,,,,,,,,,,,,,,,,,,,,,,,,,,,,,,,,,,,,,,,,,,,,,
1649887036.588258,37.000000,0.000000,4251.794922,4235.897461,4166.153809,4217.948730,4218.461426,0.000000,4.000000,86.000000,,,,0.000000,4.000000,4.000000,4.000000,0.000000,4.000000,66.666664,,,,,,,,,,,,,,,,,,,,,,,,,,,,,,,,,,,,,,,,,,,,,,,,,,,,,,,,,,,,,,,
1649887036.596073,38.000000,0.000000,4262.563965,4245.128418,4170.256348,4219.487305,4238.461426,0.000000,4.000000,86.000000,,,,0.000000,4.000000,4.000000,4.000000,0.000000,4.000000,66.666664,,,,,,,,,,,,,,,,,,,,,,,,,,,,,,,,,,,,,,,,,,,,,,,,,,,,,,,,,,,,,,,
1649887036.603787,39.000000,0.000000,4257.948730,4263.589844,4178.461426,4218.974121,4249.230957,0.000000,4.000000,86.000000,,,,0.000000,4.000000,4.000000,4.000000,0.000000,4.000000,66.666664,,,,,,,,,,,,,,,,,,,,,,,,,,,,,,,,,,,,,,,,,,,,,,,,,,,,,,,,,,,,,,,
1649887036.611502,40.000000,0.000000,4251.794922,4271.282227,4184.615234,4217.436035,4240.512695,0.000000,4.000000,86.000000,,,,0.000000,4.000000,4.000000,4.000000,0.000000,4.000000,66.666664,,,,,,,,,,,,,,,,,,,,,,,,,,,,,,,,,,,,,,,,,,,,,,,,,,,,,,,,,,,,,,,
1649887036.619316,41.000000,0.000000,4276.922852,4265.128418,4186.666504,4221.538574,4242.563965,0.000000,4.000000,86.000000,,,,0.000000,4.000000,4.000000,4.000000,0.000000,4.000000,66.666664,,,,,,,,,,,,,,,,,,,,,,,,,,,,,,,,,,,,,,,,,,,,,,,,,,,,,,,,,,,,,,,
1649887036.627131,42.000000,0.000000,4282.563965,4248.717773,4182.051270,4222.563965,4250.769043,0.000000,4.000000,86.000000,,,,0.000000,4.000000,4.000000,4.000000,0.000000,4.000000,66.666664,,,,,,,,,,,,,,,,,,,,,,,,,,,,,,,,,,,,,,,,,,,,,,,,,,,,,,,,,,,,,,,
1649887036.634845,43.000000,0.000000,4255.897461,4240.000000,4174.358887,4217.948730,4247.179688,0.000000,4.000000,86.000000,,,,0.000000,4.000000,4.000000,4.000000,0.000000,4.000000,66.666664,,,,,,,,,,,,,,,,,,,,,,,,,,,,,,,,,,,,,,,,,,,,,,,,,,,,,,,,,,,,,,,
1649887036.642560,44.000000,0.000000,4254.871582,4249.743652,4168.205078,4217.436035,4242.051270,0.000000,4.000000,86.000000,,,,0.000000,4.000000,4.000000,4.000000,0.000000,4.000000,66.666664,,,,,,,,,,,,,,,,,,,,,,,,,,,,,,,,,,,,,,,10.162971,6.548472,0.935901,1.363648,0.426106,2.227349,0.928671,0.959886,0.591279,0.412693,3.682348,1.844831,0.554637,0.468567,0.214095,0.129795,0.126900,0.027034,0.038232,0.041235,10.805999,7.026268,1.788483,1.077540,0.349453
1649887036.650274,45.000000,0.000000,4256.922852,4249.230957,4162.563965,4218.974121,4228.717773,0.000000,4.000000,86.000000,,,,0.000000,4.000000,4.000000,4.000000,0.000000,4.000000,66.666664,,,,,,,,,,,,,,,,,,,,,,,,,,,,,,,,,,,,,,,,,,,,,,,,,,,,,,,,,,,,,,,
1649887036.658188,46.000000,0.000000,4224.615234,4229.743652,4157.436035,4217.436035,4208.717773,0.000000,4.000000,86.000000,,,,0.000000,4.000000,4.000000,4.000000,0.000000,4.000000,66.666664,,,,,,,,,,,,,,,,,,,,,,,,,,,,,,,,,,,,,,,,,,,,,,,,,,,,,,,,,,,,,,,
1649887036.666003,47.000000,0.000000,4201.538574,4220.000000,4151.282227,4215.897461,4196.410156,0.000000,4.000000,86.000000,,,,0.000000,4.000000,4.000000,4.000000,0.000000,4.000000,66.666664,,,,,,,,,,,,,,,,,,,,,,,,,,,,,,,,,,,,,,,,,,,,,,,,,,,,,,,,,,,,,,,
1649887036.673817,48.000000,0.000000,4215.384766,4230.256348,4156.410156,4216.922852,4191.794922,0.000000,4.000000,86.000000,,,,0.000000,4.000000,4.000000,4.000000,0.000000,4.000000,66.666664,,,,,,,,,,,,,,,,,,,,,,,,,,,,,,,,,,,,,,,,,,,,,,,,,,,,,,,,,,,,,,,
1649887036.681632,49.000000,0.000000,4243.077148,4252.307617,4167.692383,4216.922852,4208.717773,0.000000,4.000000,86.000000,,,,0.000000,4.000000,4.000000,4.000000,0.000000,4.000000,66.666664,,,,,,,,,,,,,,,,,,,,,,,,,,,,,,,,,,,,,,,,,,,,,,,,,,,,,,,,,,,,,,,
1649887036.689546,50.000000,0.000000,4258.461426,4257.436035,4169.743652,4217.436035,4231.282227,0.000000,4.000000,86.000000,,,,0.000000,4.000000,4.000000,4.000000,0.000000,4.000000,66.666664,,,,,,,,,,,,,,,,,,,,,,,,,,,,,,,,,,,,,,,,,,,,,,,,,,,,,,,,,,,,,,,
1649887036.697360,51.000000,0.000000,4250.769043,4235.384766,4165.641113,4218.974121,4226.666504,0.000000,4.000000,86.000000,,,,0.000000,4.000000,4.000000,4.000000,0.000000,4.000000,66.666664,,,,,,,,,,,,,,,,,,,,,,,,,,,,,,,,,,,,,,,,,,,,,,,,,,,,,,,,,,,,,,,
1649887036.705075,52.000000,0.000000,4252.820313,4233.846191,4171.282227,4217.436035,4224.615234,0.000000,4.000000,86.000000,,,,0.000000,4.000000,4.000000,4.000000,0.000000,4.000000,66.666664,,,,,,,,,,,,,,,,,,,,,,,,,,,,,,,,,,,,,,,,,,,,,,,,,,,,,,,,,,,,,,,
1649887036.712889,53.000000,0.000000,4275.897461,4257.948730,4178.461426,4220.000000,4242.563965,0.000000,4.000000,86.000000,,,,0.000000,4.000000,4.000000,4.000000,0.000000,4.000000,66.666664,,,,,,,,,,,,,,,,,,,,,,,,,,,,,,,,,,,,,,,,,,,,,,,,,,,,,,,,,,,,,,,
1649887036.720604,54.000000,0.000000,4278.461426,4259.487305,4180.512695,4226.666504,4248.205078,0.000000,4.000000,86.000000,,,,0.000000,4.000000,4.000000,4.000000,0.000000,4.000000,66.666664,,,,,,,,,,,,,,,,,,,,,,,,,,,,,,,,,,,,,,,,,,,,,,,,,,,,,,,,,,,,,,,
1649887036.728418,55.000000,0.000000,4261.538574,4243.077148,4185.641113,4223.077148,4242.563965,0.000000,4.000000,86.000000,,,,0.000000,4.000000,4.000000,4.000000,0.000000,4.000000,66.666664,,,,,,,,,,,,,,,,,,,,,,,,,,,,,,,,,,,,,,,,,,,,,,,,,,,,,,,,,,,,,,,
1649887036.736133,56.000000,0.000000,4250.256348,4239.487305,4187.179688,4215.897461,4230.256348,0.000000,4.000000,86.000000,,,,0.000000,4.000000,4.000000,4.000000,0.000000,4.000000,66.666664,,,,,,,,,,,,,,,,,,,,,,,,,,,,,,,,,,,,,,,,,,,,,,,,,,,,,,,,,,,,,,,
1649887036.743947,57.000000,0.000000,4240.512695,4246.666504,4186.666504,4216.922852,4203.589844,0.000000,4.000000,86.000000,,,,0.000000,4.000000,4.000000,4.000000,0.000000,4.000000,66.666664,,,,,,,,,,,,,,,,,,,,,,,,,,,,,,,,,,,,,,,,,,,,,,,,,,,,,,,,,,,,,,,
1649887036.751662,58.000000,0.000000,4217.948730,4247.692383,4183.589844,4218.461426,4183.589844,0.000000,4.000000,86.000000,,,,0.000000,4.000000,4.000000,4.000000,0.000000,4.000000,66.666664,,,,,,,,,,,,,,,,,,,,,,,,,,,,,,,,,,,,,,,,,,,,,,,,,,,,,,,,,,,,,,,
1649887036.759476,59.000000,0.000000,4203.589844,4250.769043,4183.589844,4215.384766,4187.179688,0.000000,4.000000,86.000000,,,,0.000000,4.000000,4.000000,4.000000,0.000000,4.000000,66.666664,,,,,,,,,,,,,,,,,,,,,,,,,,,,,,,,,,,,,,,,,,,,,,,,,,,,,,,,,,,,,,,
1649887036.767191,60.000000,0.000000,4216.410156,4258.974121,4187.179688,4216.922852,4205.128418,0.000000,4.000000,86.000000,,,,0.000000,4.000000,4.000000,4.000000,0.000000,4.000000,66.666664,,,,,,,,,,,,,,,,,,,,,,,,,,,,,,,,,,,,,,,9.189898,7.550032,0.988591,1.423216,0.462015,1.874744,0.920908,0.950351,0.693280,0.462654,3.000076,1.334836,0.688751,0.504879,0.206856,0.109091,0.140482,0.029491,0.042536,0.042289,9.776034,8.034775,1.766023,1.209475,0.391104
1649887036.775105,61.000000,0.000000,4236.410156,4250.256348,4178.974121,4220.000000,4223.077148,0.000000,4.000000,86.000000,,,,0.000000,4.000000,4.000000,4.000000,0.000000,4.000000,66.666664,,,,,,,,,,,,,,,,,,,,,,,,,,,,,,,,,,,,,,,,,,,,,,,,,,,,,,,,,,,,,,,
1649887036.782919,62.000000,0.000000,4256.410156,4231.794922,4165.641113,4218.461426,4230.769043,0.000000,4.000000,86.000000,,,,0.000000,4.000000,4.000000,4.000000,0.000000,4.000000,66.666664,,,,,,,,,,,,,,,,,,,,,,,,,,,,,,,,,,,,,,,,,,,,,,,,,,,,,,,,,,,,,,,
1649887036.790834,63.000000,0.000000,4272.820313,4242.563965,4163.589844,4217.436035,4231.282227,0.000000,4.000000,86.000000,,,,0.000000,4.000000,4.000000,4.000000,0.000000,4.000000,66.666664,,,,,,,,,,,,,,,,,,,,,,,,,,,,,,,,,,,,,,,,,,,,,,,,,,,,,,,,,,,,,,,
1649887036.798748,64.000000,0.000000,4267.692383,4255.897461,4160.512695,4221.538574,4232.307617,450.000000,4.000000,86.000000,,,,0.000000,4.000000,4.000000,4.000000,0.000000,4.000000,66.666664,,,,,,,,,,,,,,,,,,,,,,,,,,,,,,,,,,,,,,,,,,,,,,,,,,,,,,,,,,,,,,,
1649887036.806562,65.000000,0.000000,4249.230957,4234.358887,4150.769043,4222.563965,4231.794922,450.000000,4.000000,86.000000,,,,0.000000,4.000000,4.000000,4.000000,0.000000,4.000000,66.666664,,,,,,,,,,,,,,,,,,,,,,,,,,,,,,,,,,,,,,,,,,,,,,,,,,,,,,,,,,,,,,,
1649887036.814477,66.000000,0.000000,4259.487305,4230.256348,4153.333496,4218.974121,4236.410156,16185.000000,4.000000,86.000000,,,,0.000000,4.000000,4.000000,4.000000,0.000000,4.000000,66.666664,,,,,,,,,,,,,,,,,,,,,,,,,,,,,,,,,,,,,,,,,,,,,,,,,,,,,,,,,,,,,,,
1649887036.822291,67.000000,0.000000,4274.871582,4258.974121,4161.538574,4217.436035,4242.563965,450.000000,4.000000,86.000000,,,,0.000000,4.000000,4.000000,4.000000,0.000000,4.000000,66.666664,,,,,,,,,,,,,,,,,,,,,,,,,,,,,,,,,,,,,,,,,,,,,,,,,,,,,,,,,,,,,,,
1649887036.830105,68.000000,0.000000,4252.820313,4265.128418,4159.487305,4218.461426,4232.820313,16248.000000,4.000000,86.000000,,,,0.000000,4.000000,4.000000,4.000000,0.000000,4.000000,66.666664,,,,,,,,,,,,,,,,,,,,,,,,,,,,,,,,,,,,,,,,,,,,,,,,,,,,,,,,,,,,,,,
1649887036.838020,69.000000,0.000000,4242.563965,4248.205078,4161.538574,4221.538574,4223.077148,450.000000,4.000000,86.000000,,,,0.000000,4.000000,4.000000,4.000000,0.000000,4.000000,66.666664,,,,,,,,,,,,,,,,,,,,,,,,,,,,,,,,,,,,,,,,,,,,,,,,,,,,,,,,,,,,,,,
1649887036.845834,70.000000,0.000000,4264.102539,4245.641113,4168.205078,4222.051270,4233.846191,16098.000000,4.000000,86.000000,,,,0.000000,4.000000,4.000000,4.000000,0.000000,4.000000,66.666664,,,,,,,,,,,,,,,,,,,,,,,,,,,,,,,,,,,,,,,,,,,,,,,,,,,,,,,,,,,,,,,
1649887036.853748,71.000000,0.000000,4265.641113,4251.794922,4173.846191,4218.461426,4243.077148,450.000000,4.000000,86.000000,,,,0.000000,4.000000,4.000000,4.000000,0.000000,4.000000,66.666664,,,,,,,,,,,,,,,,,,,,,,,,,,,,,,,,,,,,,,,,,,,,,,,,,,,,,,,,,,,,,,,
1649887036.861563,72.000000,0.000000,4242.563965,4246.666504,4174.871582,4215.897461,4229.230957,450.000000,4.000000,86.000000,,,,0.000000,4.000000,4.000000,4.000000,0.000000,4.000000,66.666664,,,,,,,,,,,,,,,,,,,,,,,,,,,,,,,,,,,,,,,,,,,,,,,,,,,,,,,,,,,,,,,
1649887036.869277,73.000000,0.000000,4237.948730,4233.333496,4167.692383,4217.948730,4216.922852,0.000000,4.000000,86.000000,,,,0.000000,4.000000,4.000000,4.000000,0.000000,4.000000,66.666664,,,,,,,,,,,,,,,,,,,,,,,,,,,,,,,,,,,,,,,,,,,,,,,,,,,,,,,,,,,,,,,
1649887036.877092,74.000000,0.000000,4265.641113,4234.871582,4165.128418,4218.974121,4228.205078,450.000000,4.000000,86.000000,,,,0.000000,4.000000,4.000000,4.000000,0.000000,4.000000,66.666664,,,,,,,,,,,,,,,,,,,,,,,,,,,,,,,,,,,,,,,,,,,,,,,,,,,,,,,,,,,,,,,
1649887036.884806,75.000000,0.000000,4276.922852,4249.230957,4170.769043,4217.948730,4239.487305,16191.000000,4.000000,86.000000,,,,0.000000,4.000000,4.000000,4.000000,0.000000,4.000000,66.666664,,,,,,,,,,,,,,,,,,,,,,,,,,,,,,,,,,,,,,,,,,,,,,,,,,,,,,,,,,,,,,,
1649887036.892621,76.000000,0.000000,4255.384766,4251.794922,4166.153809,4220.512695,4240.512695,450.000000,4.000000,86.000000,,,,0.000000,4.000000,4.000000,4.000000,0.000000,4.000000,66.666664,0.820313,66.666664,4.000000,4.000000,4.000000,0.000000,4.000000,,,,,,,,,,,,,,,,,,,,,,,,,,,,,,,,7.851946,7.985885,1.068488,1.447395,0.496785,1.589885,0.962979,0.922256,0.790210,0.523330,2.346611,1.221950,1.032106,0.523847,0.204863,0.082979,0.140172,0.030651,0.042347,0.039855,8.378367,8.339088,1.713275,1.342613,0.423760
1649887036.900335,77.000000,0.000000,4254.358887,4242.051270,4160.000000,4222.563965,4244.615234,450.000000,4.000000,86.000000,,,,0.000000,4.000000,4.000000,4.000000,0.000000,4.000000,66.666664,,,,,,,,,,,,,,,,,,,,,,,,,,,,,,,,,,,,,,,,,,,,,,,,,,,,,,,,,,,,,,,
1649887036.908150,78.000000,0.000000,4278.461426,4241.025879,4168.205078,4219.487305,4247.692383,450.000000,4.000000,86.000000,,,,0.000000,4.000000,4.000000,4.000000,0.000000,4.000000,66.666664,,,,,,,,,,,,,,,,,,,,,,,,,,,,,,,,,,,,,,,,,,,,,,,,,,,,,,,,,,,,,,,
1649887036.915864,79.000000,0.000000,4273.333496,4254.358887,4176.410156,4220.000000,4241.538574,16191.000000,4.000000,86.000000,,,,0.000000,4.000000,4.000000,4.000000,0.000000,4.000000,66.666664,,,,,,,,,,,,,,,,,,,,,,,,,,,,,,,,,,,,,,,,,,,,,,,,,,,,,,,,,,,,,,,
1649887036.923678,80.000000,0.000000,4251.282227,4262.563965,4176.410156,4221.538574,4239.487305,450.000000,4.000000,86.000000,,,,0.000000,4.000000,4.000000,4.000000,0.000000,4.000000,66.666664,,,,,,,,,,,,,,,,,,,,,,,,,,,,,,,,,,,,,,,,,,,,,,,,,,,,,,,,,,,,,,,
1649887036.931393,81.000000,0.000000,4257.948730,4254.358887,4181.025879,4220.512695,4243.589844,450.000000,4.000000,86.000000,,,,0.000000,4.000000,4.000000,4.000000,0.000000,4.000000,66.666664,,,,,,,,,,,,,,,,,,,,,,,,,,,,,,,,,,,,,,,,,,,,,,,,,,,,,,,,,,,,,,,
1649887036.939307,82.000000,0.000000,4272.820313,4245.641113,4180.512695,4221.025879,4242.051270,450.000000,4.000000,86.000000,,,,0.000000,4.000000,4.000000,4.000000,0.000000,4.000000,66.666664,,,,,,,,,,,,,,,,,,,,,,,,,,,,,,,,,,,,,,,,,,,,,,,,,,,,,,,,,,,,,,,
1649887036.947122,83.000000,0.000000,4265.128418,4247.179688,4171.282227,4221.538574,4237.436035,16191.000000,4.000000,86.000000,,,,0.000000,4.000000,4.000000,4.000000,0.000000,4.000000,66.666664,,,,,,,,,,,,,,,,,,,,,,,,,,,,,,,,,,,,,,,,,,,,,,,,,,,,,,,,,,,,,,,
1649887036.954936,84.000000,0.000000,4253.333496,4248.205078,4164.615234,4217.948730,4231.282227,450.000000,4.000000,86.000000,,,,0.000000,4.000000,4.000000,4.000000,0.000000,4.000000,66.666664,,,,,,,,,,,,,,,,,,,,,,,,,,,,,,,,,,,,,,,,,,,,,,,,,,,,,,,,,,,,,,,
1649887036.962750,85.000000,0.000000,4256.410156,4245.641113,4156.410156,4217.948730,4225.641113,450.000000,4.000000,86.000000,,,,0.000000,4.000000,4.000000,4.000000,0.000000,4.000000,66.666664,,,,,,,,,,,,,,,,,,,,,,,,,,,,,,,,,,,,,,,,,,,,,,,,,,,,,,,,,,,,,,,
1649887036.970665,86.000000,0.000000,4265.641113,4247.179688,4152.307617,4221.025879,4233.333496,450.000000,4.000000,86.000000,,,,0.000000,4.000000,4.000000,4.000000,0.000000,4.000000,66.666664,,,,,,,,,,,,,,,,,,,,,,,,,,,,,,,,,,,,,,,,,,,,,,,,,,,,,,,,,,,,,,,
1649887036.978479,87.000000,0.000000,4256.410156,4237.948730,4156.922852,4217.436035,4239.487305,16191.000000,4.000000,86.000000,,,,0.000000,4.000000,4.000000,4.000000,0.000000,4.000000,66.666664,,,,,,,,,,,,,,,,,,,,,,,,,,,,,,,,,,,,,,,,,,,,,,,,,,,,,,,,,,,,,,,
1649887036.986394,88.000000,0.000000,4241.538574,4225.641113,4154.871582,4217.436035,4224.102539,450.000000,4.000000,86.000000,,,,0.000000,4.000000,4.000000,4.000000,0.000000,4.000000,66.666664,,,,,,,,,,,,,,,,,,,,,,,,,,,,,,,,,,,,,,,,,,,,,,,,,,,,,,,,,,,,,,,
1649887036.994208,89.000000,0.000000,4254.871582,4230.769043,4157.436035,4218.974121,4215.897461,450.000000,4.000000,86.000000,,,,0.000000,4.000000,4.000000,4.000000,0.000000,4.000000,66.666664,,,,,,,,,,,,,,,,,,,,,,,,,,,,,,,,,,,,,,,,,,,,,,,,,,,,,,,,,,,,,,,
1649887037.002122,90.000000,0.000000,4270.256348,4230.256348,4168.205078,4217.436035,4226.666504,450.000000,4.000000,86.000000,,,,0.000000,4.000000,4.000000,4.000000,0.000000,4.000000,66.666664,,,,,,,,,,,,,,,,,,,,,,,,,,,,,,,,,,,,,,,,,,,,,,,,,,,,,,,,,,,,,,,
1649887037.009937,91.000000,0.000000,4250.769043,4220.000000,4169.230957,4217.948730,4227.692383,16191.000000,4.000000,86.000000,,,,0.000000,4.000000,4.000000,4.000000,0.000000,4.000000,66.666664,,,,,,,,,,,,,,,,,,,,,,,,,,,,,,,,,,,,,,,,,,,,,,,,,,,,,,,,,,,,,,,
1649887037.017851,92.000000,0.000000,4229.743652,4234.358887,4170.256348,4217.948730,4220.512695,450.000000,4.000000,86.000000,,,,0.000000,4.000000,4.000000,4.000000,0.000000,4.000000,66.666664,,,,,,,,,,,,,,,,,,,,,,,,,,,,,,,,,,,,,,,6.326081,7.838964,1.175119,1.404827,0.533499,1.401320,1.030270,0.881658,0.850180,0.589133,1.868431,1.213787,1.447623,0.520092,0.204104,0.058595,0.127059,0.030700,0.038018,0.035065,6.758023,7.938457,1.641345,1.416534,0.440568
1649887037.025665,93.000000,0.000000,4236.922852,4252.307617,4175.897461,4217.948730,4215.384766,450.000000,4.000000,86.000000,,,,0.000000,4.000000,4.000000,4.000000,0.000000,4.000000,66.666664,,,,,,,,,,,,,,,,,,,,,,,,,,,,,,,,,,,,,,,,,,,,,,,,,,,,,,,,,,,,,,,
1649887037.033580,94.000000,0.000000,4253.333496,4242.051270,4165.128418,4218.974121,4214.358887,450.000000,4.000000,86.000000,,,,0.000000,4.000000,4.000000,4.000000,0.000000,4.000000,66.666664,,,,,,,,,,,,,,,,,,,,,,,,,,,,,,,,,,,,,,,,,,,,,,,,,,,,,,,,,,,,,,,
1649887037.041394,95.000000,0.000000,4266.666504,4237.436035,4154.358887,4218.461426,4229.743652,16191.000000,4.000000,86.000000,,,,0.000000,4.000000,4.000000,4.000000,0.000000,4.000000,66.666664,,,,,,,,,,,,,,,,,,,,,,,,,,,,,,,,,,,,,,,,,,,,,,,,,,,,,,,,,,,,,,,
1649887037.049109,96.000000,0.000000,4278.974121,4247.692383,4163.077148,4216.410156,4250.769043,450.000000,4.000000,86.000000,,,,0.000000,4.000000,4.000000,4.000000,0.000000,4.000000,66.666664,,,,,,,,,,,,,,,,,,,,,,,,,,,,,,,,,,,,,,,,,,,,,,,,,,,,,,,,,,,,,,,
1649887037.056923,97.000000,0.000000,4277.948730,4243.589844,4171.282227,4221.025879,4254.871582,450.000000,4.000000,86.000000,,,,0.000000,4.000000,4.000000,4.000000,0.000000,4.000000,66.666664,,,,,,,,,,,,,,,,,,,,,,,,,,,,,,,,,,,,,,,,,,,,,,,,,,,,,,,,,,,,,,,
1649887037.064637,98.000000,0.000000,4270.256348,4241.025879,4163.589844,4222.051270,4252.307617,450.000000,4.000000,86.000000,,,,0.000000,4.000000,4.000000,4.000000,0.000000,4.000000,66.666664,,,,,,,,,,,,,,,,,,,,,,,,,,,,,,,,,,,,,,,,,,,,,,,,,,,,,,,,,,,,,,,
1649887037.072452,99.000000,0.000000,4269.743652,4249.230957,4153.333496,4218.974121,4250.256348,16191.000000,4.000000,86.000000,,,,0.000000,4.000000,4.000000,4.000000,0.000000,4.000000,66.666664,,,,,,,,,,,,,,,,,,,,,,,,,,,,,,,,,,,,,,,,,,,,,,,,,,,,,,,,,,,,,,,
1649887037.080166,100.000000,0.000000,4269.230957,4251.282227,4157.948730,4223.589844,4251.282227,450.000000,4.000000,86.000000,,,,0.000000,4.000000,4.000000,4.000000,0.000000,4.000000,66.666664,,,,,,,,,,,,,,,,,,,,,,,,,,,,,,,,,,,,,,,,,,,,,,,,,,,,,,,,,,,,,,,
1649887037.087981,101.000000,0.000000,4271.794922,4259.487305,4170.769043,4225.128418,4258.974121,450.000000,4.000000,86.000000,,,,0.000000,4.000000,4.000000,4.000000,0.000000,4.000000,66.666664,,,,,,,,,,,,,,,,,,,,,,,,,,,,,,,,,,,,,,,,,,,,,,,,,,,,,,,,,,,,,,,
1649887037.095695,102.000000,0.000000,4278.461426,4258.461426,4169.230957,4220.000000,4256.410156,450.000000,4.000000,86.000000,,,,0.000000,4.000000,4.000000,4.000000,0.000000,4.000000,66.666664,,,,,,,,,,,,,,,,,,,,,,,,,,,,,,,,,,,,,,,,,,,,,,,,,,,,,,,,,,,,,,,
1649887037.103510,103.000000,0.000000,4274.358887,4237.436035,4160.000000,4219.487305,4242.563965,16191.000000,4.000000,86.000000,,,,0.000000,4.000000,4.000000,4.000000,0.000000,4.000000,66.666664,,,,,,,,,,,,,,,,,,,,,,,,,,,,,,,,,,,,,,,,,,,,,,,,,,,,,,,,,,,,,,,
1649887037.111224,104.000000,0.000000,4262.051270,4243.589844,4161.538574,4221.025879,4238.461426,450.000000,4.000000,86.000000,,,,0.000000,4.000000,4.000000,4.000000,0.000000,4.000000,66.666664,,,,,,,,,,,,,,,,,,,,,,,,,,,,,,,,,,,,,,,,,,,,,,,,,,,,,,,,,,,,,,,
1649887037.119039,105.000000,0.000000,4254.871582,4269.230957,4162.563965,4216.922852,4232.820313,450.000000,4.000000,86.000000,,,,0.000000,4.000000,4.000000,4.000000,0.000000,4.000000,66.666664,,,,,,,,,,,,,,,,,,,,,,,,,,,,,,,,,,,,,,,,,,,,,,,,,,,,,,,,,,,,,,,
1649887037.126753,106.000000,0.000000,4257.948730,4256.922852,4153.846191,4217.436035,4216.922852,450.000000,4.000000,86.000000,,,,0.000000,4.000000,4.000000,4.000000,0.000000,4.000000,66.666664,,,,,,,,,,,,,,,,,,,,,,,,,,,,,,,,,,,,,,,,,,,,,,,,,,,,,,,,,,,,,,,
1649887037.134568,107.000000,0.000000,4265.128418,4239.487305,4151.282227,4220.512695,4219.487305,16191.000000,4.000000,86.000000,,,,0.000000,4.000000,4.000000,4.000000,0.000000,4.000000,66.666664,,,,,,,,,,,,,,,,,,,,,,,,,,,,,,,,,,,,,,,,,,,,,,,,,,,,,,,,,,,,,,,
1649887037.142282,108.000000,0.000000,4261.538574,4257.436035,4158.461426,4218.461426,4240.512695,450.000000,4.000000,86.000000,,,,0.000000,4.000000,4.000000,4.000000,0.000000,4.000000,66.666664,,,,,,,,,,,,,,,,,,,,,,,,,,,,,,,,,,,,,,,4.743882,7.428728,1.329946,1.293237,0.583297,1.270593,1.095206,0.866030,0.847757,0.657726,1.655941,1.188426,1.797921,0.494730,0.199337,0.039413,0.106847,0.029949,0.031491,0.029773,5.053546,7.164917,1.589455,1.400598,0.437964
1649887037.150196,109.000000,0.000000,4255.384766,4257.436035,4160.512695,4217.948730,4245.641113,450.000000,4.000000,86.000000,,,,0.000000,4.000000,4.000000,4.000000,0.000000,4.000000,66.666664,,,,,,,,,,,,,,,,,,,,,,,,,,,,,,,,,,,,,,,,,,,,,,,,,,,,,,,,,,,,,,,
1649887037.158011,110.000000,0.000000,4264.102539,4241.538574,4162.051270,4218.461426,4236.410156,450.000000,4.000000,86.000000,,,,0.000000,4.000000,4.000000,4.000000,0.000000,4.000000,66.666664,,,,,,,,,,,,,,,,,,,,,,,,,,,,,,,,,,,,,,,,,,,,,,,,,,,,,,,,,,,,,,,
1649887037.165925,111.000000,0.000000,4261.538574,4247.692383,4162.051270,4218.974121,4224.615234,16191.000000,4.000000,86.000000,,,,0.000000,4.000000,4.000000,4.000000,0.000000,4.000000,66.666664,,,,,,,,,,,,,,,,,,,,,,,,,,,,,,,,,,,,,,,,,,,,,,,,,,,,,,,,,,,,,,,
1649887037.173739,112.000000,0.000000,4241.538574,4252.307617,4151.794922,4217.948730,4217.436035,450.000000,4.000000,86.000000,,,,0.000000,4.000000,4.000000,4.000000,0.000000,4.000000,66.666664,,,,,,,,,,,,,,,,,,,,,,,,,,,,,,,,,,,,,,,,,,,,,,,,,,,,,,,,,,,,,,,
1649887037.181654,113.000000,0.000000,4250.769043,4243.077148,4147.692383,4217.436035,4225.128418,450.000000,4.000000,86.000000,,,,0.000000,4.000000,4.000000,4.000000,0.000000,4.000000,66.666664,,,,,,,,,,,,,,,,,,,,,,,,,,,,,,,,,,,,,,,,,,,,,,,,,,,,,,,,,,,,,,,
1649887037.189468,114.000000,0.000000,4266.153809,4239.487305,4156.922852,4217.436035,4232.820313,450.000000,4.000000,86.000000,,,,0.000000,4.000000,4.000000,4.000000,0.000000,4.000000,66.666664,,,,,,,,,,,,,,,,,,,,,,,,,,,,,,,,,,,,,,,,,,,,,,,,,,,,,,,,,,,,,,,
1649887037.197382,115.000000,0.000000,4249.230957,4243.589844,4161.025879,4216.922852,4226.153809,16191.000000,4.000000,86.000000,,,,0.000000,4.000000,4.000000,4.000000,0.000000,4.000000,66.666664,,,,,,,,,,,,,,,,,,,,,,,,,,,,,,,,,,,,,,,,,,,,,,,,,,,,,,,,,,,,,,,
1649887037.205197,116.000000,0.000000,4242.563965,4250.256348,4162.563965,4218.461426,4220.000000,450.000000,4.000000,86.000000,,,,0.000000,4.000000,4.000000,4.000000,0.000000,4.000000,66.666664,,,,,,,,,,,,,,,,,,,,,,,,,,,,,,,,,,,,,,,,,,,,,,,,,,,,,,,,,,,,,,,
1649887037.213111,117.000000,0.000000,4254.358887,4258.974121,4170.769043,4218.461426,4221.538574,450.000000,4.000000,86.000000,,,,0.000000,4.000000,4.000000,4.000000,0.000000,4.000000,66.666664,,,,,,,,,,,,,,,,,,,,,,,,,,,,,,,,,,,,,,,,,,,,,,,,,,,,,,,,,,,,,,,
1649887037.220926,118.000000,0.000000,4260.512695,4262.051270,4168.717773,4216.922852,4225.641113,450.000000,4.000000,86.000000,,,,0.000000,4.000000,4.000000,4.000000,0.000000,4.000000,66.666664,,,,,,,,,,,,,,,,,,,,,,,,,,,,,,,,,,,,,,,,,,,,,,,,,,,,,,,,,,,,,,,
1649887037.228840,119.000000,0.000000,4259.487305,4259.487305,4162.051270,4217.948730,4235.384766,16191.000000,4.000000,86.000000,,,,0.000000,4.000000,4.000000,4.000000,0.000000,4.000000,66.666664,,,,,,,,,,,,,,,,,,,,,,,,,,,,,,,,,,,,,,,,,,,,,,,,,,,,,,,,,,,,,,,
1649887037.236654,120.000000,0.000000,4252.307617,4255.897461,4162.563965,4220.512695,4243.589844,450.000000,4.000000,86.000000,,,,0.000000,4.000000,4.000000,4.000000,0.000000,4.000000,66.666664,,,,,,,,,,,,,,,,,,,,,,,,,,,,,,,,,,,,,,,,,,,,,,,,,,,,,,,,,,,,,,,
1649887037.244369,121.000000,0.000000,4252.307617,4245.128418,4156.922852,4218.461426,4242.051270,450.000000,4.000000,86.000000,,,,0.000000,4.000000,4.000000,4.000000,0.000000,4.000000,66.666664,,,,,,,,,,,,,,,,,,,,,,,,,,,,,,,,,,,,,,,,,,,,,,,,,,,,,,,,,,,,,,,
1649887037.252183,122.000000,0.000000,4272.820313,4235.384766,4152.820313,4217.948730,4242.051270,450.000000,4.000000,86.000000,,,,0.000000,4.000000,4.000000,4.000000,0.000000,4.000000,66.666664,,,,,,,,,,,,,,,,,,,,,,,,,,,,,,,,,,,,,,,,,,,,,,,,,,,,,,,,,,,,,,,
1649887037.259898,123.000000,0.000000,4278.461426,4234.871582,4156.922852,4223.589844,4245.641113,16191.000000,4.000000,86.000000,,,,0.000000,4.000000,4.000000,4.000000,0.000000,4.000000,66.666664,,,,,,,,,,,,,,,,,,,,,,,,,,,,,,,,,,,,,,,,,,,,,,,,,,,,,,,,,,,,,,,
1649887037.267712,124.000000,0.000000,4266.153809,4241.025879,4160.512695,4224.615234,4244.102539,450.000000,4.000000,86.000000,,,,0.000000,4.000000,4.000000,4.000000,0.000000,4.000000,66.666664,,,,,,,,,,,,,,,,,,,,,,,,,,,,,,,,,,,,,,,3.294064,7.212809,1.560909,1.146470,0.657979,1.186863,1.154033,0.904714,0.780257,0.728180,1.740559,1.132028,1.997503,0.452657,0.188119,0.027504,0.087514,0.028789,0.025422,0.025765,3.501086,6.510835,1.602316,1.314107,0.417224
1649887037.275427,125.000000,0.000000,4264.615234,4248.717773,4162.051270,4218.461426,4240.000000,450.000000,4.000000,86.000000,,,,0.000000,4.000000,4.000000,4.000000,0.000000,4.000000,66.666664,,,,,,,,,,,,,,,,,,,,,,,,,,,,,,,,,,,,,,,,,,,,,,,,,,,,,,,,,,,,,,,
1649887037.283241,126.000000,0.000000,4263.589844,4248.205078,4168.717773,4216.410156,4232.307617,450.000000,4.000000,86.000000,,,,0.000000,4.000000,4.000000,4.000000,0.000000,4.000000,66.666664,,,,,,,,,,,,,,,,,,,,,,,,,,,,,,,,,,,,,,,,,,,,,,,,,,,,,,,,,,,,,,,
1649887037.290956,127.000000,0.000000,4254.871582,4248.205078,4176.922852,4218.974121,4228.717773,241.000000,4.000000,86.000000,,,,0.000000,4.000000,4.000000,4.000000,0.000000,4.000000,66.666664,,,,,,,,,,,,,,,,,,,,,,,,,,,,,,,,,,,,,,,,,,,,,,,,,,,,,,,,,,,,,,,
1649887037.298770,0.000000,0.000000,4256.922852,4258.461426,4180.512695,4221.538574,4237.948730,450.000000,4.000000,86.000000,,,,0.000000,4.000000,4.000000,4.000000,0.000000,4.000000,66.666664,,,,,,,,,,,,,,,,,,,,,,,,,,,,,,,,,,,,,,,,,,,,,,,,,,,,,,,,,,,,,,,
1649887037.306485,1.000000,0.000000,4272.307617,4264.615234,4174.871582,4220.512695,4248.717773,450.000000,4.000000,86.000000,,,,0.000000,4.000000,4.000000,4.000000,0.000000,4.000000,66.666664,,,,,,,,,,,,,,,,,,,,,,,,,,,,,,,,,,,,,,,,,,,,,,,,,,,,,,,,,,,,,,,
1649887037.314399,2.000000,0.000000,4283.589844,4262.563965,4166.153809,4220.000000,4244.615234,16167.000000,4.000000,86.000000,,,,0.000000,4.000000,4.000000,4.000000,0.000000,4.000000,66.666664,,,,,,,,,,,,,,,,,,,,,,,,,,,,,,,,,,,,,,,,,,,,,,,,,,,,,,,,,,,,,,,
1649887037.322213,3.000000,0.000000,4274.871582,4256.922852,4161.025879,4218.974121,4237.948730,450.000000,4.000000,86.000000,,,,0.000000,4.000000,4.000000,4.000000,0.000000,4.000000,66.666664,,,,,,,,,,,,,,,,,,,,,,,,,,,,,,,,,,,,,,,,,,,,,,,,,,,,,,,,,,,,,,,
1649887037.330128,4.000000,0.000000,4258.461426,4245.641113,4157.948730,4216.922852,4243.077148,16245.000000,4.000000,86.000000,,,,0.000000,4.000000,4.000000,4.000000,0.000000,4.000000,66.666664,,,,,,,,,,,,,,,,,,,,,,,,,,,,,,,,,,,,,,,,,,,,,,,,,,,,,,,,,,,,,,,
1649887037.337942,5.000000,0.000000,4256.410156,4244.615234,4160.512695,4219.487305,4250.769043,450.000000,4.000000,86.000000,,,,0.000000,4.000000,4.000000,4.000000,0.000000,4.000000,66.666664,,,,,,,,,,,,,,,,,,,,,,,,,,,,,,,,,,,,,,,,,,,,,,,,,,,,,,,,,,,,,,,
1649887037.345856,6.000000,0.000000,4273.846191,4263.589844,4171.794922,4221.025879,4256.922852,16090.000000,4.000000,86.000000,,,,0.000000,4.000000,4.000000,4.000000,0.000000,4.000000,66.666664,,,,,,,,,,,,,,,,,,,,,,,,,,,,,,,,,,,,,,,,,,,,,,,,,,,,,,,,,,,,,,,
1649887037.353671,7.000000,0.000000,4283.589844,4266.666504,4185.641113,4221.538574,4258.974121,450.000000,4.000000,86.000000,,,,0.000000,4.000000,4.000000,4.000000,0.000000,4.000000,66.666664,,,,,,,,,,,,,,,,,,,,,,,,,,,,,,,,,,,,,,,,,,,,,,,,,,,,,,,,,,,,,,,
1649887037.361485,8.000000,0.000000,4277.948730,4251.282227,4189.230957,4224.102539,4258.461426,450.000000,4.000000,86.000000,,,,0.000000,4.000000,4.000000,4.000000,0.000000,4.000000,66.666664,,,,,,,,,,,,,,,,,,,,,,,,,,,,,,,,,,,,,,,,,,,,,,,,,,,,,,,,,,,,,,,
1649887037.369200,9.000000,0.000000,4273.333496,4248.717773,4173.333496,4223.589844,4258.461426,0.000000,4.000000,86.000000,,,,0.000000,4.000000,4.000000,4.000000,0.000000,4.000000,66.666664,,,,,,,,,,,,,,,,,,,,,,,,,,,,,,,,,,,,,,,,,,,,,,,,,,,,,,,,,,,,,,,
1649887037.377014,10.000000,0.000000,4271.794922,4248.205078,4163.077148,4216.922852,4253.333496,450.000000,4.000000,86.000000,,,,0.000000,4.000000,4.000000,4.000000,0.000000,4.000000,66.666664,,,,,,,,,,,,,,,,,,,,,,,,,,,,,,,,,,,,,,,,,,,,,,,,,,,,,,,,,,,,,,,
1649887037.384728,11.000000,0.000000,4266.666504,4243.077148,4168.205078,4216.922852,4239.487305,16180.000000,4.000000,86.000000,,,,0.000000,4.000000,4.000000,4.000000,0.000000,4.000000,66.666664,,,,,,,,,,,,,,,,,,,,,,,,,,,,,,,,,,,,,,,,,,,,,,,,,,,,,,,,,,,,,,,
1649887037.392643,12.000000,0.000000,4271.282227,4238.461426,4166.153809,4220.000000,4230.256348,450.000000,4.000000,86.000000,,,,0.000000,4.000000,4.000000,4.000000,0.000000,4.000000,66.666664,0.863281,66.666664,4.000000,4.000000,4.000000,0.000000,4.000000,,,,,,,,,,,,,,,,,,,,,,,,,,,,,,,,2.166896,7.453148,1.835752,1.018181,0.760271,1.147554,1.190925,0.983242,0.668352,0.797442,2.059311,1.086087,2.013053,0.399800,0.173280,0.022315,0.074776,0.027344,0.021777,0.024040,2.401738,6.315886,1.672943,1.208975,0.385268
1649887037.400457,13.000000,0.000000,4291.282227,4237.436035,4157.436035,4215.897461,4233.333496,450.000000,4.000000,86.000000,,,,0.000000,4.000000,4.000000,4.000000,0.000000,4.000000,66.666664,,,,,,,,,,,,,,,,,,,,,,,,,,,,,,,,,,,,,,,,,,,,,,,,,,,,,,,,,,,,,,,
1649887037.408272,14.000000,0.000000,4300.512695,4247.179688,4158.461426,4216.410156,4234.358887,450.000000,4.000000,86.000000,,,,0.000000,4.000000,4.000000,4.000000,0.000000,4.000000,66.666664,,,,,,,,,,,,,,,,,,,,,,,,,,,,,,,,,,,,,,,,,,,,,,,,,,,,,,,,,,,,,,,
1649887037.416186,15.000000,0.000000,4295.897461,4258.461426,4162.051270,4218.461426,4227.692383,16180.000000,4.000000,86.000000,,,,0.000000,4.000000,4.000000,4.000000,0.000000,4.000000,66.666664,,,,,,,,,,,,,,,,,,,,,,,,,,,,,,,,,,,,,,,,,,,,,,,,,,,,,,,,,,,,,,,
1649887037.424000,16.000000,0.000000,4289.230957,4255.384766,4162.051270,4216.922852,4222.563965,0.000000,4.000000,86.000000,,,,0.000000,4.000000,4.000000,4.000000,0.000000,4.000000,66.666664,,,,,,,,,,,,,,,,,,,,,,,,,,,,,,,,,,,,,,,,,,,,,,,,,,,,,,,,,,,,,,,
1649887037.431815,17.000000,0.000000,4282.563965,4248.717773,4162.563965,4217.948730,4227.692383,0.000000,4.000000,86.000000,,,,0.000000,4.000000,4.000000,4.000000,0.000000,4.000000,66.666664,,,,,,,,,,,,,,,,,,,,,,,,,,,,,,,,,,,,,,,,,,,,,,,,,,,,,,,,,,,,,,,
1649887037.439529,18.000000,0.000000,4280.000000,4254.358887,4161.025879,4218.974121,4230.769043,0.000000,4.000000,86.000000,,,,0.000000,4.000000,4.000000,4.000000,0.000000,4.000000,66.666664,,,,,,,,,,,,,,,,,,,,,,,,,,,,,,,,,,,,,,,,,,,,,,,,,,,,,,,,,,,,,,,
1649887037.447444,19.000000,0.000000,4289.743652,4258.461426,4163.589844,4216.410156,4226.153809,0.000000,4.000000,86.000000,,,,0.000000,4.000000,4.000000,4.000000,0.000000,4.000000,66.666664,,,,,,,,,,,,,,,,,,,,,,,,,,,,,,,,,,,,,,,,,,,,,,,,,,,,,,,,,,,,,,,
1649887037.455258,20.000000,0.000000,4309.743652,4257.948730,4170.256348,4221.538574,4238.461426,0.000000,4.000000,86.000000,,,,0.000000,4.000000,4.000000,4.000000,0.000000,4.000000,66.666664,,,,,,,,,,,,,,,,,,,,,,,,,,,,,,,,,,,,,,,,,,,,,,,,,,,,,,,,,,,,,,,
1649887037.463072,21.000000,0.000000,4325.641113,4274.871582,4171.794922,4227.179688,4259.487305,0.000000,4.000000,86.000000,,,,0.000000,4.000000,4.000000,4.000000,0.000000,4.000000,66.666664,,,,,,,,,,,,,,,,,,,,,,,,,,,,,,,,,,,,,,,,,,,,,,,,,,,,,,,,,,,,,,,
1649887037.470787,22.000000,0.000000,4325.641113,4291.794922,4171.794922,4222.563965,4260.512695,0.000000,4.000000,86.000000,,,,0.000000,4.000000,4.000000,4.000000,0.000000,4.000000,66.666664,,,,,,,,,,,,,,,,,,,,,,,,,,,,,,,,,,,,,,,,,,,,,,,,,,,,,,,,,,,,,,,
1649887037.478701,23.000000,0.000000,4312.307617,4287.692383,4189.230957,4220.000000,4248.717773,0.000000,4.000000,86.000000,,,,0.000000,4.000000,4.000000,4.000000,0.000000,4.000000,66.666664,,,,,,,,,,,,,,,,,,,,,,,,,,,,,,,,,,,,,,,,,,,,,,,,,,,,,,,,,,,,,,,
1649887037.486516,24.000000,0.000000,4305.128418,4278.974121,4215.384766,4223.077148,4248.205078,0.000000,4.000000,86.000000,,,,0.000000,4.000000,4.000000,4.000000,0.000000,4.000000,66.666664,,,,,,,,,,,,,,,,,,,,,,,,,,,,,,,,,,,,,,,,,,,,,,,,,,,,,,,,,,,,,,,
1649887037.494430,25.000000,0.000000,4306.153809,4273.846191,4221.538574,4219.487305,4250.769043,0.000000,4.000000,86.000000,,,,0.000000,4.000000,4.000000,4.000000,0.000000,4.000000,66.666664,,,,,,,,,,,,,,,,,,,,,,,,,,,,,,,,,,,,,,,,,,,,,,,,,,,,,,,,,,,,,,,
1649887037.502244,26.000000,0.000000,4289.743652,4258.974121,4206.666504,4215.384766,4232.820313,0.000000,4.000000,86.000000,,,,0.000000,4.000000,4.000000,4.000000,0.000000,4.000000,66.666664,,,,,,,,,,,,,,,,,,,,,,,,,,,,,,,,,,,,,,,,,,,,,,,,,,,,,,,,,,,,,,,
1649887037.510059,27.000000,0.000000,4261.025879,4247.179688,4198.461426,4218.461426,4204.615234,0.000000,4.000000,86.000000,,,,0.000000,4.000000,4.000000,4.000000,0.000000,4.000000,66.666664,,,,,,,,,,,,,,,,,,,,,,,,,,,,,,,,,,,,,,,,,,,,,,,,,,,,,,,,,,,,,,,
1649887037.517773,28.000000,0.000000,4256.410156,4258.461426,4201.538574,4218.974121,4196.410156,0.000000,4.000000,86.000000,,,,0.000000,4.000000,4.000000,4.000000,0.000000,4.000000,66.666664,,,,,,,,,,,,,,,,,,,,,,,,,,,,,,,,,,,,,,,1.528744,7.999960,2.066202,0.949586,0.875970,1.161422,1.200159,1.066509,0.545679,0.857483,2.453567,1.081836,1.870779,0.343478,0.161336,0.023599,0.069604,0.025322,0.021010,0.024540,1.986521,6.544621,1.745575,1.127537,0.350892
1649887037.525588,29.000000,0.000000,4260.512695,4272.820313,4202.563965,4216.922852,4209.743652,0.000000,4.000000,86.000000,,,,0.000000,4.000000,4.000000,4.000000,0.000000,4.000000,66.666664,,,,,,,,,,,,,,,,,,,,,,,,,,,,,,,,,,,,,,,,,,,,,,,,,,,,,,,,,,,,,,,
1649887037.533302,30.000000,0.000000,4250.256348,4263.589844,4194.358887,4218.461426,4209.743652,0.000000,4.000000,86.000000,,,,0.000000,4.000000,4.000000,4.000000,0.000000,4.000000,66.666664,,,,,,,,,,,,,,,,,,,,,,,,,,,,,,,,,,,,,,,,,,,,,,,,,,,,,,,,,,,,,,,
1649887037.541216,31.000000,0.000000,4253.846191,4252.820313,4187.179688,4217.948730,4203.589844,0.000000,4.000000,86.000000,,,,0.000000,4.000000,4.000000,4.000000,0.000000,4.000000,66.666664,,,,,,,,,,,,,,,,,,,,,,,,,,,,,,,,,,,,,,,,,,,,,,,,,,,,,,,,,,,,,,,
1649887037.549031,32.000000,0.000000,4274.871582,4258.461426,4188.717773,4216.410156,4216.410156,0.000000,4.000000,86.000000,,,,0.000000,4.000000,4.000000,4.000000,0.000000,4.000000,66.666664,,,,,,,,,,,,,,,,,,,,,,,,,,,,,,,,,,,,,,,,,,,,,,,,,,,,,,,,,,,,,,,
1649887037.556845,33.000000,0.000000,4284.615234,4263.077148,4192.307617,4216.410156,4231.794922,0.000000,4.000000,86.000000,,,,0.000000,4.000000,4.000000,4.000000,0.000000,4.000000,66.666664,,,,,,,,,,,,,,,,,,,,,,,,,,,,,,,,,,,,,,,,,,,,,,,,,,,,,,,,,,,,,,,
1649887037.564560,34.000000,0.000000,4275.897461,4247.179688,4189.743652,4217.948730,4227.179688,0.000000,4.000000,86.000000,,,,0.000000,4.000000,4.000000,4.000000,0.000000,4.000000,66.666664,,,,,,,,,,,,,,,,,,,,,,,,,,,,,,,,,,,,,,,,,,,,,,,,,,,,,,,,,,,,,,,
1649887037.572374,35.000000,0.000000,4268.717773,4237.436035,4184.102539,4217.436035,4213.846191,0.000000,4.000000,86.000000,,,,0.000000,4.000000,4.000000,4.000000,0.000000,4.000000,66.666664,,,,,,,,,,,,,,,,,,,,,,,,,,,,,,,,,,,,,,,,,,,,,,,,,,,,,,,,,,,,,,,
1649887037.580089,36.000000,0.000000,4273.333496,4250.769043,4179.487305,4216.410156,4216.922852,0.000000,4.000000,86.000000,,,,0.000000,4.000000,4.000000,4.000000,0.000000,4.000000,66.666664,,,,,,,,,,,,,,,,,,,,,,,,,,,,,,,,,,,,,,,,,,,,,,,,,,,,,,,,,,,,,,,
1649887037.588003,37.000000,0.000000,4285.641113,4260.512695,4178.974121,4216.410156,4222.563965,0.000000,4.000000,86.000000,,,,0.000000,4.000000,4.000000,4.000000,0.000000,4.000000,66.666664,,,,,,,,,,,,,,,,,,,,,,,,,,,,,,,,,,,,,,,,,,,,,,,,,,,,,,,,,,,,,,,
1649887037.595817,38.000000,0.000000,4286.153809,4257.436035,4186.666504,4217.948730,4219.487305,0.000000,4.000000,86.000000,,,,0.000000,4.000000,4.000000,4.000000,0.000000,4.000000,66.666664,,,,,,,,,,,,,,,,,,,,,,,,,,,,,,,,,,,,,,,,,,,,,,,,,,,,,,,,,,,,,,,
1649887037.603732,39.000000,0.000000,4271.282227,4246.153809,4185.641113,4218.974121,4214.358887,0.000000,4.000000,86.000000,,,,0.000000,4.000000,4.000000,4.000000,0.000000,4.000000,66.666664,,,,,,,,,,,,,,,,,,,,,,,,,,,,,,,,,,,,,,,,,,,,,,,,,,,,,,,,,,,,,,,
1649887037.611546,40.000000,0.000000,4256.922852,4241.025879,4167.692383,4216.410156,4205.128418,0.000000,4.000000,86.000000,,,,0.000000,4.000000,4.000000,4.000000,0.000000,4.000000,66.666664,,,,,,,,,,,,,,,,,,,,,,,,,,,,,,,,,,,,,,,,,,,,,,,,,,,,,,,,,,,,,,,
1649887037.619360,41.000000,0.000000,4245.641113,4252.820313,4161.538574,4215.384766,4189.743652,0.000000,4.000000,86.000000,,,,0.000000,4.000000,4.000000,4.000000,0.000000,4.000000,66.666664,,,,,,,,,,,,,,,,,,,,,,,,,,,,,,,,,,,,,,,,,,,,,,,,,,,,,,,,,,,,,,,
1649887037.627075,42.000000,0.000000,4243.077148,4255.384766,4169.743652,4216.922852,4182.051270,0.000000,4.000000,86.000000,,,,0.000000,4.000000,4.000000,4.000000,0.000000,4.000000,66.666664,,,,,,,,,,,,,,,,,,,,,,,,,,,,,,,,,,,,,,,,,,,,,,,,,,,,,,,,,,,,,,,
1649887037.634989,43.000000,0.000000,4252.820313,4245.128418,4169.743652,4217.436035,4187.692383,0.000000,4.000000,86.000000,,,,0.000000,4.000000,4.000000,4.000000,0.000000,4.000000,66.666664,,,,,,,,,,,,,,,,,,,,,,,,,,,,,,,,,,,,,,,,,,,,,,,,,,,,,,,,,,,,,,,
1649887037.642804,44.000000,0.000000,4262.051270,4245.128418,4162.051270,4215.384766,4190.256348,0.000000,4.000000,86.000000,,,,0.000000,4.000000,4.000000,4.000000,0.000000,4.000000,66.666664,,,,,,,,,,,,,,,,,,,,,,,,,,,,,,,,,,,,,,,1.358851,8.429033,2.166502,0.958330,0.974948,1.242735,1.198389,1.125672,0.445402,0.894092,2.767443,1.126394,1.665796,0.293326,0.157808,0.031353,0.069771,0.022886,0.022651,0.026526,2.237041,6.873253,1.764803,1.086950,0.321592
1649887037.650618,45.000000,0.000000,4258.974121,4247.179688,4162.051270,4216.922852,4193.333496,0.000000,4.000000,86.000000,,,,0.000000,4.000000,4.000000,4.000000,0.000000,4.000000,66.666664,,,,,,,,,,,,,,,,,,,,,,,,,,,,,,,,,,,,,,,,,,,,,,,,,,,,,,,,,,,,,,,
1649887037.658433,46.000000,0.000000,4243.077148,4242.051270,4165.128418,4217.436035,4199.487305,0.000000,4.000000,86.000000,,,,0.000000,4.000000,4.000000,4.000000,0.000000,4.000000,66.666664,,,,,,,,,,,,,,,,,,,,,,,,,,,,,,,,,,,,,,,,,,,,,,,,,,,,,,,,,,,,,,,
1649887037.666147,47.000000,0.000000,4240.000000,4246.153809,4163.077148,4215.384766,4202.563965,0.000000,4.000000,86.000000,,,,0.000000,4.000000,4.000000,4.000000,0.000000,4.000000,66.666664,,,,,,,,,,,,,,,,,,,,,,,,,,,,,,,,,,,,,,,,,,,,,,,,,,,,,,,,,,,,,,,
1649887037.673961,48.000000,0.000000,4257.436035,4238.461426,4158.461426,4217.436035,4207.692383,0.000000,4.000000,86.000000,,,,0.000000,4.000000,4.000000,4.000000,0.000000,4.000000,66.666664,,,,,,,,,,,,,,,,,,,,,,,,,,,,,,,,,,,,,,,,,,,,,,,,,,,,,,,,,,,,,,,
1649887037.681676,49.000000,0.000000,4272.307617,4224.102539,4152.307617,4218.461426,4213.333496,0.000000,4.000000,86.000000,,,,0.000000,4.000000,4.000000,4.000000,0.000000,4.000000,66.666664,,,,,,,,,,,,,,,,,,,,,,,,,,,,,,,,,,,,,,,,,,,,,,,,,,,,,,,,,,,,,,,
1649887037.689590,50.000000,0.000000,4265.128418,4234.871582,4151.794922,4216.410156,4210.256348,0.000000,4.000000,86.000000,,,,0.000000,4.000000,4.000000,4.000000,0.000000,4.000000,66.666664,,,,,,,,,,,,,,,,,,,,,,,,,,,,,,,,,,,,,,,,,,,,,,,,,,,,,,,,,,,,,,,
1649887037.697405,51.000000,0.000000,4244.102539,4242.563965,4160.000000,4216.410156,4197.948730,0.000000,4.000000,86.000000,,,,0.000000,4.000000,4.000000,4.000000,0.000000,4.000000,66.666664,,,,,,,,,,,,,,,,,,,,,,,,,,,,,,,,,,,,,,,,,,,,,,,,,,,,,,,,,,,,,,,
1649887037.705219,52.000000,0.000000,4234.871582,4233.846191,4167.179688,4216.922852,4197.436035,0.000000,4.000000,86.000000,,,,0.000000,4.000000,4.000000,4.000000,0.000000,4.000000,66.666664,,,,,,,,,,,,,,,,,,,,,,,,,,,,,,,,,,,,,,,,,,,,,,,,,,,,,,,,,,,,,,,
1649887037.712934,53.000000,0.000000,4243.589844,4235.897461,4177.436035,4215.897461,4205.128418,0.000000,4.000000,86.000000,,,,0.000000,4.000000,4.000000,4.000000,0.000000,4.000000,66.666664,,,,,,,,,,,,,,,,,,,,,,,,,,,,,,,,,,,,,,,,,,,,,,,,,,,,,,,,,,,,,,,
1649887037.720848,54.000000,0.000000,4251.282227,4242.051270,4191.794922,4216.410156,4203.077148,0.000000,4.000000,86.000000,,,,0.000000,4.000000,4.000000,4.000000,0.000000,4.000000,66.666664,,,,,,,,,,,,,,,,,,,,,,,,,,,,,,,,,,,,,,,,,,,,,,,,,,,,,,,,,,,,,,,
1649887037.728662,55.000000,0.000000,4248.205078,4238.461426,4192.307617,4217.948730,4196.922852,0.000000,4.000000,86.000000,,,,0.000000,4.000000,4.000000,4.000000,0.000000,4.000000,66.666664,,,,,,,,,,,,,,,,,,,,,,,,,,,,,,,,,,,,,,,,,,,,,,,,,,,,,,,,,,,,,,,
1649887037.736577,56.000000,0.000000,4256.922852,4242.563965,4178.974121,4216.922852,4204.615234,0.000000,4.000000,86.000000,,,,0.000000,4.000000,4.000000,4.000000,0.000000,4.000000,66.666664,,,,,,,,,,,,,,,,,,,,,,,,,,,,,,,,,,,,,,,,,,,,,,,,,,,,,,,,,,,,,,,
1649887037.744491,57.000000,0.000000,4278.974121,4249.743652,4180.000000,4216.922852,4223.077148,0.000000,4.000000,86.000000,,,,0.000000,4.000000,4.000000,4.000000,0.000000,4.000000,66.666664,,,,,,,,,,,,,,,,,,,,,,,,,,,,,,,,,,,,,,,,,,,,,,,,,,,,,,,,,,,,,,,
1649887037.752305,58.000000,0.000000,4274.871582,4239.487305,4192.307617,4218.461426,4226.666504,0.000000,4.000000,86.000000,,,,0.000000,4.000000,4.000000,4.000000,0.000000,4.000000,66.666664,,,,,,,,,,,,,,,,,,,,,,,,,,,,,,,,,,,,,,,,,,,,,,,,,,,,,,,,,,,,,,,
1649887037.760220,59.000000,0.000000,4258.974121,4235.384766,4185.641113,4217.948730,4220.000000,0.000000,4.000000,86.000000,,,,0.000000,4.000000,4.000000,4.000000,0.000000,4.000000,66.666664,,,,,,,,,,,,,,,,,,,,,,,,,,,,,,,,,,,,,,,,,,,,,,,,,,,,,,,,,,,,,,,
1649887037.768034,60.000000,0.000000,4270.256348,4252.307617,4170.769043,4218.461426,4222.051270,0.000000,4.000000,86.000000,,,,0.000000,4.000000,4.000000,4.000000,0.000000,4.000000,66.666664,,,,,,,,,,,,,,,,,,,,,,,,,,,,,,,,,,,,,,,1.590283,8.327713,2.095301,1.037253,1.025748,1.398890,1.204129,1.160066,0.392339,0.893148,2.941965,1.199323,1.503132,0.260186,0.164133,0.044638,0.072352,0.020397,0.025731,0.029170,2.896417,6.959711,1.682750,1.072621,0.304291
1649887037.775848,61.000000,0.000000,4282.563965,4255.897461,4170.256348,4218.461426,4226.153809,0.000000,4.000000,86.000000,,,,0.000000,4.000000,4.000000,4.000000,0.000000,4.000000,66.666664,,,,,,,,,,,,,,,,,,,,,,,,,,,,,,,,,,,,,,,,,,,,,,,,,,,,,,,,,,,,,,,
1649887037.783763,62.000000,0.000000,4259.487305,4239.487305,4173.333496,4217.948730,4214.358887,0.000000,4.000000,86.000000,,,,0.000000,4.000000,4.000000,4.000000,0.000000,4.000000,66.666664,,,,,,,,,,,,,,,,,,,,,,,,,,,,,,,,,,,,,,,,,,,,,,,,,,,,,,,,,,,,,,,
1649887037.791577,63.000000,0.000000,4246.666504,4239.487305,4174.871582,4215.897461,4200.000000,0.000000,4.000000,86.000000,,,,0.000000,4.000000,4.000000,4.000000,0.000000,4.000000,66.666664,,,,,,,,,,,,,,,,,,,,,,,,,,,,,,,,,,,,,,,,,,,,,,,,,,,,,,,,,,,,,,,
1649887037.799292,64.000000,0.000000,4273.846191,4252.820313,4185.641113,4215.897461,4205.128418,450.000000,4.000000,86.000000,,,,0.000000,4.000000,4.000000,4.000000,0.000000,4.000000,66.666664,,,,,,,,,,,,,,,,,,,,,,,,,,,,,,,,,,,,,,,,,,,,,,,,,,,,,,,,,,,,,,,
1649887037.807106,65.000000,0.000000,4282.563965,4258.974121,4193.846191,4217.948730,4217.436035,450.000000,4.000000,86.000000,,,,0.000000,4.000000,4.000000,4.000000,0.000000,4.000000,66.666664,,,,,,,,,,,,,,,,,,,,,,,,,,,,,,,,,,,,,,,,,,,,,,,,,,,,,,,,,,,,,,,
1649887037.814821,66.000000,0.000000,4262.563965,4263.077148,4187.179688,4218.461426,4217.948730,16220.000000,4.000000,86.000000,,,,0.000000,4.000000,4.000000,4.000000,0.000000,4.000000,66.666664,,,,,,,,,,,,,,,,,,,,,,,,,,,,,,,,,,,,,,,,,,,,,,,,,,,,,,,,,,,,,,,
1649887037.822635,67.000000,0.000000,4260.000000,4263.589844,4181.538574,4216.922852,4209.743652,450.000000,4.000000,86.000000,,,,0.000000,4.000000,4.000000,4.000000,0.000000,4.000000,66.666664,,,,,,,,,,,,,,,,,,,,,,,,,,,,,,,,,,,,,,,,,,,,,,,,,,,,,,,,,,,,,,,
1649887037.830349,68.000000,0.000000,4266.153809,4255.897461,4180.512695,4215.897461,4207.179688,16171.000000,4.000000,86.000000,,,,0.000000,4.000000,4.000000,4.000000,0.000000,4.000000,66.666664,,,,,,,,,,,,,,,,,,,,,,,,,,,,,,,,,,,,,,,,,,,,,,,,,,,,,,,,,,,,,,,
1649887037.838264,69.000000,0.000000,4261.025879,4243.077148,4184.615234,4217.436035,4209.230957,450.000000,4.000000,86.000000,,,,0.000000,4.000000,4.000000,4.000000,0.000000,4.000000,66.666664,,,,,,,,,,,,,,,,,,,,,,,,,,,,,,,,,,,,,,,,,,,,,,,,,,,,,,,,,,,,,,,
1649887037.846078,70.000000,0.000000,4257.436035,4232.820313,4193.333496,4217.948730,4207.179688,16209.000000,4.000000,86.000000,,,,0.000000,4.000000,4.000000,4.000000,0.000000,4.000000,66.666664,,,,,,,,,,,,,,,,,,,,,,,,,,,,,,,,,,,,,,,,,,,,,,,,,,,,,,,,,,,,,,,
1649887037.853893,71.000000,0.000000,4257.436035,4233.333496,4192.820313,4217.436035,4201.538574,450.000000,4.000000,86.000000,,,,0.000000,4.000000,4.000000,4.000000,0.000000,4.000000,66.666664,,,,,,,,,,,,,,,,,,,,,,,,,,,,,,,,,,,,,,,,,,,,,,,,,,,,,,,,,,,,,,,
1649887037.861607,72.000000,0.000000,4262.051270,4245.128418,4191.282227,4217.436035,4204.102539,450.000000,4.000000,86.000000,,,,0.000000,4.000000,4.000000,4.000000,0.000000,4.000000,66.666664,,,,,,,,,,,,,,,,,,,,,,,,,,,,,,,,,,,,,,,,,,,,,,,,,,,,,,,,,,,,,,,
1649887037.869422,73.000000,0.000000,4273.333496,4260.000000,4202.563965,4217.436035,4213.846191,0.000000,4.000000,86.000000,,,,0.000000,4.000000,4.000000,4.000000,0.000000,4.000000,66.666664,,,,,,,,,,,,,,,,,,,,,,,,,,,,,,,,,,,,,,,,,,,,,,,,,,,,,,,,,,,,,,,
1649887037.877136,74.000000,0.000000,4268.205078,4264.102539,4210.769043,4217.436035,4212.307617,450.000000,4.000000,86.000000,,,,0.000000,4.000000,4.000000,4.000000,0.000000,4.000000,66.666664,,,,,,,,,,,,,,,,,,,,,,,,,,,,,,,,,,,,,,,,,,,,,,,,,,,,,,,,,,,,,,,
1649887037.884950,75.000000,0.000000,4244.102539,4253.846191,4203.589844,4217.948730,4201.538574,16232.000000,4.000000,86.000000,,,,0.000000,4.000000,4.000000,4.000000,0.000000,4.000000,66.666664,,,,,,,,,,,,,,,,,,,,,,,,,,,,,,,,,,,,,,,,,,,,,,,,,,,,,,,,,,,,,,,
