title:david_g_Left, start timestamp:1656266487.424062, stop timestamp:1656266492.433075, headset type:INSIGHT, headset serial:A2D201AE, headset firmware:932, channels:84, sampling rate:eeg_128;pm_0.1;pow_8, samples:641       , version:2.1, 
Timestamp,EEG.Counter,EEG.Interpolated,EEG.AF3,EEG.T7,EEG.Pz,EEG.T8,EEG.AF4,EEG.RawCq,EEG.Battery,EEG.BatteryPercent,MarkerIndex,MarkerType,MarkerValueInt,EEG.MarkerHardware,CQ.AF3,CQ.T7,CQ.Pz,CQ.T8,CQ.AF4,CQ.Overall,EQ.SampleRateQuality,EQ.OVERALL,EQ.AF3,EQ.T7,EQ.Pz,EQ.T8,EQ.AF4,PM.Engagement.IsActive,PM.Engagement.Scaled,PM.Engagement.Raw,PM.Engagement.Min,PM.Engagement.Max,PM.Excitement.IsActive,PM.Excitement.Scaled,PM.Excitement.Raw,PM.Excitement.Min,PM.Excitement.Max,PM.LongTermExcitement,PM.Stress.IsActive,PM.Stress.Scaled,PM.Stress.Raw,PM.Stress.Min,PM.Stress.Max,PM.Relaxation.IsActive,PM.Relaxation.Scaled,PM.Relaxation.Raw,PM.Relaxation.Min,PM.Relaxation.Max,PM.Interest.IsActive,PM.Interest.Scaled,PM.Interest.Raw,PM.Interest.Min,PM.Interest.Max,PM.Focus.IsActive,PM.Focus.Scaled,PM.Focus.Raw,PM.Focus.Min,PM.Focus.Max,POW.AF3.Theta,POW.AF3.Alpha,POW.AF3.BetaL,POW.AF3.BetaH,POW.AF3.Gamma,POW.T7.Theta,POW.T7.Alpha,POW.T7.BetaL,POW.T7.BetaH,POW.T7.Gamma,POW.Pz.Theta,POW.Pz.Alpha,POW.Pz.BetaL,POW.Pz.BetaH,POW.Pz.Gamma,POW.T8.Theta,POW.T8.Alpha,POW.T8.BetaL,POW.T8.BetaH,POW.T8.Gamma,POW.AF4.Theta,POW.AF4.Alpha,POW.AF4.BetaL,POW.AF4.BetaH,POW.AF4.Gamma
1656266487.424062,68.000000,0.000000,4265.641113,4252.307617,4113.846191,4088.205078,4253.846191,16170.000000,4.000000,91.000000,,,,0.000000,4.000000,4.000000,4.000000,4.000000,4.000000,100.000000,,,,,,,,,,,,,,,,,,,,,,,,,,,,,,,,,,,,,,,,,,,,,,,,,,,,,,,,,,,,,,,
1656266487.431777,69.000000,0.000000,4252.307617,4252.307617,4120.512695,4065.128174,4228.717773,450.000000,4.000000,91.000000,,,,0.000000,4.000000,4.000000,4.000000,4.000000,4.000000,100.000000,,,,,,,,,,,,,,,,,,,,,,,,,,,,,,,,,,,,,,,,,,,,,,,,,,,,,,,,,,,,,,,
1656266487.439691,70.000000,0.000000,4258.461426,4253.846191,4127.179688,4077.948730,4240.512695,16193.000000,4.000000,91.000000,,,,0.000000,4.000000,4.000000,4.000000,4.000000,4.000000,100.000000,,,,,,,,,,,,,,,,,,,,,,,,,,,,,,,,,,,,,,,,,,,,,,,,,,,,,,,,,,,,,,,
1656266487.447506,71.000000,0.000000,4274.358887,4238.974121,4129.743652,4086.666748,4244.102539,450.000000,4.000000,91.000000,,,,0.000000,4.000000,4.000000,4.000000,4.000000,4.000000,100.000000,,,,,,,,,,,,,,,,,,,,,,,,,,,,,,,,,,,,,,,,,,,,,,,,,,,,,,,,,,,,,,,
1656266487.455420,72.000000,0.000000,4267.692383,4241.025879,4117.436035,4068.718018,4231.282227,450.000000,4.000000,91.000000,,,,0.000000,4.000000,4.000000,4.000000,4.000000,4.000000,100.000000,,,,,,,,,,,,,,,,,,,,,,,,,,,,,,,,,,,,,,,,,,,,,,,,,,,,,,,,,,,,,,,
1656266487.463234,73.000000,0.000000,4269.743652,4265.641113,4099.487305,4088.718018,4248.717773,16201.000000,4.000000,91.000000,,,,0.000000,4.000000,4.000000,4.000000,4.000000,4.000000,100.000000,,,,,,,,,,,,,,,,,,,,,,,,,,,,,,,,,,,,,,,,,,,,,,,,,,,,,,,,,,,,,,,
1656266487.471149,74.000000,0.000000,4281.025879,4264.615234,4082.564209,4117.436035,4275.384766,450.000000,4.000000,91.000000,,,,0.000000,4.000000,4.000000,4.000000,4.000000,4.000000,100.000000,,,,,,,,,,,,,,,,,,,,,,,,,,,,,,,,,,,,,,,,,,,,,,,,,,,,,,,,,,,,,,,
1656266487.478963,75.000000,0.000000,4278.974121,4246.666504,4097.436035,4098.974121,4267.692383,16189.000000,4.000000,91.000000,,,,0.000000,4.000000,4.000000,4.000000,4.000000,4.000000,100.000000,,,,,,,,,,,,,,,,,,,,,,,,,,,,,,,,,,,,,,,,,,,,,,,,,,,,,,,,,,,,,,,
1656266487.486777,76.000000,0.000000,4253.333496,4247.179688,4106.153809,4069.230713,4240.000000,450.000000,4.000000,91.000000,,,,0.000000,4.000000,4.000000,4.000000,4.000000,4.000000,100.000000,,,,,,,,,,,,,,,,,,,,,,,,,,,,,,,,,,,,,,,,,,,,,,,,,,,,,,,,,,,,,,,
1656266487.494492,77.000000,0.000000,4238.974121,4244.102539,4087.692383,4064.102539,4221.538574,450.000000,4.000000,91.000000,,,,0.000000,4.000000,4.000000,4.000000,4.000000,4.000000,100.000000,,,,,,,,,,,,,,,,,,,,,,,,,,,,,,,,,,,,,,,,,,,,,,,,,,,,,,,,,,,,,,,
1656266487.502306,78.000000,0.000000,4271.794922,4224.102539,4092.820557,4070.769287,4220.000000,450.000000,4.000000,91.000000,,,,0.000000,4.000000,4.000000,4.000000,4.000000,4.000000,100.000000,1.000000,100.000000,4.000000,4.000000,4.000000,4.000000,4.000000,,,,,,,,,,,,,,,,,,,,,,,,,,,,,,,,4.336443,5.144007,3.678768,3.312789,1.427149,7.522346,5.421731,2.727665,2.295424,1.645314,2.882605,5.660650,5.032670,2.006851,1.765640,3.092440,6.723026,4.677838,2.995787,1.928948,9.192282,8.470710,1.997101,4.683063,1.900608
1656266487.510021,79.000000,0.000000,4287.692383,4228.205078,4096.410156,4074.358887,4231.794922,16189.000000,4.000000,91.000000,,,,0.000000,4.000000,4.000000,4.000000,4.000000,4.000000,100.000000,,,,,,,,,,,,,,,,,,,,,,,,,,,,,,,,,,,,,,,,,,,,,,,,,,,,,,,,,,,,,,,
1656266487.517935,80.000000,0.000000,4272.307617,4251.282227,4094.358887,4081.025635,4235.384766,450.000000,4.000000,91.000000,,,,0.000000,4.000000,4.000000,4.000000,4.000000,4.000000,100.000000,,,,,,,,,,,,,,,,,,,,,,,,,,,,,,,,,,,,,,,,,,,,,,,,,,,,,,,,,,,,,,,
1656266487.525749,81.000000,0.000000,4272.820313,4230.256348,4106.666504,4080.000000,4214.871582,450.000000,4.000000,91.000000,,,,0.000000,4.000000,4.000000,4.000000,4.000000,4.000000,100.000000,,,,,,,,,,,,,,,,,,,,,,,,,,,,,,,,,,,,,,,,,,,,,,,,,,,,,,,,,,,,,,,
1656266487.533564,82.000000,0.000000,4273.846191,4200.000000,4111.794922,4060.512939,4209.743652,450.000000,4.000000,91.000000,,,,0.000000,4.000000,4.000000,4.000000,4.000000,4.000000,100.000000,,,,,,,,,,,,,,,,,,,,,,,,,,,,,,,,,,,,,,,,,,,,,,,,,,,,,,,,,,,,,,,
1656266487.541278,83.000000,0.000000,4256.922852,4232.820313,4092.307617,4055.897461,4239.487305,16189.000000,4.000000,91.000000,,,,0.000000,4.000000,4.000000,4.000000,4.000000,4.000000,100.000000,,,,,,,,,,,,,,,,,,,,,,,,,,,,,,,,,,,,,,,,,,,,,,,,,,,,,,,,,,,,,,,
1656266487.549193,84.000000,0.000000,4245.641113,4255.897461,4056.410156,4068.718018,4253.846191,450.000000,4.000000,91.000000,,,,0.000000,4.000000,4.000000,4.000000,4.000000,4.000000,100.000000,,,,,,,,,,,,,,,,,,,,,,,,,,,,,,,,,,,,,,,,,,,,,,,,,,,,,,,,,,,,,,,
1656266487.557007,85.000000,0.000000,4254.358887,4232.307617,4046.666748,4068.718018,4250.256348,450.000000,4.000000,91.000000,,,,0.000000,4.000000,4.000000,4.000000,4.000000,4.000000,100.000000,,,,,,,,,,,,,,,,,,,,,,,,,,,,,,,,,,,,,,,,,,,,,,,,,,,,,,,,,,,,,,,
1656266487.564921,86.000000,0.000000,4261.025879,4211.794922,4064.102539,4053.333252,4245.641113,450.000000,4.000000,91.000000,,,,0.000000,4.000000,4.000000,4.000000,4.000000,4.000000,100.000000,,,,,,,,,,,,,,,,,,,,,,,,,,,,,,,,,,,,,,,,,,,,,,,,,,,,,,,,,,,,,,,
1656266487.572736,87.000000,0.000000,4259.487305,4214.871582,4079.487061,4056.410156,4241.025879,16189.000000,4.000000,91.000000,,,,0.000000,4.000000,4.000000,4.000000,4.000000,4.000000,100.000000,,,,,,,,,,,,,,,,,,,,,,,,,,,,,,,,,,,,,,,,,,,,,,,,,,,,,,,,,,,,,,,
1656266487.580650,88.000000,0.000000,4261.538574,4235.384766,4080.512939,4081.025635,4249.743652,450.000000,4.000000,91.000000,,,,0.000000,4.000000,4.000000,4.000000,4.000000,4.000000,100.000000,,,,,,,,,,,,,,,,,,,,,,,,,,,,,,,,,,,,,,,,,,,,,,,,,,,,,,,,,,,,,,,
1656266487.588465,89.000000,0.000000,4260.512695,4229.743652,4073.333252,4083.076904,4246.153809,450.000000,4.000000,91.000000,,,,0.000000,4.000000,4.000000,4.000000,4.000000,4.000000,100.000000,,,,,,,,,,,,,,,,,,,,,,,,,,,,,,,,,,,,,,,,,,,,,,,,,,,,,,,,,,,,,,,
1656266487.596179,90.000000,0.000000,4275.384766,4216.410156,4082.051270,4085.128174,4232.307617,450.000000,4.000000,91.000000,,,,0.000000,4.000000,4.000000,4.000000,4.000000,4.000000,100.000000,,,,,,,,,,,,,,,,,,,,,,,,,,,,,,,,,,,,,,,,,,,,,,,,,,,,,,,,,,,,,,,
1656266487.604093,91.000000,0.000000,4298.974121,4216.410156,4095.897461,4108.717773,4235.897461,16189.000000,4.000000,91.000000,,,,0.000000,4.000000,4.000000,4.000000,4.000000,4.000000,100.000000,,,,,,,,,,,,,,,,,,,,,,,,,,,,,,,,,,,,,,,,,,,,,,,,,,,,,,,,,,,,,,,
1656266487.611908,92.000000,0.000000,4284.102539,4213.846191,4081.025635,4112.307617,4237.948730,450.000000,4.000000,91.000000,,,,0.000000,4.000000,4.000000,4.000000,4.000000,4.000000,100.000000,,,,,,,,,,,,,,,,,,,,,,,,,,,,,,,,,,,,,,,,,,,,,,,,,,,,,,,,,,,,,,,
1656266487.619722,93.000000,0.000000,4260.512695,4218.461426,4071.281982,4098.974121,4230.256348,450.000000,4.000000,91.000000,,,,0.000000,4.000000,4.000000,4.000000,4.000000,4.000000,100.000000,,,,,,,,,,,,,,,,,,,,,,,,,,,,,,,,,,,,,,,,,,,,,,,,,,,,,,,,,,,,,,,
1656266487.627437,94.000000,0.000000,4250.256348,4218.461426,4092.820557,4070.256348,4207.692383,450.000000,4.000000,91.000000,,,,0.000000,4.000000,4.000000,4.000000,4.000000,4.000000,100.000000,,,,,,,,,,,,,,,,,,,,,,,,,,,,,,,,,,,,,,,4.319525,5.312543,3.789709,3.208990,1.529031,6.327430,5.569408,3.159335,2.100246,1.660093,3.519322,7.971111,3.970390,1.800357,1.734535,2.797536,6.418437,4.579695,2.652477,1.951391,7.303461,7.826447,1.919996,4.299818,1.808784
1656266487.635251,95.000000,0.000000,4238.461426,4222.563965,4091.794922,4051.794922,4202.563965,16189.000000,4.000000,91.000000,,,,0.000000,4.000000,4.000000,4.000000,4.000000,4.000000,100.000000,,,,,,,,,,,,,,,,,,,,,,,,,,,,,,,,,,,,,,,,,,,,,,,,,,,,,,,,,,,,,,,
1656266487.642966,96.000000,0.000000,4247.692383,4222.563965,4049.230713,4082.564209,4228.717773,450.000000,4.000000,91.000000,,,,0.000000,4.000000,4.000000,4.000000,4.000000,4.000000,100.000000,,,,,,,,,,,,,,,,,,,,,,,,,,,,,,,,,,,,,,,,,,,,,,,,,,,,,,,,,,,,,,,
1656266487.650780,97.000000,0.000000,4263.077148,4191.282227,4028.205078,4107.692383,4219.487305,450.000000,4.000000,91.000000,,,,0.000000,4.000000,4.000000,4.000000,4.000000,4.000000,100.000000,,,,,,,,,,,,,,,,,,,,,,,,,,,,,,,,,,,,,,,,,,,,,,,,,,,,,,,,,,,,,,,
1656266487.658495,98.000000,0.000000,4251.282227,4191.282227,4052.307617,4097.948730,4196.410156,450.000000,4.000000,91.000000,,,,0.000000,4.000000,4.000000,4.000000,4.000000,4.000000,100.000000,,,,,,,,,,,,,,,,,,,,,,,,,,,,,,,,,,,,,,,,,,,,,,,,,,,,,,,,,,,,,,,
1656266487.666309,99.000000,0.000000,4222.051270,4235.897461,4060.000000,4079.487061,4206.666504,16189.000000,4.000000,91.000000,,,,0.000000,4.000000,4.000000,4.000000,4.000000,4.000000,100.000000,,,,,,,,,,,,,,,,,,,,,,,,,,,,,,,,,,,,,,,,,,,,,,,,,,,,,,,,,,,,,,,
1656266487.674023,100.000000,0.000000,4230.769043,4242.051270,4044.615479,4083.076904,4229.230957,450.000000,4.000000,91.000000,,,,0.000000,4.000000,4.000000,4.000000,4.000000,4.000000,100.000000,,,,,,,,,,,,,,,,,,,,,,,,,,,,,,,,,,,,,,,,,,,,,,,,,,,,,,,,,,,,,,,
1656266487.681838,101.000000,0.000000,4271.282227,4212.820313,4053.846191,4115.897461,4241.025879,450.000000,4.000000,91.000000,,,,0.000000,4.000000,4.000000,4.000000,4.000000,4.000000,100.000000,,,,,,,,,,,,,,,,,,,,,,,,,,,,,,,,,,,,,,,,,,,,,,,,,,,,,,,,,,,,,,,
1656266487.689552,102.000000,0.000000,4261.025879,4209.743652,4072.820557,4113.333496,4234.358887,450.000000,4.000000,91.000000,,,,0.000000,4.000000,4.000000,4.000000,4.000000,4.000000,100.000000,,,,,,,,,,,,,,,,,,,,,,,,,,,,,,,,,,,,,,,,,,,,,,,,,,,,,,,,,,,,,,,
1656266487.697367,103.000000,0.000000,4252.820313,4229.230957,4085.128174,4092.820557,4244.102539,16189.000000,4.000000,91.000000,,,,0.000000,4.000000,4.000000,4.000000,4.000000,4.000000,100.000000,,,,,,,,,,,,,,,,,,,,,,,,,,,,,,,,,,,,,,,,,,,,,,,,,,,,,,,,,,,,,,,
1656266487.705081,104.000000,0.000000,4282.051270,4216.922852,4082.564209,4109.230957,4253.846191,450.000000,4.000000,91.000000,,,,0.000000,4.000000,4.000000,4.000000,4.000000,4.000000,100.000000,,,,,,,,,,,,,,,,,,,,,,,,,,,,,,,,,,,,,,,,,,,,,,,,,,,,,,,,,,,,,,,
1656266487.712996,105.000000,0.000000,4278.974121,4194.358887,4065.641113,4117.948730,4238.974121,450.000000,4.000000,91.000000,,,,0.000000,4.000000,4.000000,4.000000,4.000000,4.000000,100.000000,,,,,,,,,,,,,,,,,,,,,,,,,,,,,,,,,,,,,,,,,,,,,,,,,,,,,,,,,,,,,,,
1656266487.720810,106.000000,0.000000,4260.000000,4211.282227,4074.358887,4088.718018,4226.153809,450.000000,4.000000,91.000000,,,,0.000000,4.000000,4.000000,4.000000,4.000000,4.000000,100.000000,,,,,,,,,,,,,,,,,,,,,,,,,,,,,,,,,,,,,,,,,,,,,,,,,,,,,,,,,,,,,,,
1656266487.728724,107.000000,0.000000,4253.333496,4203.589844,4086.666748,4058.461426,4208.205078,16189.000000,4.000000,91.000000,,,,0.000000,4.000000,4.000000,4.000000,4.000000,4.000000,100.000000,,,,,,,,,,,,,,,,,,,,,,,,,,,,,,,,,,,,,,,,,,,,,,,,,,,,,,,,,,,,,,,
1656266487.736539,108.000000,0.000000,4241.538574,4174.871582,4080.000000,4058.461426,4195.897461,450.000000,4.000000,91.000000,,,,0.000000,4.000000,4.000000,4.000000,4.000000,4.000000,100.000000,,,,,,,,,,,,,,,,,,,,,,,,,,,,,,,,,,,,,,,,,,,,,,,,,,,,,,,,,,,,,,,
1656266487.744353,109.000000,0.000000,4218.461426,4204.102539,4070.256348,4064.615479,4209.230957,450.000000,4.000000,91.000000,,,,0.000000,4.000000,4.000000,4.000000,4.000000,4.000000,100.000000,,,,,,,,,,,,,,,,,,,,,,,,,,,,,,,,,,,,,,,,,,,,,,,,,,,,,,,,,,,,,,,
1656266487.752068,110.000000,0.000000,4216.410156,4246.666504,4054.358887,4073.333252,4226.153809,450.000000,4.000000,91.000000,,,,0.000000,4.000000,4.000000,4.000000,4.000000,4.000000,100.000000,,,,,,,,,,,,,,,,,,,,,,,,,,,,,,,,,,,,,,,4.484133,5.384056,3.757754,2.939525,1.621282,5.421686,5.481352,3.421720,1.818502,1.677626,4.427384,10.417376,3.172937,1.702712,1.680583,2.681706,5.990607,4.218269,2.314661,1.953729,5.757239,6.937527,1.835935,3.626723,1.695800
1656266487.759982,111.000000,0.000000,4231.282227,4232.307617,4063.076904,4075.384521,4211.282227,16189.000000,4.000000,91.000000,,,,0.000000,4.000000,4.000000,4.000000,4.000000,4.000000,100.000000,,,,,,,,,,,,,,,,,,,,,,,,,,,,,,,,,,,,,,,,,,,,,,,,,,,,,,,,,,,,,,,
1656266487.767796,112.000000,0.000000,4221.538574,4193.846191,4088.718018,4047.692383,4178.974121,450.000000,4.000000,91.000000,,,,0.000000,4.000000,4.000000,4.000000,4.000000,4.000000,100.000000,,,,,,,,,,,,,,,,,,,,,,,,,,,,,,,,,,,,,,,,,,,,,,,,,,,,,,,,,,,,,,,
1656266487.775711,113.000000,0.000000,4225.128418,4191.794922,4085.641113,4054.871826,4186.666504,450.000000,4.000000,91.000000,,,,0.000000,4.000000,4.000000,4.000000,4.000000,4.000000,100.000000,,,,,,,,,,,,,,,,,,,,,,,,,,,,,,,,,,,,,,,,,,,,,,,,,,,,,,,,,,,,,,,
1656266487.783525,114.000000,0.000000,4241.025879,4222.051270,4070.769287,4086.153809,4216.410156,450.000000,4.000000,91.000000,,,,0.000000,4.000000,4.000000,4.000000,4.000000,4.000000,100.000000,,,,,,,,,,,,,,,,,,,,,,,,,,,,,,,,,,,,,,,,,,,,,,,,,,,,,,,,,,,,,,,
1656266487.791439,115.000000,0.000000,4222.051270,4243.077148,4073.333252,4066.666748,4215.897461,16189.000000,4.000000,91.000000,,,,0.000000,4.000000,4.000000,4.000000,4.000000,4.000000,100.000000,,,,,,,,,,,,,,,,,,,,,,,,,,,,,,,,,,,,,,,,,,,,,,,,,,,,,,,,,,,,,,,
1656266487.799254,116.000000,0.000000,4226.153809,4221.538574,4082.051270,4057.948730,4204.615234,450.000000,4.000000,91.000000,,,,0.000000,4.000000,4.000000,4.000000,4.000000,4.000000,100.000000,,,,,,,,,,,,,,,,,,,,,,,,,,,,,,,,,,,,,,,,,,,,,,,,,,,,,,,,,,,,,,,
1656266487.806968,117.000000,0.000000,4256.410156,4183.077148,4072.820557,4084.615479,4188.205078,450.000000,4.000000,91.000000,,,,0.000000,4.000000,4.000000,4.000000,4.000000,4.000000,100.000000,,,,,,,,,,,,,,,,,,,,,,,,,,,,,,,,,,,,,,,,,,,,,,,,,,,,,,,,,,,,,,,
1656266487.814783,118.000000,0.000000,4245.128418,4203.589844,4069.743652,4082.564209,4182.051270,450.000000,4.000000,91.000000,,,,0.000000,4.000000,4.000000,4.000000,4.000000,4.000000,100.000000,,,,,,,,,,,,,,,,,,,,,,,,,,,,,,,,,,,,,,,,,,,,,,,,,,,,,,,,,,,,,,,
1656266487.822497,119.000000,0.000000,4244.615234,4233.333496,4067.179443,4096.410156,4219.487305,16189.000000,4.000000,91.000000,,,,0.000000,4.000000,4.000000,4.000000,4.000000,4.000000,100.000000,,,,,,,,,,,,,,,,,,,,,,,,,,,,,,,,,,,,,,,,,,,,,,,,,,,,,,,,,,,,,,,
1656266487.830312,120.000000,0.000000,4273.846191,4199.487305,4065.641113,4125.641113,4235.384766,450.000000,4.000000,91.000000,,,,0.000000,4.000000,4.000000,4.000000,4.000000,4.000000,100.000000,,,,,,,,,,,,,,,,,,,,,,,,,,,,,,,,,,,,,,,,,,,,,,,,,,,,,,,,,,,,,,,
1656266487.838026,121.000000,0.000000,4268.717773,4196.922852,4086.666748,4115.384766,4220.512695,450.000000,4.000000,91.000000,,,,0.000000,4.000000,4.000000,4.000000,4.000000,4.000000,100.000000,,,,,,,,,,,,,,,,,,,,,,,,,,,,,,,,,,,,,,,,,,,,,,,,,,,,,,,,,,,,,,,
1656266487.845841,122.000000,0.000000,4250.769043,4230.256348,4075.897461,4110.256348,4234.871582,450.000000,4.000000,91.000000,,,,0.000000,4.000000,4.000000,4.000000,4.000000,4.000000,100.000000,,,,,,,,,,,,,,,,,,,,,,,,,,,,,,,,,,,,,,,,,,,,,,,,,,,,,,,,,,,,,,,
1656266487.853555,123.000000,0.000000,4267.692383,4232.307617,4058.974365,4128.717773,4256.410156,16189.000000,4.000000,91.000000,,,,0.000000,4.000000,4.000000,4.000000,4.000000,4.000000,100.000000,,,,,,,,,,,,,,,,,,,,,,,,,,,,,,,,,,,,,,,,,,,,,,,,,,,,,,,,,,,,,,,
1656266487.861369,124.000000,0.000000,4280.512695,4246.666504,4080.512939,4130.256348,4265.641113,450.000000,4.000000,91.000000,,,,0.000000,4.000000,4.000000,4.000000,4.000000,4.000000,100.000000,,,,,,,,,,,,,,,,,,,,,,,,,,,,,,,,,,,,,,,,,,,,,,,,,,,,,,,,,,,,,,,
1656266487.869084,125.000000,0.000000,4266.153809,4251.794922,4066.153809,4114.358887,4267.692383,450.000000,4.000000,91.000000,,,,0.000000,4.000000,4.000000,4.000000,4.000000,4.000000,100.000000,,,,,,,,,,,,,,,,,,,,,,,,,,,,,,,,,,,,,,,,,,,,,,,,,,,,,,,,,,,,,,,
1656266487.876898,126.000000,0.000000,4269.743652,4228.205078,4056.923096,4103.077148,4260.512695,450.000000,4.000000,91.000000,,,,0.000000,4.000000,4.000000,4.000000,4.000000,4.000000,100.000000,,,,,,,,,,,,,,,,,,,,,,,,,,,,,,,,,,,,,,,4.860057,5.239157,3.489164,2.571259,1.653915,4.855515,5.152537,3.385388,1.518891,1.671765,5.424940,12.433210,2.801930,1.738046,1.637172,2.772835,5.538494,3.553486,2.063200,1.935297,4.964656,6.075805,1.797119,2.846143,1.589460
1656266487.884613,127.000000,0.000000,4257.436035,4234.358887,4101.538574,4069.743652,4234.358887,242.000000,4.000000,91.000000,,,,0.000000,4.000000,4.000000,4.000000,4.000000,4.000000,100.000000,,,,,,,,,,,,,,,,,,,,,,,,,,,,,,,,,,,,,,,,,,,,,,,,,,,,,,,,,,,,,,,
1656266487.892427,0.000000,0.000000,4222.051270,4244.102539,4105.641113,4054.871826,4211.282227,450.000000,4.000000,91.000000,,,,0.000000,4.000000,4.000000,4.000000,4.000000,4.000000,100.000000,,,,,,,,,,,,,,,,,,,,,,,,,,,,,,,,,,,,,,,,,,,,,,,,,,,,,,,,,,,,,,,
1656266487.900142,1.000000,0.000000,4225.641113,4232.307617,4079.487061,4088.205078,4221.025879,450.000000,4.000000,91.000000,,,,0.000000,4.000000,4.000000,4.000000,4.000000,4.000000,100.000000,,,,,,,,,,,,,,,,,,,,,,,,,,,,,,,,,,,,,,,,,,,,,,,,,,,,,,,,,,,,,,,
1656266487.908056,2.000000,0.000000,4233.333496,4232.820313,4099.487305,4087.179443,4226.153809,16216.000000,4.000000,91.000000,,,,0.000000,4.000000,4.000000,4.000000,4.000000,4.000000,100.000000,,,,,,,,,,,,,,,,,,,,,,,,,,,,,,,,,,,,,,,,,,,,,,,,,,,,,,,,,,,,,,,
1656266487.915870,3.000000,0.000000,4243.589844,4247.179688,4124.102539,4083.076904,4229.230957,450.000000,4.000000,91.000000,,,,0.000000,4.000000,4.000000,4.000000,4.000000,4.000000,100.000000,,,,,,,,,,,,,,,,,,,,,,,,,,,,,,,,,,,,,,,,,,,,,,,,,,,,,,,,,,,,,,,
1656266487.923785,4.000000,0.000000,4275.384766,4258.974121,4103.077148,4119.487305,4255.897461,16191.000000,4.000000,91.000000,,,,0.000000,4.000000,4.000000,4.000000,4.000000,4.000000,100.000000,,,,,,,,,,,,,,,,,,,,,,,,,,,,,,,,,,,,,,,,,,,,,,,,,,,,,,,,,,,,,,,
1656266487.931599,5.000000,0.000000,4276.410156,4261.025879,4078.461426,4124.102539,4271.794922,450.000000,4.000000,91.000000,,,,0.000000,4.000000,4.000000,4.000000,4.000000,4.000000,100.000000,,,,,,,,,,,,,,,,,,,,,,,,,,,,,,,,,,,,,,,,,,,,,,,,,,,,,,,,,,,,,,,
1656266487.939513,6.000000,0.000000,4267.179688,4260.000000,4076.410156,4112.307617,4271.282227,16188.000000,4.000000,91.000000,,,,0.000000,4.000000,4.000000,4.000000,4.000000,4.000000,100.000000,,,,,,,,,,,,,,,,,,,,,,,,,,,,,,,,,,,,,,,,,,,,,,,,,,,,,,,,,,,,,,,
1656266487.947328,7.000000,0.000000,4280.512695,4243.589844,4086.153809,4121.538574,4261.025879,450.000000,4.000000,91.000000,,,,0.000000,4.000000,4.000000,4.000000,4.000000,4.000000,100.000000,,,,,,,,,,,,,,,,,,,,,,,,,,,,,,,,,,,,,,,,,,,,,,,,,,,,,,,,,,,,,,,
1656266487.955242,8.000000,0.000000,4285.128418,4235.897461,4108.717773,4109.743652,4251.794922,450.000000,4.000000,91.000000,,,,0.000000,4.000000,4.000000,4.000000,4.000000,4.000000,100.000000,,,,,,,,,,,,,,,,,,,,,,,,,,,,,,,,,,,,,,,,,,,,,,,,,,,,,,,,,,,,,,,
1656266487.963057,9.000000,0.000000,4273.846191,4252.820313,4108.205078,4083.076904,4253.333496,16204.000000,4.000000,91.000000,,,,0.000000,4.000000,4.000000,4.000000,4.000000,4.000000,100.000000,,,,,,,,,,,,,,,,,,,,,,,,,,,,,,,,,,,,,,,,,,,,,,,,,,,,,,,,,,,,,,,
1656266487.970971,10.000000,0.000000,4266.153809,4253.846191,4081.538574,4076.923096,4247.692383,450.000000,4.000000,91.000000,,,,0.000000,4.000000,4.000000,4.000000,4.000000,4.000000,100.000000,,,,,,,,,,,,,,,,,,,,,,,,,,,,,,,,,,,,,,,,,,,,,,,,,,,,,,,,,,,,,,,
1656266487.978785,11.000000,0.000000,4281.025879,4237.948730,4098.461426,4094.871826,4238.461426,16179.000000,4.000000,91.000000,,,,0.000000,4.000000,4.000000,4.000000,4.000000,4.000000,100.000000,,,,,,,,,,,,,,,,,,,,,,,,,,,,,,,,,,,,,,,,,,,,,,,,,,,,,,,,,,,,,,,
1656266487.986500,12.000000,0.000000,4289.743652,4222.051270,4128.717773,4094.871826,4228.205078,450.000000,4.000000,91.000000,,,,0.000000,4.000000,4.000000,4.000000,4.000000,4.000000,100.000000,,,,,,,,,,,,,,,,,,,,,,,,,,,,,,,,,,,,,,,,,,,,,,,,,,,,,,,,,,,,,,,
1656266487.994314,13.000000,0.000000,4272.307617,4223.589844,4100.512695,4075.897461,4230.256348,450.000000,4.000000,91.000000,,,,0.000000,4.000000,4.000000,4.000000,4.000000,4.000000,100.000000,,,,,,,,,,,,,,,,,,,,,,,,,,,,,,,,,,,,,,,,,,,,,,,,,,,,,,,,,,,,,,,
1656266488.002029,14.000000,0.000000,4278.974121,4230.769043,4073.846191,4094.358887,4244.615234,450.000000,4.000000,91.000000,,,,0.000000,4.000000,4.000000,4.000000,4.000000,4.000000,100.000000,1.000000,100.000000,4.000000,4.000000,4.000000,4.000000,4.000000,,,,,,,,,,,,,,,,,,,,,,,,,,,,,,,,5.331632,4.949770,3.088773,2.196850,1.613787,4.434154,4.594473,3.056728,1.295489,1.664664,6.259574,13.558166,2.861346,1.885967,1.629795,3.074930,5.160153,2.794179,1.948200,1.902803,4.978088,5.383926,1.885474,2.151292,1.523532
1656266488.009843,15.000000,0.000000,4297.948730,4218.974121,4085.128174,4111.794922,4249.743652,16179.000000,4.000000,91.000000,,,,0.000000,4.000000,4.000000,4.000000,4.000000,4.000000,100.000000,,,,,,,,,,,,,,,,,,,,,,,,,,,,,,,,,,,,,,,,,,,,,,,,,,,,,,,,,,,,,,,
1656266488.017558,16.000000,0.000000,4283.077148,4217.948730,4089.743652,4090.769287,4257.948730,0.000000,4.000000,91.000000,,,,0.000000,4.000000,4.000000,4.000000,4.000000,4.000000,100.000000,,,,,,,,,,,,,,,,,,,,,,,,,,,,,,,,,,,,,,,,,,,,,,,,,,,,,,,,,,,,,,,
1656266488.025372,17.000000,0.000000,4268.205078,4210.256348,4093.846191,4075.897461,4251.794922,0.000000,4.000000,91.000000,,,,0.000000,4.000000,4.000000,4.000000,4.000000,4.000000,100.000000,,,,,,,,,,,,,,,,,,,,,,,,,,,,,,,,,,,,,,,,,,,,,,,,,,,,,,,,,,,,,,,
1656266488.033087,18.000000,0.000000,4294.871582,4193.333496,4126.153809,4087.179443,4227.179688,0.000000,4.000000,91.000000,,,,0.000000,4.000000,4.000000,4.000000,4.000000,4.000000,100.000000,,,,,,,,,,,,,,,,,,,,,,,,,,,,,,,,,,,,,,,,,,,,,,,,,,,,,,,,,,,,,,,
1656266488.040901,19.000000,0.000000,4296.922852,4229.743652,4127.179688,4085.641113,4237.948730,0.000000,4.000000,91.000000,,,,0.000000,4.000000,4.000000,4.000000,4.000000,4.000000,100.000000,,,,,,,,,,,,,,,,,,,,,,,,,,,,,,,,,,,,,,,,,,,,,,,,,,,,,,,,,,,,,,,
1656266488.048616,20.000000,0.000000,4251.282227,4271.794922,4074.358887,4072.820557,4268.717773,0.000000,4.000000,91.000000,,,,0.000000,4.000000,4.000000,4.000000,4.000000,4.000000,100.000000,,,,,,,,,,,,,,,,,,,,,,,,,,,,,,,,,,,,,,,,,,,,,,,,,,,,,,,,,,,,,,,
1656266488.056530,21.000000,0.000000,4263.077148,4257.948730,4072.307617,4091.794922,4274.358887,0.000000,4.000000,91.000000,,,,0.000000,4.000000,4.000000,4.000000,4.000000,4.000000,100.000000,,,,,,,,,,,,,,,,,,,,,,,,,,,,,,,,,,,,,,,,,,,,,,,,,,,,,,,,,,,,,,,
1656266488.064344,22.000000,0.000000,4301.538574,4253.333496,4095.384521,4104.102539,4267.179688,0.000000,4.000000,91.000000,,,,0.000000,4.000000,4.000000,4.000000,4.000000,4.000000,100.000000,,,,,,,,,,,,,,,,,,,,,,,,,,,,,,,,,,,,,,,,,,,,,,,,,,,,,,,,,,,,,,,
1656266488.072159,23.000000,0.000000,4277.436035,4274.358887,4067.692383,4088.205078,4260.512695,0.000000,4.000000,91.000000,,,,0.000000,4.000000,4.000000,4.000000,4.000000,4.000000,100.000000,,,,,,,,,,,,,,,,,,,,,,,,,,,,,,,,,,,,,,,,,,,,,,,,,,,,,,,,,,,,,,,
1656266488.079873,24.000000,0.000000,4261.538574,4251.794922,4058.974365,4097.948730,4252.820313,0.000000,4.000000,91.000000,,,,0.000000,4.000000,4.000000,4.000000,4.000000,4.000000,100.000000,,,,,,,,,,,,,,,,,,,,,,,,,,,,,,,,,,,,,,,,,,,,,,,,,,,,,,,,,,,,,,,
1656266488.087787,25.000000,0.000000,4281.538574,4197.948730,4078.974365,4105.641113,4234.358887,0.000000,4.000000,91.000000,,,,0.000000,4.000000,4.000000,4.000000,4.000000,4.000000,100.000000,,,,,,,,,,,,,,,,,,,,,,,,,,,,,,,,,,,,,,,,,,,,,,,,,,,,,,,,,,,,,,,
1656266488.095602,26.000000,0.000000,4286.666504,4197.948730,4083.589844,4088.205078,4225.128418,0.000000,4.000000,91.000000,,,,0.000000,4.000000,4.000000,4.000000,4.000000,4.000000,100.000000,,,,,,,,,,,,,,,,,,,,,,,,,,,,,,,,,,,,,,,,,,,,,,,,,,,,,,,,,,,,,,,
1656266488.103516,27.000000,0.000000,4272.820313,4226.666504,4089.743652,4073.846191,4223.077148,0.000000,4.000000,91.000000,,,,0.000000,4.000000,4.000000,4.000000,4.000000,4.000000,100.000000,,,,,,,,,,,,,,,,,,,,,,,,,,,,,,,,,,,,,,,,,,,,,,,,,,,,,,,,,,,,,,,
1656266488.111331,28.000000,0.000000,4262.051270,4225.641113,4098.461426,4074.358887,4210.769043,0.000000,4.000000,91.000000,,,,0.000000,4.000000,4.000000,4.000000,4.000000,4.000000,100.000000,,,,,,,,,,,,,,,,,,,,,,,,,,,,,,,,,,,,,,,,,,,,,,,,,,,,,,,,,,,,,,,
1656266488.119245,29.000000,0.000000,4254.358887,4234.358887,4093.333252,4078.974365,4218.974121,0.000000,4.000000,91.000000,,,,0.000000,4.000000,4.000000,4.000000,4.000000,4.000000,100.000000,,,,,,,,,,,,,,,,,,,,,,,,,,,,,,,,,,,,,,,,,,,,,,,,,,,,,,,,,,,,,,,
1656266488.127059,30.000000,0.000000,4242.563965,4254.871582,4080.512939,4069.230713,4235.897461,0.000000,4.000000,91.000000,,,,0.000000,4.000000,4.000000,4.000000,4.000000,4.000000,100.000000,,,,,,,,,,,,,,,,,,,,,,,,,,,,,,,,,,,,,,,5.705751,4.728351,2.734953,1.908950,1.521979,3.964054,3.900297,2.556309,1.215771,1.706024,6.718189,13.576904,3.198884,2.077635,1.663259,3.656348,4.948367,2.251714,1.967667,1.869522,5.564115,4.906245,2.157163,1.672865,1.518946
1656266488.134974,31.000000,0.000000,4249.743652,4255.897461,4083.076904,4071.281982,4238.461426,0.000000,4.000000,91.000000,,,,0.000000,4.000000,4.000000,4.000000,4.000000,4.000000,100.000000,,,,,,,,,,,,,,,,,,,,,,,,,,,,,,,,,,,,,,,,,,,,,,,,,,,,,,,,,,,,,,,
1656266488.142788,32.000000,0.000000,4263.077148,4253.333496,4092.820557,4089.743652,4245.128418,0.000000,4.000000,91.000000,,,,0.000000,4.000000,4.000000,4.000000,4.000000,4.000000,100.000000,,,,,,,,,,,,,,,,,,,,,,,,,,,,,,,,,,,,,,,,,,,,,,,,,,,,,,,,,,,,,,,
1656266488.150702,33.000000,0.000000,4260.512695,4248.205078,4084.615479,4094.871826,4254.358887,0.000000,4.000000,91.000000,,,,0.000000,4.000000,4.000000,4.000000,4.000000,4.000000,100.000000,,,,,,,,,,,,,,,,,,,,,,,,,,,,,,,,,,,,,,,,,,,,,,,,,,,,,,,,,,,,,,,
1656266488.158517,34.000000,0.000000,4267.179688,4242.051270,4081.025635,4103.077148,4256.410156,0.000000,4.000000,91.000000,,,,0.000000,4.000000,4.000000,4.000000,4.000000,4.000000,100.000000,,,,,,,,,,,,,,,,,,,,,,,,,,,,,,,,,,,,,,,,,,,,,,,,,,,,,,,,,,,,,,,
1656266488.166431,35.000000,0.000000,4268.717773,4256.922852,4070.256348,4111.282227,4257.436035,0.000000,4.000000,91.000000,,,,0.000000,4.000000,4.000000,4.000000,4.000000,4.000000,100.000000,,,,,,,,,,,,,,,,,,,,,,,,,,,,,,,,,,,,,,,,,,,,,,,,,,,,,,,,,,,,,,,
1656266488.174245,36.000000,0.000000,4260.512695,4273.333496,4061.025635,4106.666504,4260.512695,0.000000,4.000000,91.000000,,,,0.000000,4.000000,4.000000,4.000000,4.000000,4.000000,100.000000,,,,,,,,,,,,,,,,,,,,,,,,,,,,,,,,,,,,,,,,,,,,,,,,,,,,,,,,,,,,,,,
1656266488.181960,37.000000,0.000000,4287.179688,4243.589844,4088.718018,4120.000000,4258.461426,0.000000,4.000000,91.000000,,,,0.000000,4.000000,4.000000,4.000000,4.000000,4.000000,100.000000,,,,,,,,,,,,,,,,,,,,,,,,,,,,,,,,,,,,,,,,,,,,,,,,,,,,,,,,,,,,,,,
1656266488.189874,38.000000,0.000000,4310.256348,4195.897461,4098.461426,4127.179688,4243.589844,0.000000,4.000000,91.000000,,,,0.000000,4.000000,4.000000,4.000000,4.000000,4.000000,100.000000,,,,,,,,,,,,,,,,,,,,,,,,,,,,,,,,,,,,,,,,,,,,,,,,,,,,,,,,,,,,,,,
1656266488.197689,39.000000,0.000000,4291.282227,4211.282227,4082.051270,4109.743652,4236.410156,0.000000,4.000000,91.000000,,,,0.000000,4.000000,4.000000,4.000000,4.000000,4.000000,100.000000,,,,,,,,,,,,,,,,,,,,,,,,,,,,,,,,,,,,,,,,,,,,,,,,,,,,,,,,,,,,,,,
1656266488.205503,40.000000,0.000000,4280.512695,4229.230957,4087.179443,4097.436035,4229.230957,0.000000,4.000000,91.000000,,,,0.000000,4.000000,4.000000,4.000000,4.000000,4.000000,100.000000,,,,,,,,,,,,,,,,,,,,,,,,,,,,,,,,,,,,,,,,,,,,,,,,,,,,,,,,,,,,,,,
1656266488.213218,41.000000,0.000000,4295.897461,4197.436035,4107.179688,4088.205078,4223.589844,0.000000,4.000000,91.000000,,,,0.000000,4.000000,4.000000,4.000000,4.000000,4.000000,100.000000,,,,,,,,,,,,,,,,,,,,,,,,,,,,,,,,,,,,,,,,,,,,,,,,,,,,,,,,,,,,,,,
1656266488.221132,42.000000,0.000000,4287.179688,4222.051270,4096.410156,4081.538574,4247.692383,0.000000,4.000000,91.000000,,,,0.000000,4.000000,4.000000,4.000000,4.000000,4.000000,100.000000,,,,,,,,,,,,,,,,,,,,,,,,,,,,,,,,,,,,,,,,,,,,,,,,,,,,,,,,,,,,,,,
1656266488.228946,43.000000,0.000000,4243.077148,4282.051270,4072.820557,4076.410156,4259.487305,0.000000,4.000000,91.000000,,,,0.000000,4.000000,4.000000,4.000000,4.000000,4.000000,100.000000,,,,,,,,,,,,,,,,,,,,,,,,,,,,,,,,,,,,,,,,,,,,,,,,,,,,,,,,,,,,,,,
1656266488.236761,44.000000,0.000000,4243.589844,4275.384766,4085.128174,4073.333252,4248.205078,0.000000,4.000000,91.000000,,,,0.000000,4.000000,4.000000,4.000000,4.000000,4.000000,100.000000,,,,,,,,,,,,,,,,,,,,,,,,,,,,,,,,,,,,,,,,,,,,,,,,,,,,,,,,,,,,,,,
1656266488.244475,45.000000,0.000000,4284.615234,4232.307617,4096.922852,4078.974365,4247.179688,0.000000,4.000000,91.000000,,,,0.000000,4.000000,4.000000,4.000000,4.000000,4.000000,100.000000,,,,,,,,,,,,,,,,,,,,,,,,,,,,,,,,,,,,,,,,,,,,,,,,,,,,,,,,,,,,,,,
1656266488.252389,46.000000,0.000000,4290.256348,4230.769043,4082.051270,4094.358887,4253.846191,0.000000,4.000000,91.000000,,,,0.000000,4.000000,4.000000,4.000000,4.000000,4.000000,100.000000,,,,,,,,,,,,,,,,,,,,,,,,,,,,,,,,,,,,,,,5.838607,4.739772,2.536767,1.737179,1.419800,3.432538,3.234552,2.057797,1.276451,1.830650,6.719310,12.552119,3.565670,2.208251,1.722997,4.504169,4.979620,2.149494,2.054162,1.843620,6.350113,4.672335,2.610980,1.421701,1.558779
1656266488.260204,47.000000,0.000000,4297.436035,4238.461426,4095.384521,4120.512695,4254.871582,0.000000,4.000000,91.000000,,,,0.000000,4.000000,4.000000,4.000000,4.000000,4.000000,100.000000,,,,,,,,,,,,,,,,,,,,,,,,,,,,,,,,,,,,,,,,,,,,,,,,,,,,,,,,,,,,,,,
1656266488.268118,48.000000,0.000000,4305.641113,4210.256348,4123.077148,4117.948730,4240.000000,0.000000,4.000000,91.000000,,,,0.000000,4.000000,4.000000,4.000000,4.000000,4.000000,100.000000,,,,,,,,,,,,,,,,,,,,,,,,,,,,,,,,,,,,,,,,,,,,,,,,,,,,,,,,,,,,,,,
1656266488.275933,49.000000,0.000000,4294.358887,4214.871582,4119.487305,4104.102539,4236.410156,0.000000,4.000000,91.000000,,,,0.000000,4.000000,4.000000,4.000000,4.000000,4.000000,100.000000,,,,,,,,,,,,,,,,,,,,,,,,,,,,,,,,,,,,,,,,,,,,,,,,,,,,,,,,,,,,,,,
1656266488.283847,50.000000,0.000000,4298.461426,4247.179688,4105.641113,4110.256348,4248.717773,0.000000,4.000000,91.000000,,,,0.000000,4.000000,4.000000,4.000000,4.000000,4.000000,100.000000,,,,,,,,,,,,,,,,,,,,,,,,,,,,,,,,,,,,,,,,,,,,,,,,,,,,,,,,,,,,,,,
1656266488.291661,51.000000,0.000000,4307.179688,4235.897461,4095.897461,4111.794922,4243.589844,0.000000,4.000000,91.000000,,,,0.000000,4.000000,4.000000,4.000000,4.000000,4.000000,100.000000,,,,,,,,,,,,,,,,,,,,,,,,,,,,,,,,,,,,,,,,,,,,,,,,,,,,,,,,,,,,,,,
1656266488.299576,52.000000,0.000000,4290.256348,4213.846191,4101.025879,4092.820557,4224.102539,0.000000,4.000000,91.000000,,,,0.000000,4.000000,4.000000,4.000000,4.000000,4.000000,100.000000,,,,,,,,,,,,,,,,,,,,,,,,,,,,,,,,,,,,,,,,,,,,,,,,,,,,,,,,,,,,,,,
1656266488.307390,53.000000,0.000000,4253.333496,4216.922852,4114.871582,4053.846191,4206.153809,0.000000,4.000000,91.000000,,,,0.000000,4.000000,4.000000,4.000000,4.000000,4.000000,100.000000,,,,,,,,,,,,,,,,,,,,,,,,,,,,,,,,,,,,,,,,,,,,,,,,,,,,,,,,,,,,,,,
1656266488.315304,54.000000,0.000000,4242.563965,4235.897461,4103.589844,4046.666748,4212.820313,0.000000,4.000000,91.000000,,,,0.000000,4.000000,4.000000,4.000000,4.000000,4.000000,100.000000,,,,,,,,,,,,,,,,,,,,,,,,,,,,,,,,,,,,,,,,,,,,,,,,,,,,,,,,,,,,,,,
1656266488.323119,55.000000,0.000000,4271.794922,4245.641113,4081.025635,4086.666748,4238.974121,0.000000,4.000000,91.000000,,,,0.000000,4.000000,4.000000,4.000000,4.000000,4.000000,100.000000,,,,,,,,,,,,,,,,,,,,,,,,,,,,,,,,,,,,,,,,,,,,,,,,,,,,,,,,,,,,,,,
1656266488.331033,56.000000,0.000000,4287.179688,4237.948730,4071.794922,4102.563965,4244.615234,0.000000,4.000000,91.000000,,,,0.000000,4.000000,4.000000,4.000000,4.000000,4.000000,100.000000,,,,,,,,,,,,,,,,,,,,,,,,,,,,,,,,,,,,,,,,,,,,,,,,,,,,,,,,,,,,,,,
1656266488.338847,57.000000,0.000000,4276.410156,4230.769043,4084.615479,4086.153809,4233.333496,0.000000,4.000000,91.000000,,,,0.000000,4.000000,4.000000,4.000000,4.000000,4.000000,100.000000,,,,,,,,,,,,,,,,,,,,,,,,,,,,,,,,,,,,,,,,,,,,,,,,,,,,,,,,,,,,,,,
1656266488.346562,58.000000,0.000000,4264.615234,4228.717773,4095.897461,4073.333252,4224.102539,0.000000,4.000000,91.000000,,,,0.000000,4.000000,4.000000,4.000000,4.000000,4.000000,100.000000,,,,,,,,,,,,,,,,,,,,,,,,,,,,,,,,,,,,,,,,,,,,,,,,,,,,,,,,,,,,,,,
1656266488.354376,59.000000,0.000000,4270.256348,4227.692383,4096.410156,4075.897461,4223.077148,0.000000,4.000000,91.000000,,,,0.000000,4.000000,4.000000,4.000000,4.000000,4.000000,100.000000,,,,,,,,,,,,,,,,,,,,,,,,,,,,,,,,,,,,,,,,,,,,,,,,,,,,,,,,,,,,,,,
1656266488.362091,60.000000,0.000000,4271.794922,4224.102539,4099.487305,4078.461426,4222.563965,0.000000,4.000000,91.000000,,,,0.000000,4.000000,4.000000,4.000000,4.000000,4.000000,100.000000,,,,,,,,,,,,,,,,,,,,,,,,,,,,,,,,,,,,,,,,,,,,,,,,,,,,,,,,,,,,,,,
1656266488.369905,61.000000,0.000000,4244.102539,4222.051270,4092.307617,4064.615479,4223.077148,0.000000,4.000000,91.000000,,,,0.000000,4.000000,4.000000,4.000000,4.000000,4.000000,100.000000,,,,,,,,,,,,,,,,,,,,,,,,,,,,,,,,,,,,,,,,,,,,,,,,,,,,,,,,,,,,,,,
1656266488.377620,62.000000,0.000000,4242.051270,4232.820313,4084.102539,4064.615479,4233.333496,0.000000,4.000000,91.000000,,,,0.000000,4.000000,4.000000,4.000000,4.000000,4.000000,100.000000,,,,,,,,,,,,,,,,,,,,,,,,,,,,,,,,,,,,,,,5.716251,5.067814,2.546678,1.660068,1.351343,2.964114,2.849056,1.754339,1.448184,2.034585,6.274776,10.784330,3.760280,2.190768,1.791532,5.490789,5.331274,2.532613,2.099876,1.823853,7.025070,4.751765,3.192409,1.324134,1.594956
1656266488.385434,63.000000,0.000000,4270.256348,4225.128418,4075.897461,4075.897461,4223.589844,0.000000,4.000000,91.000000,,,,0.000000,4.000000,4.000000,4.000000,4.000000,4.000000,100.000000,,,,,,,,,,,,,,,,,,,,,,,,,,,,,,,,,,,,,,,,,,,,,,,,,,,,,,,,,,,,,,,
1656266488.393149,64.000000,0.000000,4269.230957,4204.102539,4073.333252,4062.564209,4208.205078,450.000000,4.000000,91.000000,,,,0.000000,4.000000,4.000000,4.000000,4.000000,4.000000,100.000000,,,,,,,,,,,,,,,,,,,,,,,,,,,,,,,,,,,,,,,,,,,,,,,,,,,,,,,,,,,,,,,
1656266488.400963,65.000000,0.000000,4260.512695,4224.102539,4067.179443,4065.128174,4241.025879,450.000000,4.000000,91.000000,,,,0.000000,4.000000,4.000000,4.000000,4.000000,4.000000,100.000000,,,,,,,,,,,,,,,,,,,,,,,,,,,,,,,,,,,,,,,,,,,,,,,,,,,,,,,,,,,,,,,
1656266488.408877,66.000000,0.000000,4269.230957,4235.897461,4036.923096,4077.435791,4257.948730,16213.000000,4.000000,91.000000,,,,0.000000,4.000000,4.000000,4.000000,4.000000,4.000000,100.000000,,,,,,,,,,,,,,,,,,,,,,,,,,,,,,,,,,,,,,,,,,,,,,,,,,,,,,,,,,,,,,,
1656266488.416792,67.000000,0.000000,4278.974121,4193.846191,4042.564209,4058.974365,4214.871582,450.000000,4.000000,91.000000,,,,0.000000,4.000000,4.000000,4.000000,4.000000,4.000000,100.000000,,,,,,,,,,,,,,,,,,,,,,,,,,,,,,,,,,,,,,,,,,,,,,,,,,,,,,,,,,,,,,,
1656266488.424606,68.000000,0.000000,4272.307617,4175.897461,4074.358887,4045.641113,4195.384766,16189.000000,4.000000,91.000000,,,,0.000000,4.000000,4.000000,4.000000,4.000000,4.000000,100.000000,,,,,,,,,,,,,,,,,,,,,,,,,,,,,,,,,,,,,,,,,,,,,,,,,,,,,,,,,,,,,,,
1656266488.432421,69.000000,0.000000,4254.871582,4200.512695,4074.871826,4063.589844,4221.538574,450.000000,4.000000,91.000000,,,,0.000000,4.000000,4.000000,4.000000,4.000000,4.000000,100.000000,,,,,,,,,,,,,,,,,,,,,,,,,,,,,,,,,,,,,,,,,,,,,,,,,,,,,,,,,,,,,,,
1656266488.440135,70.000000,0.000000,4263.077148,4206.153809,4078.974365,4080.512939,4235.384766,16179.000000,4.000000,91.000000,,,,0.000000,4.000000,4.000000,4.000000,4.000000,4.000000,100.000000,,,,,,,,,,,,,,,,,,,,,,,,,,,,,,,,,,,,,,,,,,,,,,,,,,,,,,,,,,,,,,,
1656266488.447949,71.000000,0.000000,4269.230957,4189.743652,4089.743652,4070.256348,4216.410156,450.000000,4.000000,91.000000,,,,0.000000,4.000000,4.000000,4.000000,4.000000,4.000000,100.000000,,,,,,,,,,,,,,,,,,,,,,,,,,,,,,,,,,,,,,,,,,,,,,,,,,,,,,,,,,,,,,,
1656266488.455664,72.000000,0.000000,4255.897461,4198.974121,4088.205078,4073.846191,4209.230957,450.000000,4.000000,91.000000,,,,0.000000,4.000000,4.000000,4.000000,4.000000,4.000000,100.000000,,,,,,,,,,,,,,,,,,,,,,,,,,,,,,,,,,,,,,,,,,,,,,,,,,,,,,,,,,,,,,,
1656266488.463478,73.000000,0.000000,4243.077148,4217.436035,4083.076904,4085.128174,4221.538574,16190.000000,4.000000,91.000000,,,,0.000000,4.000000,4.000000,4.000000,4.000000,4.000000,100.000000,,,,,,,,,,,,,,,,,,,,,,,,,,,,,,,,,,,,,,,,,,,,,,,,,,,,,,,,,,,,,,,
1656266488.471193,74.000000,0.000000,4236.922852,4216.410156,4081.025635,4071.281982,4224.102539,450.000000,4.000000,91.000000,,,,0.000000,4.000000,4.000000,4.000000,4.000000,4.000000,100.000000,,,,,,,,,,,,,,,,,,,,,,,,,,,,,,,,,,,,,,,,,,,,,,,,,,,,,,,,,,,,,,,
1656266488.479107,75.000000,0.000000,4255.384766,4217.436035,4079.487061,4084.102539,4226.153809,16168.000000,4.000000,91.000000,,,,0.000000,4.000000,4.000000,4.000000,4.000000,4.000000,100.000000,,,,,,,,,,,,,,,,,,,,,,,,,,,,,,,,,,,,,,,,,,,,,,,,,,,,,,,,,,,,,,,
1656266488.486922,76.000000,0.000000,4268.717773,4197.948730,4063.589844,4106.153809,4214.871582,450.000000,4.000000,91.000000,,,,0.000000,4.000000,4.000000,4.000000,4.000000,4.000000,100.000000,,,,,,,,,,,,,,,,,,,,,,,,,,,,,,,,,,,,,,,,,,,,,,,,,,,,,,,,,,,,,,,
1656266488.494836,77.000000,0.000000,4245.641113,4171.794922,4047.179443,4075.897461,4202.563965,450.000000,4.000000,91.000000,,,,0.000000,4.000000,4.000000,4.000000,4.000000,4.000000,100.000000,,,,,,,,,,,,,,,,,,,,,,,,,,,,,,,,,,,,,,,,,,,,,,,,,,,,,,,,,,,,,,,
1656266488.502650,78.000000,0.000000,4225.641113,4207.692383,4049.743652,4054.358887,4226.666504,450.000000,4.000000,91.000000,,,,0.000000,4.000000,4.000000,4.000000,4.000000,4.000000,100.000000,1.000000,100.000000,4.000000,4.000000,4.000000,4.000000,4.000000,,,,,,,,,,,,,,,,,,,,,,,,,,,,,,,,5.486936,5.662611,2.777616,1.617668,1.348286,2.669733,2.995917,1.765028,1.684769,2.276511,5.474967,8.743357,3.772917,1.999628,1.861196,6.359739,6.101048,3.299748,2.009285,1.799198,7.380405,5.189633,3.784514,1.288309,1.577275
1656266488.510565,79.000000,0.000000,4235.897461,4238.461426,4053.333252,4086.666748,4246.153809,16168.000000,4.000000,91.000000,,,,0.000000,4.000000,4.000000,4.000000,4.000000,4.000000,100.000000,,,,,,,,,,,,,,,,,,,,,,,,,,,,,,,,,,,,,,,,,,,,,,,,,,,,,,,,,,,,,,,
1656266488.518379,80.000000,0.000000,4257.436035,4215.384766,4065.128174,4110.769043,4237.948730,450.000000,4.000000,91.000000,,,,0.000000,4.000000,4.000000,4.000000,4.000000,4.000000,100.000000,,,,,,,,,,,,,,,,,,,,,,,,,,,,,,,,,,,,,,,,,,,,,,,,,,,,,,,,,,,,,,,
1656266488.526094,81.000000,0.000000,4267.179688,4198.461426,4078.974365,4094.358887,4225.641113,450.000000,4.000000,91.000000,,,,0.000000,4.000000,4.000000,4.000000,4.000000,4.000000,100.000000,,,,,,,,,,,,,,,,,,,,,,,,,,,,,,,,,,,,,,,,,,,,,,,,,,,,,,,,,,,,,,,
1656266488.533908,82.000000,0.000000,4263.077148,4204.102539,4082.564209,4077.435791,4212.307617,450.000000,4.000000,91.000000,,,,0.000000,4.000000,4.000000,4.000000,4.000000,4.000000,100.000000,,,,,,,,,,,,,,,,,,,,,,,,,,,,,,,,,,,,,,,,,,,,,,,,,,,,,,,,,,,,,,,
1656266488.541622,83.000000,0.000000,4246.153809,4220.512695,4084.102539,4073.846191,4209.230957,16168.000000,4.000000,91.000000,,,,0.000000,4.000000,4.000000,4.000000,4.000000,4.000000,100.000000,,,,,,,,,,,,,,,,,,,,,,,,,,,,,,,,,,,,,,,,,,,,,,,,,,,,,,,,,,,,,,,
1656266488.549437,84.000000,0.000000,4228.717773,4238.974121,4078.974365,4058.461426,4220.512695,450.000000,4.000000,91.000000,,,,0.000000,4.000000,4.000000,4.000000,4.000000,4.000000,100.000000,,,,,,,,,,,,,,,,,,,,,,,,,,,,,,,,,,,,,,,,,,,,,,,,,,,,,,,,,,,,,,,
1656266488.557151,85.000000,0.000000,4245.641113,4243.077148,4077.948730,4066.666748,4237.436035,450.000000,4.000000,91.000000,,,,0.000000,4.000000,4.000000,4.000000,4.000000,4.000000,100.000000,,,,,,,,,,,,,,,,,,,,,,,,,,,,,,,,,,,,,,,,,,,,,,,,,,,,,,,,,,,,,,,
1656266488.565066,86.000000,0.000000,4273.333496,4215.384766,4083.076904,4102.051270,4236.410156,450.000000,4.000000,91.000000,,,,0.000000,4.000000,4.000000,4.000000,4.000000,4.000000,100.000000,,,,,,,,,,,,,,,,,,,,,,,,,,,,,,,,,,,,,,,,,,,,,,,,,,,,,,,,,,,,,,,
1656266488.572880,87.000000,0.000000,4278.461426,4197.436035,4080.512939,4108.717773,4221.025879,16168.000000,4.000000,91.000000,,,,0.000000,4.000000,4.000000,4.000000,4.000000,4.000000,100.000000,,,,,,,,,,,,,,,,,,,,,,,,,,,,,,,,,,,,,,,,,,,,,,,,,,,,,,,,,,,,,,,
1656266488.580694,88.000000,0.000000,4288.717773,4210.256348,4089.230713,4101.025879,4223.077148,450.000000,4.000000,91.000000,,,,0.000000,4.000000,4.000000,4.000000,4.000000,4.000000,100.000000,,,,,,,,,,,,,,,,,,,,,,,,,,,,,,,,,,,,,,,,,,,,,,,,,,,,,,,,,,,,,,,
1656266488.588409,89.000000,0.000000,4291.282227,4211.794922,4098.461426,4099.487305,4228.205078,450.000000,4.000000,91.000000,,,,0.000000,4.000000,4.000000,4.000000,4.000000,4.000000,100.000000,,,,,,,,,,,,,,,,,,,,,,,,,,,,,,,,,,,,,,,,,,,,,,,,,,,,,,,,,,,,,,,
1656266488.596223,90.000000,0.000000,4284.102539,4212.820313,4107.692383,4098.974121,4232.307617,450.000000,4.000000,91.000000,,,,0.000000,4.000000,4.000000,4.000000,4.000000,4.000000,100.000000,,,,,,,,,,,,,,,,,,,,,,,,,,,,,,,,,,,,,,,,,,,,,,,,,,,,,,,,,,,,,,,
1656266488.603938,91.000000,0.000000,4284.615234,4225.641113,4116.922852,4098.461426,4237.948730,16168.000000,4.000000,91.000000,,,,0.000000,4.000000,4.000000,4.000000,4.000000,4.000000,100.000000,,,,,,,,,,,,,,,,,,,,,,,,,,,,,,,,,,,,,,,,,,,,,,,,,,,,,,,,,,,,,,,
1656266488.611752,92.000000,0.000000,4289.743652,4237.948730,4101.538574,4112.307617,4238.461426,450.000000,4.000000,91.000000,,,,0.000000,4.000000,4.000000,4.000000,4.000000,4.000000,100.000000,,,,,,,,,,,,,,,,,,,,,,,,,,,,,,,,,,,,,,,,,,,,,,,,,,,,,,,,,,,,,,,
1656266488.619467,93.000000,0.000000,4300.000000,4244.102539,4098.461426,4118.461426,4245.641113,450.000000,4.000000,91.000000,,,,0.000000,4.000000,4.000000,4.000000,4.000000,4.000000,100.000000,,,,,,,,,,,,,,,,,,,,,,,,,,,,,,,,,,,,,,,,,,,,,,,,,,,,,,,,,,,,,,,
1656266488.627281,94.000000,0.000000,4291.282227,4222.051270,4115.384766,4082.564209,4236.410156,450.000000,4.000000,91.000000,,,,0.000000,4.000000,4.000000,4.000000,4.000000,4.000000,100.000000,,,,,,,,,,,,,,,,,,,,,,,,,,,,,,,,,,,,,,,5.256071,6.322494,3.194699,1.554321,1.419740,2.576976,3.756670,2.084860,1.968820,2.506011,4.484701,6.895073,3.742035,1.704359,1.931134,6.821297,7.237364,4.238504,1.764992,1.760796,7.211076,5.939426,4.253136,1.275577,1.495162
1656266488.634996,95.000000,0.000000,4273.333496,4217.436035,4111.794922,4072.307617,4215.897461,16168.000000,4.000000,91.000000,,,,0.000000,4.000000,4.000000,4.000000,4.000000,4.000000,100.000000,,,,,,,,,,,,,,,,,,,,,,,,,,,,,,,,,,,,,,,,,,,,,,,,,,,,,,,,,,,,,,,
1656266488.642810,96.000000,0.000000,4263.077148,4258.461426,4082.564209,4093.333252,4230.256348,450.000000,4.000000,91.000000,,,,0.000000,4.000000,4.000000,4.000000,4.000000,4.000000,100.000000,,,,,,,,,,,,,,,,,,,,,,,,,,,,,,,,,,,,,,,,,,,,,,,,,,,,,,,,,,,,,,,
1656266488.650525,97.000000,0.000000,4243.077148,4269.230957,4058.974365,4072.820557,4253.333496,450.000000,4.000000,91.000000,,,,0.000000,4.000000,4.000000,4.000000,4.000000,4.000000,100.000000,,,,,,,,,,,,,,,,,,,,,,,,,,,,,,,,,,,,,,,,,,,,,,,,,,,,,,,,,,,,,,,
1656266488.658439,98.000000,0.000000,4247.692383,4230.769043,4076.923096,4065.128174,4251.282227,450.000000,4.000000,91.000000,,,,0.000000,4.000000,4.000000,4.000000,4.000000,4.000000,100.000000,,,,,,,,,,,,,,,,,,,,,,,,,,,,,,,,,,,,,,,,,,,,,,,,,,,,,,,,,,,,,,,
1656266488.666253,99.000000,0.000000,4281.025879,4200.000000,4101.025879,4098.461426,4240.000000,16168.000000,4.000000,91.000000,,,,0.000000,4.000000,4.000000,4.000000,4.000000,4.000000,100.000000,,,,,,,,,,,,,,,,,,,,,,,,,,,,,,,,,,,,,,,,,,,,,,,,,,,,,,,,,,,,,,,
1656266488.674168,100.000000,0.000000,4285.128418,4210.256348,4098.461426,4096.410156,4226.666504,450.000000,4.000000,91.000000,,,,0.000000,4.000000,4.000000,4.000000,4.000000,4.000000,100.000000,,,,,,,,,,,,,,,,,,,,,,,,,,,,,,,,,,,,,,,,,,,,,,,,,,,,,,,,,,,,,,,
1656266488.681982,101.000000,0.000000,4257.948730,4241.538574,4077.435791,4087.179443,4229.230957,450.000000,4.000000,91.000000,,,,0.000000,4.000000,4.000000,4.000000,4.000000,4.000000,100.000000,,,,,,,,,,,,,,,,,,,,,,,,,,,,,,,,,,,,,,,,,,,,,,,,,,,,,,,,,,,,,,,
1656266488.689796,102.000000,0.000000,4247.692383,4218.461426,4066.153809,4090.769287,4231.794922,450.000000,4.000000,91.000000,,,,0.000000,4.000000,4.000000,4.000000,4.000000,4.000000,100.000000,,,,,,,,,,,,,,,,,,,,,,,,,,,,,,,,,,,,,,,,,,,,,,,,,,,,,,,,,,,,,,,
1656266488.697511,103.000000,0.000000,4266.153809,4195.897461,4074.358887,4080.000000,4232.307617,16168.000000,4.000000,91.000000,,,,0.000000,4.000000,4.000000,4.000000,4.000000,4.000000,100.000000,,,,,,,,,,,,,,,,,,,,,,,,,,,,,,,,,,,,,,,,,,,,,,,,,,,,,,,,,,,,,,,
1656266488.705425,104.000000,0.000000,4281.025879,4227.692383,4067.179443,4086.153809,4247.692383,450.000000,4.000000,91.000000,,,,0.000000,4.000000,4.000000,4.000000,4.000000,4.000000,100.000000,,,,,,,,,,,,,,,,,,,,,,,,,,,,,,,,,,,,,,,,,,,,,,,,,,,,,,,,,,,,,,,
1656266488.713240,105.000000,0.000000,4277.436035,4233.333496,4061.025635,4095.897461,4248.717773,450.000000,4.000000,91.000000,,,,0.000000,4.000000,4.000000,4.000000,4.000000,4.000000,100.000000,,,,,,,,,,,,,,,,,,,,,,,,,,,,,,,,,,,,,,,,,,,,,,,,,,,,,,,,,,,,,,,
1656266488.721054,106.000000,0.000000,4275.384766,4215.384766,4063.589844,4085.128174,4234.358887,450.000000,4.000000,91.000000,,,,0.000000,4.000000,4.000000,4.000000,4.000000,4.000000,100.000000,,,,,,,,,,,,,,,,,,,,,,,,,,,,,,,,,,,,,,,,,,,,,,,,,,,,,,,,,,,,,,,
1656266488.728869,107.000000,0.000000,4272.307617,4231.794922,4044.615479,4086.666748,4233.333496,16168.000000,4.000000,91.000000,,,,0.000000,4.000000,4.000000,4.000000,4.000000,4.000000,100.000000,,,,,,,,,,,,,,,,,,,,,,,,,,,,,,,,,,,,,,,,,,,,,,,,,,,,,,,,,,,,,,,
1656266488.736583,108.000000,0.000000,4268.717773,4254.871582,4044.615479,4104.102539,4247.692383,450.000000,4.000000,91.000000,,,,0.000000,4.000000,4.000000,4.000000,4.000000,4.000000,100.000000,,,,,,,,,,,,,,,,,,,,,,,,,,,,,,,,,,,,,,,,,,,,,,,,,,,,,,,,,,,,,,,
1656266488.744397,109.000000,0.000000,4275.384766,4219.487305,4077.948730,4096.410156,4232.307617,450.000000,4.000000,91.000000,,,,0.000000,4.000000,4.000000,4.000000,4.000000,4.000000,100.000000,,,,,,,,,,,,,,,,,,,,,,,,,,,,,,,,,,,,,,,,,,,,,,,,,,,,,,,,,,,,,,,
1656266488.752112,110.000000,0.000000,4271.794922,4185.641113,4091.281982,4074.871826,4195.384766,450.000000,4.000000,91.000000,,,,0.000000,4.000000,4.000000,4.000000,4.000000,4.000000,100.000000,,,,,,,,,,,,,,,,,,,,,,,,,,,,,,,,,,,,,,,5.076530,6.814135,3.727625,1.458315,1.544109,2.655509,4.961588,2.599727,2.285060,2.681995,3.455355,5.528365,3.785675,1.416940,1.987071,6.701362,8.480680,5.114152,1.436365,1.704099,6.522025,6.790083,4.473434,1.278700,1.376647
1656266488.759926,111.000000,0.000000,4268.205078,4225.641113,4067.179443,4090.256348,4206.666504,16168.000000,4.000000,91.000000,,,,0.000000,4.000000,4.000000,4.000000,4.000000,4.000000,100.000000,,,,,,,,,,,,,,,,,,,,,,,,,,,,,,,,,,,,,,,,,,,,,,,,,,,,,,,,,,,,,,,
1656266488.767641,112.000000,0.000000,4272.820313,4250.256348,4044.615479,4113.333496,4243.077148,450.000000,4.000000,91.000000,,,,0.000000,4.000000,4.000000,4.000000,4.000000,4.000000,100.000000,,,,,,,,,,,,,,,,,,,,,,,,,,,,,,,,,,,,,,,,,,,,,,,,,,,,,,,,,,,,,,,
1656266488.775455,113.000000,0.000000,4285.641113,4233.333496,4062.564209,4123.077148,4257.948730,450.000000,4.000000,91.000000,,,,0.000000,4.000000,4.000000,4.000000,4.000000,4.000000,100.000000,,,,,,,,,,,,,,,,,,,,,,,,,,,,,,,,,,,,,,,,,,,,,,,,,,,,,,,,,,,,,,,
1656266488.783170,114.000000,0.000000,4295.384766,4232.820313,4090.769287,4115.384766,4242.051270,450.000000,4.000000,91.000000,,,,0.000000,4.000000,4.000000,4.000000,4.000000,4.000000,100.000000,,,,,,,,,,,,,,,,,,,,,,,,,,,,,,,,,,,,,,,,,,,,,,,,,,,,,,,,,,,,,,,
1656266488.790984,115.000000,0.000000,4280.512695,4249.230957,4089.230713,4082.051270,4216.410156,16168.000000,4.000000,91.000000,,,,0.000000,4.000000,4.000000,4.000000,4.000000,4.000000,100.000000,,,,,,,,,,,,,,,,,,,,,,,,,,,,,,,,,,,,,,,,,,,,,,,,,,,,,,,,,,,,,,,
1656266488.798699,116.000000,0.000000,4278.974121,4248.717773,4086.153809,4084.102539,4228.717773,450.000000,4.000000,91.000000,,,,0.000000,4.000000,4.000000,4.000000,4.000000,4.000000,100.000000,,,,,,,,,,,,,,,,,,,,,,,,,,,,,,,,,,,,,,,,,,,,,,,,,,,,,,,,,,,,,,,
1656266488.806513,117.000000,0.000000,4286.666504,4224.102539,4085.128174,4110.256348,4249.743652,450.000000,4.000000,91.000000,,,,0.000000,4.000000,4.000000,4.000000,4.000000,4.000000,100.000000,,,,,,,,,,,,,,,,,,,,,,,,,,,,,,,,,,,,,,,,,,,,,,,,,,,,,,,,,,,,,,,
1656266488.814228,118.000000,0.000000,4289.743652,4211.282227,4081.538574,4112.820313,4250.256348,450.000000,4.000000,91.000000,,,,0.000000,4.000000,4.000000,4.000000,4.000000,4.000000,100.000000,,,,,,,,,,,,,,,,,,,,,,,,,,,,,,,,,,,,,,,,,,,,,,,,,,,,,,,,,,,,,,,
1656266488.822042,119.000000,0.000000,4299.487305,4208.717773,4100.512695,4089.230713,4224.615234,16168.000000,4.000000,91.000000,,,,0.000000,4.000000,4.000000,4.000000,4.000000,4.000000,100.000000,,,,,,,,,,,,,,,,,,,,,,,,,,,,,,,,,,,,,,,,,,,,,,,,,,,,,,,,,,,,,,,
1656266488.829757,120.000000,0.000000,4279.487305,4201.025879,4115.384766,4064.615479,4194.871582,450.000000,4.000000,91.000000,,,,0.000000,4.000000,4.000000,4.000000,4.000000,4.000000,100.000000,,,,,,,,,,,,,,,,,,,,,,,,,,,,,,,,,,,,,,,,,,,,,,,,,,,,,,,,,,,,,,,
1656266488.837671,121.000000,0.000000,4260.512695,4217.948730,4103.077148,4078.461426,4211.794922,450.000000,4.000000,91.000000,,,,0.000000,4.000000,4.000000,4.000000,4.000000,4.000000,100.000000,,,,,,,,,,,,,,,,,,,,,,,,,,,,,,,,,,,,,,,,,,,,,,,,,,,,,,,,,,,,,,,
1656266488.845485,122.000000,0.000000,4270.769043,4225.128418,4088.205078,4089.743652,4217.948730,450.000000,4.000000,91.000000,,,,0.000000,4.000000,4.000000,4.000000,4.000000,4.000000,100.000000,,,,,,,,,,,,,,,,,,,,,,,,,,,,,,,,,,,,,,,,,,,,,,,,,,,,,,,,,,,,,,,
1656266488.853300,123.000000,0.000000,4271.794922,4209.230957,4096.410156,4068.718018,4194.871582,16168.000000,4.000000,91.000000,,,,0.000000,4.000000,4.000000,4.000000,4.000000,4.000000,100.000000,,,,,,,,,,,,,,,,,,,,,,,,,,,,,,,,,,,,,,,,,,,,,,,,,,,,,,,,,,,,,,,
1656266488.861114,124.000000,0.000000,4258.974121,4234.358887,4097.436035,4073.333252,4215.897461,450.000000,4.000000,91.000000,,,,0.000000,4.000000,4.000000,4.000000,4.000000,4.000000,100.000000,,,,,,,,,,,,,,,,,,,,,,,,,,,,,,,,,,,,,,,,,,,,,,,,,,,,,,,,,,,,,,,
1656266488.869028,125.000000,0.000000,4265.641113,4246.153809,4074.358887,4098.461426,4242.051270,450.000000,4.000000,91.000000,,,,0.000000,4.000000,4.000000,4.000000,4.000000,4.000000,100.000000,,,,,,,,,,,,,,,,,,,,,,,,,,,,,,,,,,,,,,,,,,,,,,,,,,,,,,,,,,,,,,,
1656266488.876843,126.000000,0.000000,4282.563965,4221.025879,4079.487061,4103.589844,4235.897461,450.000000,4.000000,91.000000,,,,0.000000,4.000000,4.000000,4.000000,4.000000,4.000000,100.000000,,,,,,,,,,,,,,,,,,,,,,,,,,,,,,,,,,,,,,,4.958402,6.951427,4.254257,1.363798,1.675614,2.811783,6.229271,3.145771,2.592174,2.780888,2.550563,4.656116,3.933922,1.221966,1.997916,5.974748,9.461244,5.720623,1.141846,1.631669,5.434067,7.394866,4.367071,1.287396,1.260383
1656266488.884757,127.000000,0.000000,4267.692383,4236.922852,4085.128174,4100.000000,4241.025879,242.000000,4.000000,91.000000,,,,0.000000,4.000000,4.000000,4.000000,4.000000,4.000000,100.000000,,,,,,,,,,,,,,,,,,,,,,,,,,,,,,,,,,,,,,,,,,,,,,,,,,,,,,,,,,,,,,,
1656266488.892571,0.000000,0.000000,4250.256348,4256.922852,4075.384521,4099.487305,4246.666504,450.000000,4.000000,91.000000,,,,0.000000,4.000000,4.000000,4.000000,4.000000,4.000000,100.000000,,,,,,,,,,,,,,,,,,,,,,,,,,,,,,,,,,,,,,,,,,,,,,,,,,,,,,,,,,,,,,,
1656266488.900386,1.000000,0.000000,4264.615234,4238.974121,4092.820557,4105.128418,4241.538574,450.000000,4.000000,91.000000,,,,0.000000,4.000000,4.000000,4.000000,4.000000,4.000000,100.000000,,,,,,,,,,,,,,,,,,,,,,,,,,,,,,,,,,,,,,,,,,,,,,,,,,,,,,,,,,,,,,,
1656266488.908100,2.000000,0.000000,4269.743652,4236.410156,4087.179443,4107.692383,4248.205078,16202.000000,4.000000,91.000000,,,,0.000000,4.000000,4.000000,4.000000,4.000000,4.000000,100.000000,,,,,,,,,,,,,,,,,,,,,,,,,,,,,,,,,,,,,,,,,,,,,,,,,,,,,,,,,,,,,,,
1656266488.916015,3.000000,0.000000,4263.589844,4255.384766,4072.820557,4101.538574,4253.333496,450.000000,4.000000,91.000000,,,,0.000000,4.000000,4.000000,4.000000,4.000000,4.000000,100.000000,,,,,,,,,,,,,,,,,,,,,,,,,,,,,,,,,,,,,,,,,,,,,,,,,,,,,,,,,,,,,,,
1656266488.923829,4.000000,0.000000,4274.871582,4232.307617,4103.589844,4089.230713,4222.563965,16195.000000,4.000000,91.000000,,,,0.000000,4.000000,4.000000,4.000000,4.000000,4.000000,100.000000,,,,,,,,,,,,,,,,,,,,,,,,,,,,,,,,,,,,,,,,,,,,,,,,,,,,,,,,,,,,,,,
1656266488.931544,5.000000,0.000000,4274.358887,4196.922852,4114.871582,4078.974365,4189.743652,450.000000,4.000000,91.000000,,,,0.000000,4.000000,4.000000,4.000000,4.000000,4.000000,100.000000,,,,,,,,,,,,,,,,,,,,,,,,,,,,,,,,,,,,,,,,,,,,,,,,,,,,,,,,,,,,,,,
1656266488.939358,6.000000,0.000000,4256.410156,4213.846191,4091.794922,4088.205078,4209.743652,16140.000000,4.000000,91.000000,,,,0.000000,4.000000,4.000000,4.000000,4.000000,4.000000,100.000000,,,,,,,,,,,,,,,,,,,,,,,,,,,,,,,,,,,,,,,,,,,,,,,,,,,,,,,,,,,,,,,
1656266488.947073,7.000000,0.000000,4258.974121,4231.794922,4089.743652,4102.051270,4231.282227,450.000000,4.000000,91.000000,,,,0.000000,4.000000,4.000000,4.000000,4.000000,4.000000,100.000000,,,,,,,,,,,,,,,,,,,,,,,,,,,,,,,,,,,,,,,,,,,,,,,,,,,,,,,,,,,,,,,
1656266488.954887,8.000000,0.000000,4283.077148,4230.769043,4102.051270,4114.358887,4230.256348,450.000000,4.000000,91.000000,,,,0.000000,4.000000,4.000000,4.000000,4.000000,4.000000,100.000000,,,,,,,,,,,,,,,,,,,,,,,,,,,,,,,,,,,,,,,,,,,,,,,,,,,,,,,,,,,,,,,
1656266488.962601,9.000000,0.000000,4271.282227,4247.692383,4105.128418,4103.589844,4233.333496,16163.000000,4.000000,91.000000,,,,0.000000,4.000000,4.000000,4.000000,4.000000,4.000000,100.000000,,,,,,,,,,,,,,,,,,,,,,,,,,,,,,,,,,,,,,,,,,,,,,,,,,,,,,,,,,,,,,,
1656266488.970416,10.000000,0.000000,4238.974121,4275.897461,4103.077148,4082.564209,4238.974121,450.000000,4.000000,91.000000,,,,0.000000,4.000000,4.000000,4.000000,4.000000,4.000000,100.000000,,,,,,,,,,,,,,,,,,,,,,,,,,,,,,,,,,,,,,,,,,,,,,,,,,,,,,,,,,,,,,,
1656266488.978130,11.000000,0.000000,4265.641113,4276.410156,4106.666504,4113.846191,4254.358887,16211.000000,4.000000,91.000000,,,,0.000000,4.000000,4.000000,4.000000,4.000000,4.000000,100.000000,,,,,,,,,,,,,,,,,,,,,,,,,,,,,,,,,,,,,,,,,,,,,,,,,,,,,,,,,,,,,,,
1656266488.985945,12.000000,0.000000,4295.897461,4248.717773,4109.743652,4145.641113,4258.974121,450.000000,4.000000,91.000000,,,,0.000000,4.000000,4.000000,4.000000,4.000000,4.000000,100.000000,,,,,,,,,,,,,,,,,,,,,,,,,,,,,,,,,,,,,,,,,,,,,,,,,,,,,,,,,,,,,,,
1656266488.993659,13.000000,0.000000,4272.820313,4233.333496,4110.769043,4125.641113,4245.128418,450.000000,4.000000,91.000000,,,,0.000000,4.000000,4.000000,4.000000,4.000000,4.000000,100.000000,,,,,,,,,,,,,,,,,,,,,,,,,,,,,,,,,,,,,,,,,,,,,,,,,,,,,,,,,,,,,,,
1656266489.001474,14.000000,0.000000,4249.230957,4218.461426,4121.025879,4089.743652,4213.846191,450.000000,4.000000,91.000000,,,,0.000000,4.000000,4.000000,4.000000,4.000000,4.000000,100.000000,1.000000,100.000000,4.000000,4.000000,4.000000,4.000000,4.000000,,,,,,,,,,,,,,,,,,,,,,,,,,,,,,,,4.882719,6.668370,4.616249,1.335742,1.766594,2.940921,7.131068,3.637861,2.864264,2.813937,1.957575,4.117427,4.160545,1.154800,1.939357,4.799496,9.816135,5.863079,0.997035,1.559642,4.169285,7.418514,3.935481,1.311575,1.187224
1656266489.009188,15.000000,0.000000,4241.025879,4213.846191,4121.025879,4071.794922,4191.282227,16211.000000,4.000000,91.000000,,,,0.000000,4.000000,4.000000,4.000000,4.000000,4.000000,100.000000,,,,,,,,,,,,,,,,,,,,,,,,,,,,,,,,,,,,,,,,,,,,,,,,,,,,,,,,,,,,,,,
1656266489.017103,16.000000,0.000000,4249.743652,4241.025879,4119.487305,4093.846191,4203.589844,0.000000,4.000000,91.000000,,,,0.000000,4.000000,4.000000,4.000000,4.000000,4.000000,100.000000,,,,,,,,,,,,,,,,,,,,,,,,,,,,,,,,,,,,,,,,,,,,,,,,,,,,,,,,,,,,,,,
1656266489.024917,17.000000,0.000000,4268.717773,4233.846191,4126.666504,4114.358887,4213.846191,0.000000,4.000000,91.000000,,,,0.000000,4.000000,4.000000,4.000000,4.000000,4.000000,100.000000,,,,,,,,,,,,,,,,,,,,,,,,,,,,,,,,,,,,,,,,,,,,,,,,,,,,,,,,,,,,,,,
1656266489.032831,18.000000,0.000000,4263.077148,4206.666504,4122.563965,4100.000000,4211.794922,0.000000,4.000000,91.000000,,,,0.000000,4.000000,4.000000,4.000000,4.000000,4.000000,100.000000,,,,,,,,,,,,,,,,,,,,,,,,,,,,,,,,,,,,,,,,,,,,,,,,,,,,,,,,,,,,,,,
1656266489.040646,19.000000,0.000000,4255.897461,4239.487305,4105.128418,4106.666504,4232.820313,0.000000,4.000000,91.000000,,,,0.000000,4.000000,4.000000,4.000000,4.000000,4.000000,100.000000,,,,,,,,,,,,,,,,,,,,,,,,,,,,,,,,,,,,,,,,,,,,,,,,,,,,,,,,,,,,,,,
1656266489.048560,20.000000,0.000000,4265.641113,4254.871582,4087.179443,4124.102539,4245.641113,0.000000,4.000000,91.000000,,,,0.000000,4.000000,4.000000,4.000000,4.000000,4.000000,100.000000,,,,,,,,,,,,,,,,,,,,,,,,,,,,,,,,,,,,,,,,,,,,,,,,,,,,,,,,,,,,,,,
1656266489.056474,21.000000,0.000000,4270.256348,4224.615234,4084.615479,4110.769043,4229.743652,0.000000,4.000000,91.000000,,,,0.000000,4.000000,4.000000,4.000000,4.000000,4.000000,100.000000,,,,,,,,,,,,,,,,,,,,,,,,,,,,,,,,,,,,,,,,,,,,,,,,,,,,,,,,,,,,,,,
1656266489.064289,22.000000,0.000000,4258.461426,4228.717773,4082.051270,4103.077148,4226.666504,0.000000,4.000000,91.000000,,,,0.000000,4.000000,4.000000,4.000000,4.000000,4.000000,100.000000,,,,,,,,,,,,,,,,,,,,,,,,,,,,,,,,,,,,,,,,,,,,,,,,,,,,,,,,,,,,,,,
1656266489.072203,23.000000,0.000000,4251.794922,4232.820313,4091.794922,4111.282227,4226.666504,0.000000,4.000000,91.000000,,,,0.000000,4.000000,4.000000,4.000000,4.000000,4.000000,100.000000,,,,,,,,,,,,,,,,,,,,,,,,,,,,,,,,,,,,,,,,,,,,,,,,,,,,,,,,,,,,,,,
1656266489.080017,24.000000,0.000000,4256.922852,4229.230957,4109.230957,4111.282227,4231.282227,0.000000,4.000000,91.000000,,,,0.000000,4.000000,4.000000,4.000000,4.000000,4.000000,100.000000,,,,,,,,,,,,,,,,,,,,,,,,,,,,,,,,,,,,,,,,,,,,,,,,,,,,,,,,,,,,,,,
1656266489.087932,25.000000,0.000000,4255.384766,4261.025879,4083.076904,4117.436035,4261.538574,0.000000,4.000000,91.000000,,,,0.000000,4.000000,4.000000,4.000000,4.000000,4.000000,100.000000,,,,,,,,,,,,,,,,,,,,,,,,,,,,,,,,,,,,,,,,,,,,,,,,,,,,,,,,,,,,,,,
1656266489.095746,26.000000,0.000000,4267.179688,4279.487305,4073.333252,4127.179688,4274.871582,0.000000,4.000000,91.000000,,,,0.000000,4.000000,4.000000,4.000000,4.000000,4.000000,100.000000,,,,,,,,,,,,,,,,,,,,,,,,,,,,,,,,,,,,,,,,,,,,,,,,,,,,,,,,,,,,,,,
1656266489.103660,27.000000,0.000000,4258.974121,4255.897461,4093.846191,4089.743652,4241.025879,0.000000,4.000000,91.000000,,,,0.000000,4.000000,4.000000,4.000000,4.000000,4.000000,100.000000,,,,,,,,,,,,,,,,,,,,,,,,,,,,,,,,,,,,,,,,,,,,,,,,,,,,,,,,,,,,,,,
1656266489.111475,28.000000,0.000000,4225.128418,4243.077148,4082.051270,4048.718018,4209.743652,0.000000,4.000000,91.000000,,,,0.000000,4.000000,4.000000,4.000000,4.000000,4.000000,100.000000,,,,,,,,,,,,,,,,,,,,,,,,,,,,,,,,,,,,,,,,,,,,,,,,,,,,,,,,,,,,,,,
1656266489.119389,29.000000,0.000000,4234.871582,4264.102539,4058.461426,4083.076904,4226.666504,0.000000,4.000000,91.000000,,,,0.000000,4.000000,4.000000,4.000000,4.000000,4.000000,100.000000,,,,,,,,,,,,,,,,,,,,,,,,,,,,,,,,,,,,,,,,,,,,,,,,,,,,,,,,,,,,,,,
1656266489.127204,30.000000,0.000000,4262.051270,4263.077148,4052.820557,4127.179688,4247.692383,0.000000,4.000000,91.000000,,,,0.000000,4.000000,4.000000,4.000000,4.000000,4.000000,100.000000,,,,,,,,,,,,,,,,,,,,,,,,,,,,,,,,,,,,,,,4.845585,6.040018,4.664194,1.409486,1.781199,2.934144,7.400003,4.020796,3.055639,2.808638,1.887868,3.791148,4.413172,1.194211,1.808893,3.505910,9.379169,5.458218,1.053457,1.509674,2.911979,6.778433,3.280744,1.366307,1.184823
1656266489.135118,31.000000,0.000000,4272.307617,4233.846191,4083.076904,4117.436035,4244.102539,0.000000,4.000000,91.000000,,,,0.000000,4.000000,4.000000,4.000000,4.000000,4.000000,100.000000,,,,,,,,,,,,,,,,,,,,,,,,,,,,,,,,,,,,,,,,,,,,,,,,,,,,,,,,,,,,,,,
1656266489.143032,32.000000,0.000000,4262.563965,4229.230957,4120.000000,4084.615479,4224.102539,0.000000,4.000000,91.000000,,,,0.000000,4.000000,4.000000,4.000000,4.000000,4.000000,100.000000,,,,,,,,,,,,,,,,,,,,,,,,,,,,,,,,,,,,,,,,,,,,,,,,,,,,,,,,,,,,,,,
1656266489.150847,33.000000,0.000000,4235.897461,4250.769043,4100.000000,4073.846191,4212.307617,0.000000,4.000000,91.000000,,,,0.000000,4.000000,4.000000,4.000000,4.000000,4.000000,100.000000,,,,,,,,,,,,,,,,,,,,,,,,,,,,,,,,,,,,,,,,,,,,,,,,,,,,,,,,,,,,,,,
1656266489.158661,34.000000,0.000000,4243.589844,4258.974121,4071.281982,4101.538574,4227.179688,0.000000,4.000000,91.000000,,,,0.000000,4.000000,4.000000,4.000000,4.000000,4.000000,100.000000,,,,,,,,,,,,,,,,,,,,,,,,,,,,,,,,,,,,,,,,,,,,,,,,,,,,,,,,,,,,,,,
1656266489.166575,35.000000,0.000000,4263.077148,4225.128418,4084.615479,4107.179688,4214.358887,0.000000,4.000000,91.000000,,,,0.000000,4.000000,4.000000,4.000000,4.000000,4.000000,100.000000,,,,,,,,,,,,,,,,,,,,,,,,,,,,,,,,,,,,,,,,,,,,,,,,,,,,,,,,,,,,,,,
1656266489.174490,36.000000,0.000000,4246.153809,4206.153809,4086.666748,4079.487061,4191.794922,0.000000,4.000000,91.000000,,,,0.000000,4.000000,4.000000,4.000000,4.000000,4.000000,100.000000,,,,,,,,,,,,,,,,,,,,,,,,,,,,,,,,,,,,,,,,,,,,,,,,,,,,,,,,,,,,,,,
1656266489.182304,37.000000,0.000000,4234.358887,4222.563965,4076.410156,4071.281982,4195.384766,0.000000,4.000000,91.000000,,,,0.000000,4.000000,4.000000,4.000000,4.000000,4.000000,100.000000,,,,,,,,,,,,,,,,,,,,,,,,,,,,,,,,,,,,,,,,,,,,,,,,,,,,,,,,,,,,,,,
1656266489.190218,38.000000,0.000000,4234.358887,4215.384766,4090.769287,4062.051270,4182.051270,0.000000,4.000000,91.000000,,,,0.000000,4.000000,4.000000,4.000000,4.000000,4.000000,100.000000,,,,,,,,,,,,,,,,,,,,,,,,,,,,,,,,,,,,,,,,,,,,,,,,,,,,,,,,,,,,,,,
1656266489.198033,39.000000,0.000000,4230.256348,4216.410156,4103.077148,4066.666748,4185.641113,0.000000,4.000000,91.000000,,,,0.000000,4.000000,4.000000,4.000000,4.000000,4.000000,100.000000,,,,,,,,,,,,,,,,,,,,,,,,,,,,,,,,,,,,,,,,,,,,,,,,,,,,,,,,,,,,,,,
1656266489.205947,40.000000,0.000000,4241.538574,4229.743652,4086.666748,4096.410156,4216.922852,0.000000,4.000000,91.000000,,,,0.000000,4.000000,4.000000,4.000000,4.000000,4.000000,100.000000,,,,,,,,,,,,,,,,,,,,,,,,,,,,,,,,,,,,,,,,,,,,,,,,,,,,,,,,,,,,,,,
1656266489.213761,41.000000,0.000000,4248.717773,4207.692383,4075.897461,4091.794922,4208.717773,0.000000,4.000000,91.000000,,,,0.000000,4.000000,4.000000,4.000000,4.000000,4.000000,100.000000,,,,,,,,,,,,,,,,,,,,,,,,,,,,,,,,,,,,,,,,,,,,,,,,,,,,,,,,,,,,,,,
1656266489.221676,42.000000,0.000000,4238.974121,4209.230957,4071.281982,4080.512939,4207.179688,0.000000,4.000000,91.000000,,,,0.000000,4.000000,4.000000,4.000000,4.000000,4.000000,100.000000,,,,,,,,,,,,,,,,,,,,,,,,,,,,,,,,,,,,,,,,,,,,,,,,,,,,,,,,,,,,,,,
1656266489.229490,43.000000,0.000000,4230.256348,4239.487305,4043.589844,4094.871826,4232.820313,0.000000,4.000000,91.000000,,,,0.000000,4.000000,4.000000,4.000000,4.000000,4.000000,100.000000,,,,,,,,,,,,,,,,,,,,,,,,,,,,,,,,,,,,,,,,,,,,,,,,,,,,,,,,,,,,,,,
1656266489.237404,44.000000,0.000000,4232.820313,4239.487305,4034.358887,4092.820557,4232.307617,0.000000,4.000000,91.000000,,,,0.000000,4.000000,4.000000,4.000000,4.000000,4.000000,100.000000,,,,,,,,,,,,,,,,,,,,,,,,,,,,,,,,,,,,,,,,,,,,,,,,,,,,,,,,,,,,,,,
1656266489.245219,45.000000,0.000000,4230.256348,4217.436035,4058.974365,4071.794922,4211.282227,0.000000,4.000000,91.000000,,,,0.000000,4.000000,4.000000,4.000000,4.000000,4.000000,100.000000,,,,,,,,,,,,,,,,,,,,,,,,,,,,,,,,,,,,,,,,,,,,,,,,,,,,,,,,,,,,,,,
1656266489.253133,46.000000,0.000000,4214.871582,4204.615234,4061.025635,4069.230713,4202.051270,0.000000,4.000000,91.000000,,,,0.000000,4.000000,4.000000,4.000000,4.000000,4.000000,100.000000,,,,,,,,,,,,,,,,,,,,,,,,,,,,,,,,,,,,,,,4.847610,5.191752,4.320553,1.574365,1.714600,2.777627,7.055737,4.268019,3.137730,2.794870,2.432858,3.574565,4.537082,1.279397,1.639054,2.495376,8.266917,4.594395,1.287407,1.500632,1.889361,5.777184,2.604843,1.465018,1.253866
1656266489.260948,47.000000,0.000000,4222.051270,4202.563965,4048.718018,4087.692383,4205.641113,0.000000,4.000000,91.000000,,,,0.000000,4.000000,4.000000,4.000000,4.000000,4.000000,100.000000,,,,,,,,,,,,,,,,,,,,,,,,,,,,,,,,,,,,,,,,,,,,,,,,,,,,,,,,,,,,,,,
1656266489.268762,48.000000,0.000000,4240.512695,4194.871582,4060.000000,4087.692383,4194.871582,0.000000,4.000000,91.000000,,,,0.000000,4.000000,4.000000,4.000000,4.000000,4.000000,100.000000,,,,,,,,,,,,,,,,,,,,,,,,,,,,,,,,,,,,,,,,,,,,,,,,,,,,,,,,,,,,,,,
1656266489.276476,49.000000,0.000000,4245.641113,4198.974121,4086.153809,4077.435791,4187.692383,0.000000,4.000000,91.000000,,,,0.000000,4.000000,4.000000,4.000000,4.000000,4.000000,100.000000,,,,,,,,,,,,,,,,,,,,,,,,,,,,,,,,,,,,,,,,,,,,,,,,,,,,,,,,,,,,,,,
1656266489.284391,50.000000,0.000000,4250.769043,4212.307617,4104.102539,4073.333252,4188.717773,0.000000,4.000000,91.000000,,,,0.000000,4.000000,4.000000,4.000000,4.000000,4.000000,100.000000,,,,,,,,,,,,,,,,,,,,,,,,,,,,,,,,,,,,,,,,,,,,,,,,,,,,,,,,,,,,,,,
1656266489.292205,51.000000,0.000000,4249.743652,4213.846191,4095.897461,4065.641113,4180.000000,0.000000,4.000000,91.000000,,,,0.000000,4.000000,4.000000,4.000000,4.000000,4.000000,100.000000,,,,,,,,,,,,,,,,,,,,,,,,,,,,,,,,,,,,,,,,,,,,,,,,,,,,,,,,,,,,,,,
1656266489.300119,52.000000,0.000000,4235.384766,4201.025879,4080.000000,4059.487061,4173.333496,0.000000,4.000000,91.000000,,,,0.000000,4.000000,4.000000,4.000000,4.000000,4.000000,100.000000,,,,,,,,,,,,,,,,,,,,,,,,,,,,,,,,,,,,,,,,,,,,,,,,,,,,,,,,,,,,,,,
1656266489.307934,53.000000,0.000000,4210.769043,4188.717773,4063.076904,4044.102539,4158.974121,0.000000,4.000000,91.000000,,,,0.000000,4.000000,4.000000,4.000000,4.000000,4.000000,100.000000,,,,,,,,,,,,,,,,,,,,,,,,,,,,,,,,,,,,,,,,,,,,,,,,,,,,,,,,,,,,,,,
1656266489.315848,54.000000,0.000000,4202.563965,4198.974121,4047.179443,4043.076904,4153.333496,0.000000,4.000000,91.000000,,,,0.000000,4.000000,4.000000,4.000000,4.000000,4.000000,100.000000,,,,,,,,,,,,,,,,,,,,,,,,,,,,,,,,,,,,,,,,,,,,,,,,,,,,,,,,,,,,,,,
1656266489.323663,55.000000,0.000000,4209.743652,4231.794922,4040.512939,4062.564209,4181.025879,0.000000,4.000000,91.000000,,,,0.000000,4.000000,4.000000,4.000000,4.000000,4.000000,100.000000,,,,,,,,,,,,,,,,,,,,,,,,,,,,,,,,,,,,,,,,,,,,,,,,,,,,,,,,,,,,,,,
1656266489.331577,56.000000,0.000000,4215.897461,4245.641113,4024.615479,4075.897461,4212.820313,0.000000,4.000000,91.000000,,,,0.000000,4.000000,4.000000,4.000000,4.000000,4.000000,100.000000,,,,,,,,,,,,,,,,,,,,,,,,,,,,,,,,,,,,,,,,,,,,,,,,,,,,,,,,,,,,,,,
1656266489.339491,57.000000,0.000000,4222.051270,4240.000000,4041.025635,4082.564209,4209.230957,0.000000,4.000000,91.000000,,,,0.000000,4.000000,4.000000,4.000000,4.000000,4.000000,100.000000,,,,,,,,,,,,,,,,,,,,,,,,,,,,,,,,,,,,,,,,,,,,,,,,,,,,,,,,,,,,,,,
1656266489.347306,58.000000,0.000000,4209.230957,4235.897461,4080.512939,4060.000000,4183.077148,0.000000,4.000000,91.000000,,,,0.000000,4.000000,4.000000,4.000000,4.000000,4.000000,100.000000,,,,,,,,,,,,,,,,,,,,,,,,,,,,,,,,,,,,,,,,,,,,,,,,,,,,,,,,,,,,,,,
1656266489.355220,59.000000,0.000000,4209.230957,4232.820313,4092.307617,4038.461426,4178.974121,0.000000,4.000000,91.000000,,,,0.000000,4.000000,4.000000,4.000000,4.000000,4.000000,100.000000,,,,,,,,,,,,,,,,,,,,,,,,,,,,,,,,,,,,,,,,,,,,,,,,,,,,,,,,,,,,,,,
1656266489.363034,60.000000,0.000000,4223.589844,4240.512695,4085.641113,4046.666748,4188.717773,0.000000,4.000000,91.000000,,,,0.000000,4.000000,4.000000,4.000000,4.000000,4.000000,100.000000,,,,,,,,,,,,,,,,,,,,,,,,,,,,,,,,,,,,,,,,,,,,,,,,,,,,,,,,,,,,,,,
1656266489.370949,61.000000,0.000000,4208.717773,4241.025879,4062.564209,4060.000000,4188.717773,0.000000,4.000000,91.000000,,,,0.000000,4.000000,4.000000,4.000000,4.000000,4.000000,100.000000,,,,,,,,,,,,,,,,,,,,,,,,,,,,,,,,,,,,,,,,,,,,,,,,,,,,,,,,,,,,,,,
1656266489.378763,62.000000,0.000000,4206.666504,4230.256348,4051.794922,4067.692383,4197.948730,0.000000,4.000000,91.000000,,,,0.000000,4.000000,4.000000,4.000000,4.000000,4.000000,100.000000,,,,,,,,,,,,,,,,,,,,,,,,,,,,,,,,,,,,,,,4.884454,4.269956,3.626178,1.774144,1.595791,2.581488,6.422970,4.421207,3.105788,2.791058,3.478708,3.360820,4.436746,1.350309,1.481837,1.991585,6.793224,3.496222,1.628188,1.549659,1.245738,4.901721,2.143937,1.621881,1.373842
1656266489.386677,63.000000,0.000000,4219.487305,4214.871582,4067.179443,4052.820557,4187.179688,0.000000,4.000000,91.000000,,,,0.000000,4.000000,4.000000,4.000000,4.000000,4.000000,100.000000,,,,,,,,,,,,,,,,,,,,,,,,,,,,,,,,,,,,,,,,,,,,,,,,,,,,,,,,,,,,,,,
1656266489.394492,64.000000,0.000000,4211.794922,4213.846191,4077.435791,4035.384521,4163.077148,450.000000,4.000000,91.000000,,,,0.000000,4.000000,4.000000,4.000000,4.000000,4.000000,100.000000,,,,,,,,,,,,,,,,,,,,,,,,,,,,,,,,,,,,,,,,,,,,,,,,,,,,,,,,,,,,,,,
1656266489.402406,65.000000,0.000000,4235.897461,4222.051270,4071.281982,4057.948730,4191.794922,450.000000,4.000000,91.000000,,,,0.000000,4.000000,4.000000,4.000000,4.000000,4.000000,100.000000,,,,,,,,,,,,,,,,,,,,,,,,,,,,,,,,,,,,,,,,,,,,,,,,,,,,,,,,,,,,,,,
1656266489.410220,66.000000,0.000000,4272.307617,4198.461426,4069.230713,4076.410156,4217.948730,16185.000000,4.000000,91.000000,,,,0.000000,4.000000,4.000000,4.000000,4.000000,4.000000,100.000000,,,,,,,,,,,,,,,,,,,,,,,,,,,,,,,,,,,,,,,,,,,,,,,,,,,,,,,,,,,,,,,
1656266489.418035,67.000000,0.000000,4267.692383,4191.794922,4086.666748,4070.256348,4203.077148,450.000000,4.000000,91.000000,,,,0.000000,4.000000,4.000000,4.000000,4.000000,4.000000,100.000000,,,,,,,,,,,,,,,,,,,,,,,,,,,,,,,,,,,,,,,,,,,,,,,,,,,,,,,,,,,,,,,
1656266489.425949,68.000000,0.000000,4252.307617,4229.230957,4100.000000,4077.948730,4210.256348,16191.000000,4.000000,91.000000,,,,0.000000,4.000000,4.000000,4.000000,4.000000,4.000000,100.000000,,,,,,,,,,,,,,,,,,,,,,,,,,,,,,,,,,,,,,,,,,,,,,,,,,,,,,,,,,,,,,,
1656266489.433863,69.000000,0.000000,4247.692383,4252.307617,4093.333252,4091.794922,4233.846191,450.000000,4.000000,91.000000,,,,0.000000,4.000000,4.000000,4.000000,4.000000,4.000000,100.000000,,,,,,,,,,,,,,,,,,,,,,,,,,,,,,,,,,,,,,,,,,,,,,,,,,,,,,,,,,,,,,,
1656266489.441678,70.000000,0.000000,4256.410156,4237.948730,4098.974121,4102.563965,4221.538574,16134.000000,4.000000,91.000000,,,,0.000000,4.000000,4.000000,4.000000,4.000000,4.000000,100.000000,,,,,,,,,,,,,,,,,,,,,,,,,,,,,,,,,,,,,,,,,,,,,,,,,,,,,,,,,,,,,,,
1656266489.449592,71.000000,0.000000,4254.871582,4219.487305,4114.871582,4098.461426,4193.333496,450.000000,4.000000,91.000000,,,,0.000000,4.000000,4.000000,4.000000,4.000000,4.000000,100.000000,,,,,,,,,,,,,,,,,,,,,,,,,,,,,,,,,,,,,,,,,,,,,,,,,,,,,,,,,,,,,,,
1656266489.457407,72.000000,0.000000,4242.563965,4227.692383,4119.487305,4082.564209,4194.871582,450.000000,4.000000,91.000000,,,,0.000000,4.000000,4.000000,4.000000,4.000000,4.000000,100.000000,,,,,,,,,,,,,,,,,,,,,,,,,,,,,,,,,,,,,,,,,,,,,,,,,,,,,,,,,,,,,,,
1656266489.465321,73.000000,0.000000,4230.769043,4248.205078,4109.743652,4078.974365,4204.102539,16198.000000,4.000000,91.000000,,,,0.000000,4.000000,4.000000,4.000000,4.000000,4.000000,100.000000,,,,,,,,,,,,,,,,,,,,,,,,,,,,,,,,,,,,,,,,,,,,,,,,,,,,,,,,,,,,,,,
1656266489.473135,74.000000,0.000000,4221.538574,4255.897461,4104.615234,4072.307617,4202.563965,450.000000,4.000000,91.000000,,,,0.000000,4.000000,4.000000,4.000000,4.000000,4.000000,100.000000,,,,,,,,,,,,,,,,,,,,,,,,,,,,,,,,,,,,,,,,,,,,,,,,,,,,,,,,,,,,,,,
1656266489.481050,75.000000,0.000000,4244.102539,4249.743652,4106.666504,4071.794922,4224.102539,16224.000000,4.000000,91.000000,,,,0.000000,4.000000,4.000000,4.000000,4.000000,4.000000,100.000000,,,,,,,,,,,,,,,,,,,,,,,,,,,,,,,,,,,,,,,,,,,,,,,,,,,,,,,,,,,,,,,
1656266489.488864,76.000000,0.000000,4273.846191,4220.000000,4076.923096,4091.794922,4236.410156,450.000000,4.000000,91.000000,,,,0.000000,4.000000,4.000000,4.000000,4.000000,4.000000,100.000000,,,,,,,,,,,,,,,,,,,,,,,,,,,,,,,,,,,,,,,,,,,,,,,,,,,,,,,,,,,,,,,
1656266489.496778,77.000000,0.000000,4266.666504,4202.051270,4060.000000,4091.794922,4207.179688,450.000000,4.000000,91.000000,,,,0.000000,4.000000,4.000000,4.000000,4.000000,4.000000,100.000000,,,,,,,,,,,,,,,,,,,,,,,,,,,,,,,,,,,,,,,,,,,,,,,,,,,,,,,,,,,,,,,
1656266489.504693,78.000000,0.000000,4244.615234,4237.948730,4062.051270,4085.641113,4212.307617,450.000000,4.000000,91.000000,,,,0.000000,4.000000,4.000000,4.000000,4.000000,4.000000,100.000000,1.000000,100.000000,4.000000,4.000000,4.000000,4.000000,4.000000,,,,,,,,,,,,,,,,,,,,,,,,,,,,,,,,4.845477,3.406016,2.744625,1.928438,1.472948,2.493746,5.878889,4.496175,2.981951,2.786341,4.723368,3.143314,4.164502,1.394381,1.384636,1.960045,5.374433,2.474325,1.997934,1.661401,1.113317,4.584539,2.041891,1.837128,1.511603
1656266489.512507,79.000000,0.000000,4242.051270,4246.153809,4048.205078,4093.333252,4231.282227,16224.000000,4.000000,91.000000,,,,0.000000,4.000000,4.000000,4.000000,4.000000,4.000000,100.000000,,,,,,,,,,,,,,,,,,,,,,,,,,,,,,,,,,,,,,,,,,,,,,,,,,,,,,,,,,,,,,,
1656266489.520321,80.000000,0.000000,4248.205078,4223.589844,4062.051270,4093.333252,4221.025879,450.000000,4.000000,91.000000,,,,0.000000,4.000000,4.000000,4.000000,4.000000,4.000000,100.000000,,,,,,,,,,,,,,,,,,,,,,,,,,,,,,,,,,,,,,,,,,,,,,,,,,,,,,,,,,,,,,,
1656266489.528236,81.000000,0.000000,4245.641113,4237.948730,4074.871826,4095.897461,4228.205078,450.000000,4.000000,91.000000,,,,0.000000,4.000000,4.000000,4.000000,4.000000,4.000000,100.000000,,,,,,,,,,,,,,,,,,,,,,,,,,,,,,,,,,,,,,,,,,,,,,,,,,,,,,,,,,,,,,,
1656266489.536050,82.000000,0.000000,4252.307617,4255.384766,4072.307617,4111.282227,4247.179688,450.000000,4.000000,91.000000,,,,0.000000,4.000000,4.000000,4.000000,4.000000,4.000000,100.000000,,,,,,,,,,,,,,,,,,,,,,,,,,,,,,,,,,,,,,,,,,,,,,,,,,,,,,,,,,,,,,,
1656266489.543964,83.000000,0.000000,4258.974121,4270.256348,4092.820557,4115.384766,4243.589844,16224.000000,4.000000,91.000000,,,,0.000000,4.000000,4.000000,4.000000,4.000000,4.000000,100.000000,,,,,,,,,,,,,,,,,,,,,,,,,,,,,,,,,,,,,,,,,,,,,,,,,,,,,,,,,,,,,,,
1656266489.551779,84.000000,0.000000,4236.922852,4278.974121,4096.922852,4094.358887,4227.179688,450.000000,4.000000,91.000000,,,,0.000000,4.000000,4.000000,4.000000,4.000000,4.000000,100.000000,,,,,,,,,,,,,,,,,,,,,,,,,,,,,,,,,,,,,,,,,,,,,,,,,,,,,,,,,,,,,,,
1656266489.559693,85.000000,0.000000,4234.871582,4255.384766,4082.051270,4085.641113,4231.282227,450.000000,4.000000,91.000000,,,,0.000000,4.000000,4.000000,4.000000,4.000000,4.000000,100.000000,,,,,,,,,,,,,,,,,,,,,,,,,,,,,,,,,,,,,,,,,,,,,,,,,,,,,,,,,,,,,,,
1656266489.567607,86.000000,0.000000,4272.307617,4229.230957,4086.153809,4101.025879,4248.717773,450.000000,4.000000,91.000000,,,,0.000000,4.000000,4.000000,4.000000,4.000000,4.000000,100.000000,,,,,,,,,,,,,,,,,,,,,,,,,,,,,,,,,,,,,,,,,,,,,,,,,,,,,,,,,,,,,,,
1656266489.575422,87.000000,0.000000,4289.743652,4236.922852,4076.923096,4123.589844,4263.077148,16224.000000,4.000000,91.000000,,,,0.000000,4.000000,4.000000,4.000000,4.000000,4.000000,100.000000,,,,,,,,,,,,,,,,,,,,,,,,,,,,,,,,,,,,,,,,,,,,,,,,,,,,,,,,,,,,,,,
1656266489.583236,88.000000,0.000000,4271.282227,4246.666504,4073.333252,4116.922852,4251.282227,450.000000,4.000000,91.000000,,,,0.000000,4.000000,4.000000,4.000000,4.000000,4.000000,100.000000,,,,,,,,,,,,,,,,,,,,,,,,,,,,,,,,,,,,,,,,,,,,,,,,,,,,,,,,,,,,,,,
1656266489.591151,89.000000,0.000000,4245.641113,4227.179688,4103.589844,4065.641113,4208.205078,450.000000,4.000000,91.000000,,,,0.000000,4.000000,4.000000,4.000000,4.000000,4.000000,100.000000,,,,,,,,,,,,,,,,,,,,,,,,,,,,,,,,,,,,,,,,,,,,,,,,,,,,,,,,,,,,,,,
1656266489.599065,90.000000,0.000000,4254.871582,4229.230957,4119.487305,4059.487061,4212.307617,450.000000,4.000000,91.000000,,,,0.000000,4.000000,4.000000,4.000000,4.000000,4.000000,100.000000,,,,,,,,,,,,,,,,,,,,,,,,,,,,,,,,,,,,,,,,,,,,,,,,,,,,,,,,,,,,,,,
1656266489.606879,91.000000,0.000000,4281.025879,4253.846191,4110.256348,4105.128418,4252.307617,16224.000000,4.000000,91.000000,,,,0.000000,4.000000,4.000000,4.000000,4.000000,4.000000,100.000000,,,,,,,,,,,,,,,,,,,,,,,,,,,,,,,,,,,,,,,,,,,,,,,,,,,,,,,,,,,,,,,
1656266489.614794,92.000000,0.000000,4274.358887,4281.538574,4116.922852,4117.948730,4264.615234,450.000000,4.000000,91.000000,,,,0.000000,4.000000,4.000000,4.000000,4.000000,4.000000,100.000000,,,,,,,,,,,,,,,,,,,,,,,,,,,,,,,,,,,,,,,,,,,,,,,,,,,,,,,,,,,,,,,
1656266489.622608,93.000000,0.000000,4277.948730,4280.512695,4139.487305,4114.871582,4248.205078,450.000000,4.000000,91.000000,,,,0.000000,4.000000,4.000000,4.000000,4.000000,4.000000,100.000000,,,,,,,,,,,,,,,,,,,,,,,,,,,,,,,,,,,,,,,,,,,,,,,,,,,,,,,,,,,,,,,
1656266489.630522,94.000000,0.000000,4297.948730,4224.102539,4135.897461,4112.820313,4212.820313,450.000000,4.000000,91.000000,,,,0.000000,4.000000,4.000000,4.000000,4.000000,4.000000,100.000000,,,,,,,,,,,,,,,,,,,,,,,,,,,,,,,,,,,,,,,4.615000,2.691112,1.929822,1.970966,1.388243,2.581296,5.692378,4.497966,2.802936,2.752099,5.860019,3.006404,3.882620,1.428088,1.362116,2.161770,4.311285,1.745699,2.329999,1.818794,1.451457,4.973655,2.254620,2.082091,1.631799
1656266489.638337,95.000000,0.000000,4287.179688,4204.102539,4113.333496,4110.256348,4201.025879,16224.000000,4.000000,91.000000,,,,0.000000,4.000000,4.000000,4.000000,4.000000,4.000000,100.000000,,,,,,,,,,,,,,,,,,,,,,,,,,,,,,,,,,,,,,,,,,,,,,,,,,,,,,,,,,,,,,,
1656266489.646251,96.000000,0.000000,4270.769043,4233.333496,4120.000000,4101.538574,4208.717773,450.000000,4.000000,91.000000,,,,0.000000,4.000000,4.000000,4.000000,4.000000,4.000000,100.000000,,,,,,,,,,,,,,,,,,,,,,,,,,,,,,,,,,,,,,,,,,,,,,,,,,,,,,,,,,,,,,,
1656266489.654065,97.000000,0.000000,4265.128418,4245.641113,4134.358887,4072.307617,4197.436035,450.000000,4.000000,91.000000,,,,0.000000,4.000000,4.000000,4.000000,4.000000,4.000000,100.000000,,,,,,,,,,,,,,,,,,,,,,,,,,,,,,,,,,,,,,,,,,,,,,,,,,,,,,,,,,,,,,,
1656266489.661980,98.000000,0.000000,4262.563965,4234.871582,4112.307617,4077.435791,4205.128418,450.000000,4.000000,91.000000,,,,0.000000,4.000000,4.000000,4.000000,4.000000,4.000000,100.000000,,,,,,,,,,,,,,,,,,,,,,,,,,,,,,,,,,,,,,,,,,,,,,,,,,,,,,,,,,,,,,,
1656266489.669794,99.000000,0.000000,4274.358887,4225.641113,4084.102539,4113.846191,4234.358887,16224.000000,4.000000,91.000000,,,,0.000000,4.000000,4.000000,4.000000,4.000000,4.000000,100.000000,,,,,,,,,,,,,,,,,,,,,,,,,,,,,,,,,,,,,,,,,,,,,,,,,,,,,,,,,,,,,,,
1656266489.677708,100.000000,0.000000,4290.769043,4242.563965,4100.000000,4117.948730,4244.615234,450.000000,4.000000,91.000000,,,,0.000000,4.000000,4.000000,4.000000,4.000000,4.000000,100.000000,,,,,,,,,,,,,,,,,,,,,,,,,,,,,,,,,,,,,,,,,,,,,,,,,,,,,,,,,,,,,,,
1656266489.685523,101.000000,0.000000,4289.743652,4245.641113,4116.410156,4103.589844,4233.333496,450.000000,4.000000,91.000000,,,,0.000000,4.000000,4.000000,4.000000,4.000000,4.000000,100.000000,,,,,,,,,,,,,,,,,,,,,,,,,,,,,,,,,,,,,,,,,,,,,,,,,,,,,,,,,,,,,,,
1656266489.693437,102.000000,0.000000,4275.384766,4211.794922,4102.051270,4096.410156,4212.820313,450.000000,4.000000,91.000000,,,,0.000000,4.000000,4.000000,4.000000,4.000000,4.000000,100.000000,,,,,,,,,,,,,,,,,,,,,,,,,,,,,,,,,,,,,,,,,,,,,,,,,,,,,,,,,,,,,,,
1656266489.701252,103.000000,0.000000,4289.230957,4209.743652,4111.282227,4102.563965,4216.922852,16224.000000,4.000000,91.000000,,,,0.000000,4.000000,4.000000,4.000000,4.000000,4.000000,100.000000,,,,,,,,,,,,,,,,,,,,,,,,,,,,,,,,,,,,,,,,,,,,,,,,,,,,,,,,,,,,,,,
1656266489.709166,104.000000,0.000000,4292.820313,4226.666504,4131.282227,4095.384521,4227.179688,450.000000,4.000000,91.000000,,,,0.000000,4.000000,4.000000,4.000000,4.000000,4.000000,100.000000,,,,,,,,,,,,,,,,,,,,,,,,,,,,,,,,,,,,,,,,,,,,,,,,,,,,,,,,,,,,,,,
1656266489.716980,105.000000,0.000000,4262.563965,4221.538574,4123.589844,4080.000000,4220.000000,450.000000,4.000000,91.000000,,,,0.000000,4.000000,4.000000,4.000000,4.000000,4.000000,100.000000,,,,,,,,,,,,,,,,,,,,,,,,,,,,,,,,,,,,,,,,,,,,,,,,,,,,,,,,,,,,,,,
1656266489.724895,106.000000,0.000000,4258.974121,4247.179688,4115.897461,4100.000000,4237.436035,450.000000,4.000000,91.000000,,,,0.000000,4.000000,4.000000,4.000000,4.000000,4.000000,100.000000,,,,,,,,,,,,,,,,,,,,,,,,,,,,,,,,,,,,,,,,,,,,,,,,,,,,,,,,,,,,,,,
1656266489.732709,107.000000,0.000000,4277.436035,4272.307617,4104.102539,4128.717773,4258.974121,16224.000000,4.000000,91.000000,,,,0.000000,4.000000,4.000000,4.000000,4.000000,4.000000,100.000000,,,,,,,,,,,,,,,,,,,,,,,,,,,,,,,,,,,,,,,,,,,,,,,,,,,,,,,,,,,,,,,
1656266489.740623,108.000000,0.000000,4283.077148,4244.615234,4099.487305,4124.615234,4240.512695,450.000000,4.000000,91.000000,,,,0.000000,4.000000,4.000000,4.000000,4.000000,4.000000,100.000000,,,,,,,,,,,,,,,,,,,,,,,,,,,,,,,,,,,,,,,,,,,,,,,,,,,,,,,,,,,,,,,
1656266489.748538,109.000000,0.000000,4271.794922,4229.230957,4117.436035,4101.025879,4220.000000,450.000000,4.000000,91.000000,,,,0.000000,4.000000,4.000000,4.000000,4.000000,4.000000,100.000000,,,,,,,,,,,,,,,,,,,,,,,,,,,,,,,,,,,,,,,,,,,,,,,,,,,,,,,,,,,,,,,
1656266489.756352,110.000000,0.000000,4267.692383,4256.410156,4122.051270,4098.461426,4238.974121,450.000000,4.000000,91.000000,,,,0.000000,4.000000,4.000000,4.000000,4.000000,4.000000,100.000000,,,,,,,,,,,,,,,,,,,,,,,,,,,,,,,,,,,,,,,4.159335,2.149539,1.429956,1.889642,1.357642,2.892683,5.916334,4.441028,2.604917,2.668641,6.731709,3.111331,3.758564,1.472052,1.389377,2.323417,3.673839,1.337572,2.587030,1.981360,2.126095,5.856622,2.577446,2.313699,1.712111
1656266489.764166,111.000000,0.000000,4289.230957,4271.794922,4120.512695,4118.461426,4258.974121,16224.000000,4.000000,91.000000,,,,0.000000,4.000000,4.000000,4.000000,4.000000,4.000000,100.000000,,,,,,,,,,,,,,,,,,,,,,,,,,,,,,,,,,,,,,,,,,,,,,,,,,,,,,,,,,,,,,,
1656266489.771881,112.000000,0.000000,4285.641113,4242.563965,4120.000000,4106.153809,4231.282227,450.000000,4.000000,91.000000,,,,0.000000,4.000000,4.000000,4.000000,4.000000,4.000000,100.000000,,,,,,,,,,,,,,,,,,,,,,,,,,,,,,,,,,,,,,,,,,,,,,,,,,,,,,,,,,,,,,,
1656266489.779795,113.000000,0.000000,4263.589844,4224.102539,4123.077148,4089.230713,4208.717773,450.000000,4.000000,91.000000,,,,0.000000,4.000000,4.000000,4.000000,4.000000,4.000000,100.000000,,,,,,,,,,,,,,,,,,,,,,,,,,,,,,,,,,,,,,,,,,,,,,,,,,,,,,,,,,,,,,,
1656266489.787710,114.000000,0.000000,4256.922852,4245.128418,4119.487305,4106.153809,4225.128418,450.000000,4.000000,91.000000,,,,0.000000,4.000000,4.000000,4.000000,4.000000,4.000000,100.000000,,,,,,,,,,,,,,,,,,,,,,,,,,,,,,,,,,,,,,,,,,,,,,,,,,,,,,,,,,,,,,,
1656266489.795524,115.000000,0.000000,4258.461426,4242.563965,4107.179688,4105.128418,4223.077148,16224.000000,4.000000,91.000000,,,,0.000000,4.000000,4.000000,4.000000,4.000000,4.000000,100.000000,,,,,,,,,,,,,,,,,,,,,,,,,,,,,,,,,,,,,,,,,,,,,,,,,,,,,,,,,,,,,,,
1656266489.803338,116.000000,0.000000,4266.666504,4244.102539,4100.000000,4094.871826,4230.769043,450.000000,4.000000,91.000000,,,,0.000000,4.000000,4.000000,4.000000,4.000000,4.000000,100.000000,,,,,,,,,,,,,,,,,,,,,,,,,,,,,,,,,,,,,,,,,,,,,,,,,,,,,,,,,,,,,,,
1656266489.811153,117.000000,0.000000,4261.538574,4279.487305,4073.333252,4114.358887,4271.282227,450.000000,4.000000,91.000000,,,,0.000000,4.000000,4.000000,4.000000,4.000000,4.000000,100.000000,,,,,,,,,,,,,,,,,,,,,,,,,,,,,,,,,,,,,,,,,,,,,,,,,,,,,,,,,,,,,,,
1656266489.818867,118.000000,0.000000,4255.897461,4283.589844,4065.128174,4121.538574,4267.692383,450.000000,4.000000,91.000000,,,,0.000000,4.000000,4.000000,4.000000,4.000000,4.000000,100.000000,,,,,,,,,,,,,,,,,,,,,,,,,,,,,,,,,,,,,,,,,,,,,,,,,,,,,,,,,,,,,,,
1656266489.826782,119.000000,0.000000,4255.897461,4256.410156,4089.743652,4080.000000,4225.641113,16224.000000,4.000000,91.000000,,,,0.000000,4.000000,4.000000,4.000000,4.000000,4.000000,100.000000,,,,,,,,,,,,,,,,,,,,,,,,,,,,,,,,,,,,,,,,,,,,,,,,,,,,,,,,,,,,,,,
1656266489.834596,120.000000,0.000000,4243.077148,4233.846191,4090.769287,4046.666748,4210.769043,450.000000,4.000000,91.000000,,,,0.000000,4.000000,4.000000,4.000000,4.000000,4.000000,100.000000,,,,,,,,,,,,,,,,,,,,,,,,,,,,,,,,,,,,,,,,,,,,,,,,,,,,,,,,,,,,,,,
1656266489.842510,121.000000,0.000000,4249.230957,4236.410156,4075.897461,4070.256348,4237.948730,450.000000,4.000000,91.000000,,,,0.000000,4.000000,4.000000,4.000000,4.000000,4.000000,100.000000,,,,,,,,,,,,,,,,,,,,,,,,,,,,,,,,,,,,,,,,,,,,,,,,,,,,,,,,,,,,,,,
1656266489.850325,122.000000,0.000000,4268.717773,4246.666504,4074.871826,4097.436035,4252.820313,450.000000,4.000000,91.000000,,,,0.000000,4.000000,4.000000,4.000000,4.000000,4.000000,100.000000,,,,,,,,,,,,,,,,,,,,,,,,,,,,,,,,,,,,,,,,,,,,,,,,,,,,,,,,,,,,,,,
1656266489.858239,123.000000,0.000000,4274.358887,4256.410156,4095.384521,4098.974121,4251.282227,16224.000000,4.000000,91.000000,,,,0.000000,4.000000,4.000000,4.000000,4.000000,4.000000,100.000000,,,,,,,,,,,,,,,,,,,,,,,,,,,,,,,,,,,,,,,,,,,,,,,,,,,,,,,,,,,,,,,
1656266489.866053,124.000000,0.000000,4280.000000,4263.077148,4107.692383,4096.922852,4257.948730,450.000000,4.000000,91.000000,,,,0.000000,4.000000,4.000000,4.000000,4.000000,4.000000,100.000000,,,,,,,,,,,,,,,,,,,,,,,,,,,,,,,,,,,,,,,,,,,,,,,,,,,,,,,,,,,,,,,
1656266489.873968,125.000000,0.000000,4284.102539,4245.641113,4112.307617,4087.179443,4233.333496,450.000000,4.000000,91.000000,,,,0.000000,4.000000,4.000000,4.000000,4.000000,4.000000,100.000000,,,,,,,,,,,,,,,,,,,,,,,,,,,,,,,,,,,,,,,,,,,,,,,,,,,,,,,,,,,,,,,
1656266489.881782,126.000000,0.000000,4284.102539,4247.692383,4125.128418,4099.487305,4223.077148,450.000000,4.000000,91.000000,,,,0.000000,4.000000,4.000000,4.000000,4.000000,4.000000,100.000000,,,,,,,,,,,,,,,,,,,,,,,,,,,,,,,,,,,,,,,3.633416,1.797655,1.381145,1.732474,1.368773,3.389394,6.390554,4.361069,2.429533,2.548946,7.396494,3.587902,3.891946,1.534347,1.421346,2.327032,3.394657,1.145854,2.772158,2.102979,2.962672,6.800523,2.800972,2.502126,1.750505
1656266489.889696,127.000000,0.000000,4293.333496,4263.077148,4120.000000,4128.205078,4260.512695,242.000000,4.000000,91.000000,,,,0.000000,4.000000,4.000000,4.000000,4.000000,4.000000,100.000000,,,,,,,,,,,,,,,,,,,,,,,,,,,,,,,,,,,,,,,,,,,,,,,,,,,,,,,,,,,,,,,
1656266489.897511,0.000000,0.000000,4301.025879,4254.871582,4100.512695,4112.820313,4273.846191,450.000000,4.000000,91.000000,,,,0.000000,4.000000,4.000000,4.000000,4.000000,4.000000,100.000000,,,,,,,,,,,,,,,,,,,,,,,,,,,,,,,,,,,,,,,,,,,,,,,,,,,,,,,,,,,,,,,
1656266489.905425,1.000000,0.000000,4301.025879,4242.563965,4097.948730,4093.333252,4251.794922,450.000000,4.000000,91.000000,,,,0.000000,4.000000,4.000000,4.000000,4.000000,4.000000,100.000000,,,,,,,,,,,,,,,,,,,,,,,,,,,,,,,,,,,,,,,,,,,,,,,,,,,,,,,,,,,,,,,
1656266489.913240,2.000000,0.000000,4301.025879,4226.153809,4103.589844,4103.077148,4237.948730,16199.000000,4.000000,91.000000,,,,0.000000,4.000000,4.000000,4.000000,4.000000,4.000000,100.000000,,,,,,,,,,,,,,,,,,,,,,,,,,,,,,,,,,,,,,,,,,,,,,,,,,,,,,,,,,,,,,,
1656266489.921154,3.000000,0.000000,4288.717773,4242.051270,4106.153809,4107.692383,4247.179688,450.000000,4.000000,91.000000,,,,0.000000,4.000000,4.000000,4.000000,4.000000,4.000000,100.000000,,,,,,,,,,,,,,,,,,,,,,,,,,,,,,,,,,,,,,,,,,,,,,,,,,,,,,,,,,,,,,,
1656266489.928968,4.000000,0.000000,4269.230957,4275.897461,4094.871826,4097.948730,4246.153809,16240.000000,4.000000,91.000000,,,,0.000000,4.000000,4.000000,4.000000,4.000000,4.000000,100.000000,,,,,,,,,,,,,,,,,,,,,,,,,,,,,,,,,,,,,,,,,,,,,,,,,,,,,,,,,,,,,,,
1656266489.936683,5.000000,0.000000,4264.615234,4255.384766,4081.538574,4088.718018,4228.717773,450.000000,4.000000,91.000000,,,,0.000000,4.000000,4.000000,4.000000,4.000000,4.000000,100.000000,,,,,,,,,,,,,,,,,,,,,,,,,,,,,,,,,,,,,,,,,,,,,,,,,,,,,,,,,,,,,,,
1656266489.944597,6.000000,0.000000,4257.948730,4234.358887,4089.230713,4073.846191,4218.461426,16151.000000,4.000000,91.000000,,,,0.000000,4.000000,4.000000,4.000000,4.000000,4.000000,100.000000,,,,,,,,,,,,,,,,,,,,,,,,,,,,,,,,,,,,,,,,,,,,,,,,,,,,,,,,,,,,,,,
1656266489.952411,7.000000,0.000000,4234.871582,4256.410156,4062.564209,4061.538574,4216.410156,450.000000,4.000000,91.000000,,,,0.000000,4.000000,4.000000,4.000000,4.000000,4.000000,100.000000,,,,,,,,,,,,,,,,,,,,,,,,,,,,,,,,,,,,,,,,,,,,,,,,,,,,,,,,,,,,,,,
1656266489.960326,8.000000,0.000000,4238.974121,4254.358887,4042.564209,4078.974365,4220.512695,450.000000,4.000000,91.000000,,,,0.000000,4.000000,4.000000,4.000000,4.000000,4.000000,100.000000,,,,,,,,,,,,,,,,,,,,,,,,,,,,,,,,,,,,,,,,,,,,,,,,,,,,,,,,,,,,,,,
1656266489.968140,9.000000,0.000000,4246.153809,4235.897461,4100.000000,4081.025635,4212.307617,16233.000000,4.000000,91.000000,,,,0.000000,4.000000,4.000000,4.000000,4.000000,4.000000,100.000000,,,,,,,,,,,,,,,,,,,,,,,,,,,,,,,,,,,,,,,,,,,,,,,,,,,,,,,,,,,,,,,
1656266489.976054,10.000000,0.000000,4235.384766,4260.512695,4115.897461,4072.820557,4210.256348,450.000000,4.000000,91.000000,,,,0.000000,4.000000,4.000000,4.000000,4.000000,4.000000,100.000000,,,,,,,,,,,,,,,,,,,,,,,,,,,,,,,,,,,,,,,,,,,,,,,,,,,,,,,,,,,,,,,
1656266489.983869,11.000000,0.000000,4258.974121,4288.717773,4080.512939,4098.974121,4234.871582,16164.000000,4.000000,91.000000,,,,0.000000,4.000000,4.000000,4.000000,4.000000,4.000000,100.000000,,,,,,,,,,,,,,,,,,,,,,,,,,,,,,,,,,,,,,,,,,,,,,,,,,,,,,,,,,,,,,,
1656266489.991783,12.000000,0.000000,4280.000000,4260.512695,4095.897461,4098.974121,4228.717773,450.000000,4.000000,91.000000,,,,0.000000,4.000000,4.000000,4.000000,4.000000,4.000000,100.000000,,,,,,,,,,,,,,,,,,,,,,,,,,,,,,,,,,,,,,,,,,,,,,,,,,,,,,,,,,,,,,,
1656266489.999598,13.000000,0.000000,4264.615234,4237.948730,4114.871582,4077.435791,4208.205078,450.000000,4.000000,91.000000,,,,0.000000,4.000000,4.000000,4.000000,4.000000,4.000000,100.000000,,,,,,,,,,,,,,,,,,,,,,,,,,,,,,,,,,,,,,,,,,,,,,,,,,,,,,,,,,,,,,,
1656266490.007512,14.000000,0.000000,4267.692383,4253.846191,4077.435791,4098.974121,4233.846191,450.000000,4.000000,91.000000,,,,0.000000,4.000000,4.000000,4.000000,4.000000,4.000000,100.000000,1.000000,100.000000,4.000000,4.000000,4.000000,4.000000,4.000000,,,,,,,,,,,,,,,,,,,,,,,,,,,,,,,,3.257611,1.609341,1.751134,1.585269,1.391654,3.906763,6.809614,4.269569,2.293285,2.430378,8.017592,4.407754,4.304144,1.608474,1.423311,2.218996,3.309871,1.065339,2.933444,2.157793,3.739814,7.349266,2.868379,2.664080,1.767546
1656266490.015326,15.000000,0.000000,4284.615234,4254.871582,4045.128174,4133.333496,4261.538574,16164.000000,4.000000,91.000000,,,,0.000000,4.000000,4.000000,4.000000,4.000000,4.000000,100.000000,,,,,,,,,,,,,,,,,,,,,,,,,,,,,,,,,,,,,,,,,,,,,,,,,,,,,,,,,,,,,,,
1656266490.023241,16.000000,0.000000,4285.128418,4237.436035,4071.281982,4130.769043,4241.538574,0.000000,4.000000,91.000000,,,,0.000000,4.000000,4.000000,4.000000,4.000000,4.000000,100.000000,,,,,,,,,,,,,,,,,,,,,,,,,,,,,,,,,,,,,,,,,,,,,,,,,,,,,,,,,,,,,,,
1656266490.031055,17.000000,0.000000,4262.051270,4234.358887,4096.922852,4095.897461,4208.717773,0.000000,4.000000,91.000000,,,,0.000000,4.000000,4.000000,4.000000,4.000000,4.000000,100.000000,,,,,,,,,,,,,,,,,,,,,,,,,,,,,,,,,,,,,,,,,,,,,,,,,,,,,,,,,,,,,,,
1656266490.038969,18.000000,0.000000,4249.743652,4252.307617,4085.641113,4078.461426,4215.897461,0.000000,4.000000,91.000000,,,,0.000000,4.000000,4.000000,4.000000,4.000000,4.000000,100.000000,,,,,,,,,,,,,,,,,,,,,,,,,,,,,,,,,,,,,,,,,,,,,,,,,,,,,,,,,,,,,,,
1656266490.046784,19.000000,0.000000,4259.487305,4245.641113,4087.692383,4081.025635,4224.102539,0.000000,4.000000,91.000000,,,,0.000000,4.000000,4.000000,4.000000,4.000000,4.000000,100.000000,,,,,,,,,,,,,,,,,,,,,,,,,,,,,,,,,,,,,,,,,,,,,,,,,,,,,,,,,,,,,,,
1656266490.054698,20.000000,0.000000,4256.410156,4209.230957,4110.769043,4066.153809,4201.025879,0.000000,4.000000,91.000000,,,,0.000000,4.000000,4.000000,4.000000,4.000000,4.000000,100.000000,,,,,,,,,,,,,,,,,,,,,,,,,,,,,,,,,,,,,,,,,,,,,,,,,,,,,,,,,,,,,,,
1656266490.062512,21.000000,0.000000,4263.077148,4210.769043,4116.922852,4071.794922,4213.846191,0.000000,4.000000,91.000000,,,,0.000000,4.000000,4.000000,4.000000,4.000000,4.000000,100.000000,,,,,,,,,,,,,,,,,,,,,,,,,,,,,,,,,,,,,,,,,,,,,,,,,,,,,,,,,,,,,,,
1656266490.070427,22.000000,0.000000,4272.307617,4238.461426,4090.256348,4095.897461,4246.153809,0.000000,4.000000,91.000000,,,,0.000000,4.000000,4.000000,4.000000,4.000000,4.000000,100.000000,,,,,,,,,,,,,,,,,,,,,,,,,,,,,,,,,,,,,,,,,,,,,,,,,,,,,,,,,,,,,,,
1656266490.078241,23.000000,0.000000,4254.871582,4254.358887,4076.410156,4080.512939,4245.641113,0.000000,4.000000,91.000000,,,,0.000000,4.000000,4.000000,4.000000,4.000000,4.000000,100.000000,,,,,,,,,,,,,,,,,,,,,,,,,,,,,,,,,,,,,,,,,,,,,,,,,,,,,,,,,,,,,,,
1656266490.086155,24.000000,0.000000,4268.205078,4239.487305,4095.384521,4073.846191,4235.384766,0.000000,4.000000,91.000000,,,,0.000000,4.000000,4.000000,4.000000,4.000000,4.000000,100.000000,,,,,,,,,,,,,,,,,,,,,,,,,,,,,,,,,,,,,,,,,,,,,,,,,,,,,,,,,,,,,,,
1656266490.093970,25.000000,0.000000,4295.897461,4198.974121,4088.718018,4100.000000,4223.077148,0.000000,4.000000,91.000000,,,,0.000000,4.000000,4.000000,4.000000,4.000000,4.000000,100.000000,,,,,,,,,,,,,,,,,,,,,,,,,,,,,,,,,,,,,,,,,,,,,,,,,,,,,,,,,,,,,,,
1656266490.101684,26.000000,0.000000,4274.871582,4202.051270,4064.615479,4098.974121,4205.128418,0.000000,4.000000,91.000000,,,,0.000000,4.000000,4.000000,4.000000,4.000000,4.000000,100.000000,,,,,,,,,,,,,,,,,,,,,,,,,,,,,,,,,,,,,,,,,,,,,,,,,,,,,,,,,,,,,,,
1656266490.109599,27.000000,0.000000,4238.461426,4236.410156,4068.205078,4060.000000,4189.230957,0.000000,4.000000,91.000000,,,,0.000000,4.000000,4.000000,4.000000,4.000000,4.000000,100.000000,,,,,,,,,,,,,,,,,,,,,,,,,,,,,,,,,,,,,,,,,,,,,,,,,,,,,,,,,,,,,,,
1656266490.117413,28.000000,0.000000,4251.794922,4233.846191,4087.692383,4046.153809,4191.794922,0.000000,4.000000,91.000000,,,,0.000000,4.000000,4.000000,4.000000,4.000000,4.000000,100.000000,,,,,,,,,,,,,,,,,,,,,,,,,,,,,,,,,,,,,,,,,,,,,,,,,,,,,,,,,,,,,,,
1656266490.125327,29.000000,0.000000,4273.846191,4229.743652,4096.922852,4066.153809,4211.282227,0.000000,4.000000,91.000000,,,,0.000000,4.000000,4.000000,4.000000,4.000000,4.000000,100.000000,,,,,,,,,,,,,,,,,,,,,,,,,,,,,,,,,,,,,,,,,,,,,,,,,,,,,,,,,,,,,,,
1656266490.133142,30.000000,0.000000,4245.641113,4233.846191,4090.256348,4057.435791,4206.666504,0.000000,4.000000,91.000000,,,,0.000000,4.000000,4.000000,4.000000,4.000000,4.000000,100.000000,,,,,,,,,,,,,,,,,,,,,,,,,,,,,,,,,,,,,,,3.248593,1.579485,2.346366,1.520772,1.394571,4.322763,6.910191,4.212051,2.208297,2.346385,8.779330,5.363044,4.875209,1.659052,1.384685,2.070454,3.292201,1.044208,3.110201,2.146880,4.249348,7.210080,2.879015,2.854304,1.783453
1656266490.141056,31.000000,0.000000,4237.948730,4236.922852,4102.563965,4048.718018,4202.563965,0.000000,4.000000,91.000000,,,,0.000000,4.000000,4.000000,4.000000,4.000000,4.000000,100.000000,,,,,,,,,,,,,,,,,,,,,,,,,,,,,,,,,,,,,,,,,,,,,,,,,,,,,,,,,,,,,,,
1656266490.148871,32.000000,0.000000,4274.871582,4256.922852,4104.102539,4086.666748,4242.051270,0.000000,4.000000,91.000000,,,,0.000000,4.000000,4.000000,4.000000,4.000000,4.000000,100.000000,,,,,,,,,,,,,,,,,,,,,,,,,,,,,,,,,,,,,,,,,,,,,,,,,,,,,,,,,,,,,,,
1656266490.156785,33.000000,0.000000,4275.897461,4257.436035,4066.666748,4093.846191,4253.846191,0.000000,4.000000,91.000000,,,,0.000000,4.000000,4.000000,4.000000,4.000000,4.000000,100.000000,,,,,,,,,,,,,,,,,,,,,,,,,,,,,,,,,,,,,,,,,,,,,,,,,,,,,,,,,,,,,,,
1656266490.164599,34.000000,0.000000,4265.128418,4224.102539,4063.076904,4068.205078,4210.256348,0.000000,4.000000,91.000000,,,,0.000000,4.000000,4.000000,4.000000,4.000000,4.000000,100.000000,,,,,,,,,,,,,,,,,,,,,,,,,,,,,,,,,,,,,,,,,,,,,,,,,,,,,,,,,,,,,,,
1656266490.172514,35.000000,0.000000,4290.256348,4195.384766,4084.615479,4082.051270,4196.922852,0.000000,4.000000,91.000000,,,,0.000000,4.000000,4.000000,4.000000,4.000000,4.000000,100.000000,,,,,,,,,,,,,,,,,,,,,,,,,,,,,,,,,,,,,,,,,,,,,,,,,,,,,,,,,,,,,,,
1656266490.180328,36.000000,0.000000,4308.205078,4200.512695,4083.589844,4106.666504,4225.641113,0.000000,4.000000,91.000000,,,,0.000000,4.000000,4.000000,4.000000,4.000000,4.000000,100.000000,,,,,,,,,,,,,,,,,,,,,,,,,,,,,,,,,,,,,,,,,,,,,,,,,,,,,,,,,,,,,,,
1656266490.188242,37.000000,0.000000,4281.025879,4225.128418,4087.692383,4080.512939,4220.000000,0.000000,4.000000,91.000000,,,,0.000000,4.000000,4.000000,4.000000,4.000000,4.000000,100.000000,,,,,,,,,,,,,,,,,,,,,,,,,,,,,,,,,,,,,,,,,,,,,,,,,,,,,,,,,,,,,,,
1656266490.196057,38.000000,0.000000,4232.307617,4240.512695,4090.256348,4042.564209,4187.692383,0.000000,4.000000,91.000000,,,,0.000000,4.000000,4.000000,4.000000,4.000000,4.000000,100.000000,,,,,,,,,,,,,,,,,,,,,,,,,,,,,,,,,,,,,,,,,,,,,,,,,,,,,,,,,,,,,,,
1656266490.203971,39.000000,0.000000,4228.205078,4241.025879,4078.974365,4060.000000,4193.846191,0.000000,4.000000,91.000000,,,,0.000000,4.000000,4.000000,4.000000,4.000000,4.000000,100.000000,,,,,,,,,,,,,,,,,,,,,,,,,,,,,,,,,,,,,,,,,,,,,,,,,,,,,,,,,,,,,,,
1656266490.211785,40.000000,0.000000,4255.384766,4209.230957,4072.307617,4080.512939,4189.743652,0.000000,4.000000,91.000000,,,,0.000000,4.000000,4.000000,4.000000,4.000000,4.000000,100.000000,,,,,,,,,,,,,,,,,,,,,,,,,,,,,,,,,,,,,,,,,,,,,,,,,,,,,,,,,,,,,,,
1656266490.219700,41.000000,0.000000,4257.948730,4192.820313,4078.461426,4072.307617,4172.307617,0.000000,4.000000,91.000000,,,,0.000000,4.000000,4.000000,4.000000,4.000000,4.000000,100.000000,,,,,,,,,,,,,,,,,,,,,,,,,,,,,,,,,,,,,,,,,,,,,,,,,,,,,,,,,,,,,,,
1656266490.227514,42.000000,0.000000,4267.692383,4210.769043,4086.666748,4094.871826,4206.666504,0.000000,4.000000,91.000000,,,,0.000000,4.000000,4.000000,4.000000,4.000000,4.000000,100.000000,,,,,,,,,,,,,,,,,,,,,,,,,,,,,,,,,,,,,,,,,,,,,,,,,,,,,,,,,,,,,,,
1656266490.235428,43.000000,0.000000,4286.666504,4197.436035,4091.794922,4107.179688,4218.461426,0.000000,4.000000,91.000000,,,,0.000000,4.000000,4.000000,4.000000,4.000000,4.000000,100.000000,,,,,,,,,,,,,,,,,,,,,,,,,,,,,,,,,,,,,,,,,,,,,,,,,,,,,,,,,,,,,,,
1656266490.243243,44.000000,0.000000,4291.794922,4192.820313,4102.563965,4095.384521,4201.538574,0.000000,4.000000,91.000000,,,,0.000000,4.000000,4.000000,4.000000,4.000000,4.000000,100.000000,,,,,,,,,,,,,,,,,,,,,,,,,,,,,,,,,,,,,,,,,,,,,,,,,,,,,,,,,,,,,,,
1656266490.251157,45.000000,0.000000,4282.051270,4233.333496,4093.333252,4109.230957,4227.692383,0.000000,4.000000,91.000000,,,,0.000000,4.000000,4.000000,4.000000,4.000000,4.000000,100.000000,,,,,,,,,,,,,,,,,,,,,,,,,,,,,,,,,,,,,,,,,,,,,,,,,,,,,,,,,,,,,,,
1656266490.258972,46.000000,0.000000,4267.692383,4240.512695,4077.948730,4123.589844,4241.538574,0.000000,4.000000,91.000000,,,,0.000000,4.000000,4.000000,4.000000,4.000000,4.000000,100.000000,,,,,,,,,,,,,,,,,,,,,,,,,,,,,,,,,,,,,,,3.728723,1.735484,2.910167,1.550368,1.363440,4.525541,6.591948,4.218236,2.192053,2.318422,9.659826,6.204429,5.367131,1.657796,1.327017,1.992535,3.281109,1.056072,3.302271,2.093785,4.406329,6.385639,2.929008,3.099938,1.809879
1656266490.266686,47.000000,0.000000,4269.230957,4223.589844,4098.974121,4105.128418,4210.256348,0.000000,4.000000,91.000000,,,,0.000000,4.000000,4.000000,4.000000,4.000000,4.000000,100.000000,,,,,,,,,,,,,,,,,,,,,,,,,,,,,,,,,,,,,,,,,,,,,,,,,,,,,,,,,,,,,,,
1656266490.274600,48.000000,0.000000,4271.794922,4232.307617,4121.025879,4070.256348,4188.717773,0.000000,4.000000,91.000000,,,,0.000000,4.000000,4.000000,4.000000,4.000000,4.000000,100.000000,,,,,,,,,,,,,,,,,,,,,,,,,,,,,,,,,,,,,,,,,,,,,,,,,,,,,,,,,,,,,,,
1656266490.282415,49.000000,0.000000,4268.205078,4234.871582,4110.769043,4058.461426,4198.974121,0.000000,4.000000,91.000000,,,,0.000000,4.000000,4.000000,4.000000,4.000000,4.000000,100.000000,,,,,,,,,,,,,,,,,,,,,,,,,,,,,,,,,,,,,,,,,,,,,,,,,,,,,,,,,,,,,,,
1656266490.290329,50.000000,0.000000,4251.282227,4240.512695,4084.102539,4068.205078,4215.897461,0.000000,4.000000,91.000000,,,,0.000000,4.000000,4.000000,4.000000,4.000000,4.000000,100.000000,,,,,,,,,,,,,,,,,,,,,,,,,,,,,,,,,,,,,,,,,,,,,,,,,,,,,,,,,,,,,,,
1656266490.298143,51.000000,0.000000,4241.538574,4252.820313,4070.256348,4084.102539,4225.128418,0.000000,4.000000,91.000000,,,,0.000000,4.000000,4.000000,4.000000,4.000000,4.000000,100.000000,,,,,,,,,,,,,,,,,,,,,,,,,,,,,,,,,,,,,,,,,,,,,,,,,,,,,,,,,,,,,,,
1656266490.306058,52.000000,0.000000,4256.922852,4244.615234,4083.076904,4092.307617,4228.205078,0.000000,4.000000,91.000000,,,,0.000000,4.000000,4.000000,4.000000,4.000000,4.000000,100.000000,,,,,,,,,,,,,,,,,,,,,,,,,,,,,,,,,,,,,,,,,,,,,,,,,,,,,,,,,,,,,,,
1656266490.313872,53.000000,0.000000,4249.743652,4229.743652,4089.230713,4076.923096,4214.871582,0.000000,4.000000,91.000000,,,,0.000000,4.000000,4.000000,4.000000,4.000000,4.000000,100.000000,,,,,,,,,,,,,,,,,,,,,,,,,,,,,,,,,,,,,,,,,,,,,,,,,,,,,,,,,,,,,,,
1656266490.321786,54.000000,0.000000,4238.461426,4238.461426,4081.538574,4076.410156,4209.743652,0.000000,4.000000,91.000000,,,,0.000000,4.000000,4.000000,4.000000,4.000000,4.000000,100.000000,,,,,,,,,,,,,,,,,,,,,,,,,,,,,,,,,,,,,,,,,,,,,,,,,,,,,,,,,,,,,,,
1656266490.329601,55.000000,0.000000,4260.512695,4261.538574,4080.512939,4109.230957,4238.461426,0.000000,4.000000,91.000000,,,,0.000000,4.000000,4.000000,4.000000,4.000000,4.000000,100.000000,,,,,,,,,,,,,,,,,,,,,,,,,,,,,,,,,,,,,,,,,,,,,,,,,,,,,,,,,,,,,,,
1656266490.337515,56.000000,0.000000,4271.794922,4253.846191,4090.256348,4114.358887,4246.666504,0.000000,4.000000,91.000000,,,,0.000000,4.000000,4.000000,4.000000,4.000000,4.000000,100.000000,,,,,,,,,,,,,,,,,,,,,,,,,,,,,,,,,,,,,,,,,,,,,,,,,,,,,,,,,,,,,,,
1656266490.345330,57.000000,0.000000,4276.410156,4228.717773,4110.769043,4100.512695,4233.333496,0.000000,4.000000,91.000000,,,,0.000000,4.000000,4.000000,4.000000,4.000000,4.000000,100.000000,,,,,,,,,,,,,,,,,,,,,,,,,,,,,,,,,,,,,,,,,,,,,,,,,,,,,,,,,,,,,,,
1656266490.353244,58.000000,0.000000,4296.410156,4222.051270,4103.077148,4120.000000,4242.563965,0.000000,4.000000,91.000000,,,,0.000000,4.000000,4.000000,4.000000,4.000000,4.000000,100.000000,,,,,,,,,,,,,,,,,,,,,,,,,,,,,,,,,,,,,,,,,,,,,,,,,,,,,,,,,,,,,,,
1656266490.361058,59.000000,0.000000,4286.666504,4246.666504,4086.153809,4136.410156,4256.922852,0.000000,4.000000,91.000000,,,,0.000000,4.000000,4.000000,4.000000,4.000000,4.000000,100.000000,,,,,,,,,,,,,,,,,,,,,,,,,,,,,,,,,,,,,,,,,,,,,,,,,,,,,,,,,,,,,,,
1656266490.368973,60.000000,0.000000,4273.333496,4259.487305,4113.846191,4118.461426,4243.589844,0.000000,4.000000,91.000000,,,,0.000000,4.000000,4.000000,4.000000,4.000000,4.000000,100.000000,,,,,,,,,,,,,,,,,,,,,,,,,,,,,,,,,,,,,,,,,,,,,,,,,,,,,,,,,,,,,,,
1656266490.376787,61.000000,0.000000,4288.205078,4218.461426,4132.307617,4100.512695,4210.769043,0.000000,4.000000,91.000000,,,,0.000000,4.000000,4.000000,4.000000,4.000000,4.000000,100.000000,,,,,,,,,,,,,,,,,,,,,,,,,,,,,,,,,,,,,,,,,,,,,,,,,,,,,,,,,,,,,,,
1656266490.384701,62.000000,0.000000,4290.256348,4212.820313,4108.717773,4110.256348,4214.871582,0.000000,4.000000,91.000000,,,,0.000000,4.000000,4.000000,4.000000,4.000000,4.000000,100.000000,,,,,,,,,,,,,,,,,,,,,,,,,,,,,,,,,,,,,,,4.635260,2.135482,3.272808,1.632964,1.311519,4.454996,5.902252,4.267101,2.226065,2.351483,10.403997,6.728366,5.601511,1.605452,1.292449,2.085051,3.344860,1.135143,3.478585,2.038704,4.250505,5.177247,3.103176,3.381847,1.853506
1656266490.392516,63.000000,0.000000,4266.153809,4270.256348,4075.384521,4116.922852,4248.205078,0.000000,4.000000,91.000000,,,,0.000000,4.000000,4.000000,4.000000,4.000000,4.000000,100.000000,,,,,,,,,,,,,,,,,,,,,,,,,,,,,,,,,,,,,,,,,,,,,,,,,,,,,,,,,,,,,,,
1656266490.400430,64.000000,0.000000,4253.333496,4290.769043,4059.487061,4107.179688,4253.846191,450.000000,4.000000,91.000000,,,,0.000000,4.000000,4.000000,4.000000,4.000000,4.000000,100.000000,,,,,,,,,,,,,,,,,,,,,,,,,,,,,,,,,,,,,,,,,,,,,,,,,,,,,,,,,,,,,,,
1656266490.408244,65.000000,0.000000,4269.743652,4232.307617,4071.794922,4098.974121,4223.077148,450.000000,4.000000,91.000000,,,,0.000000,4.000000,4.000000,4.000000,4.000000,4.000000,100.000000,,,,,,,,,,,,,,,,,,,,,,,,,,,,,,,,,,,,,,,,,,,,,,,,,,,,,,,,,,,,,,,
1656266490.416159,66.000000,0.000000,4270.769043,4177.436035,4094.358887,4070.769287,4180.000000,16228.000000,4.000000,91.000000,,,,0.000000,4.000000,4.000000,4.000000,4.000000,4.000000,100.000000,,,,,,,,,,,,,,,,,,,,,,,,,,,,,,,,,,,,,,,,,,,,,,,,,,,,,,,,,,,,,,,
1656266490.423973,67.000000,0.000000,4264.615234,4204.615234,4098.461426,4064.615479,4183.589844,450.000000,4.000000,91.000000,,,,0.000000,4.000000,4.000000,4.000000,4.000000,4.000000,100.000000,,,,,,,,,,,,,,,,,,,,,,,,,,,,,,,,,,,,,,,,,,,,,,,,,,,,,,,,,,,,,,,
1656266490.431788,68.000000,0.000000,4269.743652,4244.615234,4074.358887,4106.153809,4223.077148,16182.000000,4.000000,91.000000,,,,0.000000,4.000000,4.000000,4.000000,4.000000,4.000000,100.000000,,,,,,,,,,,,,,,,,,,,,,,,,,,,,,,,,,,,,,,,,,,,,,,,,,,,,,,,,,,,,,,
1656266490.439702,69.000000,0.000000,4272.820313,4230.769043,4068.718018,4115.897461,4226.153809,450.000000,4.000000,91.000000,,,,0.000000,4.000000,4.000000,4.000000,4.000000,4.000000,100.000000,,,,,,,,,,,,,,,,,,,,,,,,,,,,,,,,,,,,,,,,,,,,,,,,,,,,,,,,,,,,,,,
1656266490.447516,70.000000,0.000000,4277.948730,4211.282227,4092.820557,4090.256348,4206.666504,16185.000000,4.000000,91.000000,,,,0.000000,4.000000,4.000000,4.000000,4.000000,4.000000,100.000000,,,,,,,,,,,,,,,,,,,,,,,,,,,,,,,,,,,,,,,,,,,,,,,,,,,,,,,,,,,,,,,
1656266490.455431,71.000000,0.000000,4277.436035,4214.871582,4078.461426,4091.794922,4212.307617,450.000000,4.000000,91.000000,,,,0.000000,4.000000,4.000000,4.000000,4.000000,4.000000,100.000000,,,,,,,,,,,,,,,,,,,,,,,,,,,,,,,,,,,,,,,,,,,,,,,,,,,,,,,,,,,,,,,
1656266490.463245,72.000000,0.000000,4268.717773,4228.205078,4050.769287,4112.820313,4228.205078,450.000000,4.000000,91.000000,,,,0.000000,4.000000,4.000000,4.000000,4.000000,4.000000,100.000000,,,,,,,,,,,,,,,,,,,,,,,,,,,,,,,,,,,,,,,,,,,,,,,,,,,,,,,,,,,,,,,
1656266490.471159,73.000000,0.000000,4249.230957,4228.205078,4074.358887,4089.743652,4208.205078,16211.000000,4.000000,91.000000,,,,0.000000,4.000000,4.000000,4.000000,4.000000,4.000000,100.000000,,,,,,,,,,,,,,,,,,,,,,,,,,,,,,,,,,,,,,,,,,,,,,,,,,,,,,,,,,,,,,,
1656266490.478974,74.000000,0.000000,4228.717773,4210.769043,4093.333252,4046.666748,4182.563965,450.000000,4.000000,91.000000,,,,0.000000,4.000000,4.000000,4.000000,4.000000,4.000000,100.000000,,,,,,,,,,,,,,,,,,,,,,,,,,,,,,,,,,,,,,,,,,,,,,,,,,,,,,,,,,,,,,,
1656266490.486888,75.000000,0.000000,4244.102539,4216.922852,4080.512939,4057.435791,4196.410156,16147.000000,4.000000,91.000000,,,,0.000000,4.000000,4.000000,4.000000,4.000000,4.000000,100.000000,,,,,,,,,,,,,,,,,,,,,,,,,,,,,,,,,,,,,,,,,,,,,,,,,,,,,,,,,,,,,,,
1656266490.494702,76.000000,0.000000,4271.282227,4215.384766,4078.461426,4084.615479,4209.230957,450.000000,4.000000,91.000000,,,,0.000000,4.000000,4.000000,4.000000,4.000000,4.000000,100.000000,,,,,,,,,,,,,,,,,,,,,,,,,,,,,,,,,,,,,,,,,,,,,,,,,,,,,,,,,,,,,,,
1656266490.502517,77.000000,0.000000,4282.563965,4197.948730,4092.820557,4083.076904,4215.897461,450.000000,4.000000,91.000000,,,,0.000000,4.000000,4.000000,4.000000,4.000000,4.000000,100.000000,,,,,,,,,,,,,,,,,,,,,,,,,,,,,,,,,,,,,,,,,,,,,,,,,,,,,,,,,,,,,,,
1656266490.510231,78.000000,0.000000,4286.666504,4209.743652,4094.358887,4087.692383,4227.179688,450.000000,4.000000,91.000000,,,,0.000000,4.000000,4.000000,4.000000,4.000000,4.000000,100.000000,1.000000,100.000000,4.000000,4.000000,4.000000,4.000000,4.000000,,,,,,,,,,,,,,,,,,,,,,,,,,,,,,,,5.704983,2.826998,3.422792,1.699732,1.269084,4.178778,4.923681,4.336303,2.304276,2.423878,10.649029,6.840251,5.536077,1.529147,1.312848,2.308643,3.592146,1.387575,3.576345,2.018297,3.921257,4.019952,3.425161,3.626386,1.915663
1656266490.518146,79.000000,0.000000,4280.000000,4214.871582,4085.128174,4096.922852,4209.230957,16147.000000,4.000000,91.000000,,,,0.000000,4.000000,4.000000,4.000000,4.000000,4.000000,100.000000,,,,,,,,,,,,,,,,,,,,,,,,,,,,,,,,,,,,,,,,,,,,,,,,,,,,,,,,,,,,,,,
1656266490.525960,80.000000,0.000000,4269.230957,4206.666504,4077.948730,4087.179443,4197.436035,450.000000,4.000000,91.000000,,,,0.000000,4.000000,4.000000,4.000000,4.000000,4.000000,100.000000,,,,,,,,,,,,,,,,,,,,,,,,,,,,,,,,,,,,,,,,,,,,,,,,,,,,,,,,,,,,,,,
1656266490.533774,81.000000,0.000000,4248.205078,4216.922852,4082.564209,4055.384521,4207.692383,450.000000,4.000000,91.000000,,,,0.000000,4.000000,4.000000,4.000000,4.000000,4.000000,100.000000,,,,,,,,,,,,,,,,,,,,,,,,,,,,,,,,,,,,,,,,,,,,,,,,,,,,,,,,,,,,,,,
1656266490.541489,82.000000,0.000000,4241.538574,4232.820313,4109.230957,4048.205078,4211.282227,450.000000,4.000000,91.000000,,,,0.000000,4.000000,4.000000,4.000000,4.000000,4.000000,100.000000,,,,,,,,,,,,,,,,,,,,,,,,,,,,,,,,,,,,,,,,,,,,,,,,,,,,,,,,,,,,,,,
1656266490.549303,83.000000,0.000000,4276.922852,4246.666504,4112.307617,4092.307617,4230.769043,16147.000000,4.000000,91.000000,,,,0.000000,4.000000,4.000000,4.000000,4.000000,4.000000,100.000000,,,,,,,,,,,,,,,,,,,,,,,,,,,,,,,,,,,,,,,,,,,,,,,,,,,,,,,,,,,,,,,
1656266490.557018,84.000000,0.000000,4303.589844,4238.461426,4082.051270,4116.922852,4251.282227,450.000000,4.000000,91.000000,,,,0.000000,4.000000,4.000000,4.000000,4.000000,4.000000,100.000000,,,,,,,,,,,,,,,,,,,,,,,,,,,,,,,,,,,,,,,,,,,,,,,,,,,,,,,,,,,,,,,
1656266490.564932,85.000000,0.000000,4294.358887,4217.948730,4093.846191,4094.871826,4241.538574,450.000000,4.000000,91.000000,,,,0.000000,4.000000,4.000000,4.000000,4.000000,4.000000,100.000000,,,,,,,,,,,,,,,,,,,,,,,,,,,,,,,,,,,,,,,,,,,,,,,,,,,,,,,,,,,,,,,
1656266490.572747,86.000000,0.000000,4276.410156,4241.538574,4103.589844,4088.205078,4240.000000,450.000000,4.000000,91.000000,,,,0.000000,4.000000,4.000000,4.000000,4.000000,4.000000,100.000000,,,,,,,,,,,,,,,,,,,,,,,,,,,,,,,,,,,,,,,,,,,,,,,,,,,,,,,,,,,,,,,
1656266490.580661,87.000000,0.000000,4272.307617,4283.589844,4075.384521,4103.589844,4263.077148,16147.000000,4.000000,91.000000,,,,0.000000,4.000000,4.000000,4.000000,4.000000,4.000000,100.000000,,,,,,,,,,,,,,,,,,,,,,,,,,,,,,,,,,,,,,,,,,,,,,,,,,,,,,,,,,,,,,,
1656266490.588475,88.000000,0.000000,4290.769043,4260.000000,4100.000000,4103.077148,4254.358887,450.000000,4.000000,91.000000,,,,0.000000,4.000000,4.000000,4.000000,4.000000,4.000000,100.000000,,,,,,,,,,,,,,,,,,,,,,,,,,,,,,,,,,,,,,,,,,,,,,,,,,,,,,,,,,,,,,,
1656266490.596190,89.000000,0.000000,4301.025879,4213.333496,4151.282227,4088.205078,4213.846191,450.000000,4.000000,91.000000,,,,0.000000,4.000000,4.000000,4.000000,4.000000,4.000000,100.000000,,,,,,,,,,,,,,,,,,,,,,,,,,,,,,,,,,,,,,,,,,,,,,,,,,,,,,,,,,,,,,,
1656266490.604104,90.000000,0.000000,4292.307617,4230.256348,4147.179688,4101.025879,4214.358887,450.000000,4.000000,91.000000,,,,0.000000,4.000000,4.000000,4.000000,4.000000,4.000000,100.000000,,,,,,,,,,,,,,,,,,,,,,,,,,,,,,,,,,,,,,,,,,,,,,,,,,,,,,,,,,,,,,,
1656266490.611918,91.000000,0.000000,4285.128418,4246.153809,4108.717773,4123.589844,4237.948730,16147.000000,4.000000,91.000000,,,,0.000000,4.000000,4.000000,4.000000,4.000000,4.000000,100.000000,,,,,,,,,,,,,,,,,,,,,,,,,,,,,,,,,,,,,,,,,,,,,,,,,,,,,,,,,,,,,,,
1656266490.619733,92.000000,0.000000,4286.153809,4227.692383,4089.230713,4106.666504,4232.307617,450.000000,4.000000,91.000000,,,,0.000000,4.000000,4.000000,4.000000,4.000000,4.000000,100.000000,,,,,,,,,,,,,,,,,,,,,,,,,,,,,,,,,,,,,,,,,,,,,,,,,,,,,,,,,,,,,,,
1656266490.627447,93.000000,0.000000,4302.563965,4228.205078,4103.589844,4091.281982,4228.717773,450.000000,4.000000,91.000000,,,,0.000000,4.000000,4.000000,4.000000,4.000000,4.000000,100.000000,,,,,,,,,,,,,,,,,,,,,,,,,,,,,,,,,,,,,,,,,,,,,,,,,,,,,,,,,,,,,,,
1656266490.635262,94.000000,0.000000,4310.769043,4231.794922,4101.538574,4116.922852,4249.230957,450.000000,4.000000,91.000000,,,,0.000000,4.000000,4.000000,4.000000,4.000000,4.000000,100.000000,,,,,,,,,,,,,,,,,,,,,,,,,,,,,,,,,,,,,,,6.608713,3.840567,3.446953,1.704778,1.262606,3.874060,3.788649,4.378416,2.424430,2.513105,10.137641,6.574157,5.217050,1.473780,1.396000,2.571051,4.119862,1.884430,3.542562,2.046532,3.601559,3.266871,3.819121,3.750441,1.993986
1656266490.642976,95.000000,0.000000,4302.563965,4234.871582,4087.692383,4134.358887,4266.666504,16147.000000,4.000000,91.000000,,,,0.000000,4.000000,4.000000,4.000000,4.000000,4.000000,100.000000,,,,,,,,,,,,,,,,,,,,,,,,,,,,,,,,,,,,,,,,,,,,,,,,,,,,,,,,,,,,,,,
1656266490.650791,96.000000,0.000000,4301.538574,4236.922852,4104.615234,4115.897461,4249.230957,450.000000,4.000000,91.000000,,,,0.000000,4.000000,4.000000,4.000000,4.000000,4.000000,100.000000,,,,,,,,,,,,,,,,,,,,,,,,,,,,,,,,,,,,,,,,,,,,,,,,,,,,,,,,,,,,,,,
1656266490.658505,97.000000,0.000000,4311.282227,4221.538574,4114.358887,4115.897461,4227.179688,450.000000,4.000000,91.000000,,,,0.000000,4.000000,4.000000,4.000000,4.000000,4.000000,100.000000,,,,,,,,,,,,,,,,,,,,,,,,,,,,,,,,,,,,,,,,,,,,,,,,,,,,,,,,,,,,,,,
1656266490.666320,98.000000,0.000000,4311.794922,4236.922852,4112.820313,4134.871582,4241.538574,450.000000,4.000000,91.000000,,,,0.000000,4.000000,4.000000,4.000000,4.000000,4.000000,100.000000,,,,,,,,,,,,,,,,,,,,,,,,,,,,,,,,,,,,,,,,,,,,,,,,,,,,,,,,,,,,,,,
1656266490.674034,99.000000,0.000000,4281.025879,4265.641113,4130.769043,4100.000000,4235.897461,16147.000000,4.000000,91.000000,,,,0.000000,4.000000,4.000000,4.000000,4.000000,4.000000,100.000000,,,,,,,,,,,,,,,,,,,,,,,,,,,,,,,,,,,,,,,,,,,,,,,,,,,,,,,,,,,,,,,
1656266490.681948,100.000000,0.000000,4262.051270,4252.820313,4140.512695,4076.923096,4213.846191,450.000000,4.000000,91.000000,,,,0.000000,4.000000,4.000000,4.000000,4.000000,4.000000,100.000000,,,,,,,,,,,,,,,,,,,,,,,,,,,,,,,,,,,,,,,,,,,,,,,,,,,,,,,,,,,,,,,
1656266490.689763,101.000000,0.000000,4268.717773,4244.102539,4126.153809,4097.948730,4232.820313,450.000000,4.000000,91.000000,,,,0.000000,4.000000,4.000000,4.000000,4.000000,4.000000,100.000000,,,,,,,,,,,,,,,,,,,,,,,,,,,,,,,,,,,,,,,,,,,,,,,,,,,,,,,,,,,,,,,
1656266490.697577,102.000000,0.000000,4280.000000,4248.717773,4126.666504,4093.846191,4251.282227,450.000000,4.000000,91.000000,,,,0.000000,4.000000,4.000000,4.000000,4.000000,4.000000,100.000000,,,,,,,,,,,,,,,,,,,,,,,,,,,,,,,,,,,,,,,,,,,,,,,,,,,,,,,,,,,,,,,
1656266490.705292,103.000000,0.000000,4298.974121,4254.358887,4131.794922,4100.512695,4249.743652,16147.000000,4.000000,91.000000,,,,0.000000,4.000000,4.000000,4.000000,4.000000,4.000000,100.000000,,,,,,,,,,,,,,,,,,,,,,,,,,,,,,,,,,,,,,,,,,,,,,,,,,,,,,,,,,,,,,,
1656266490.713206,104.000000,0.000000,4283.589844,4267.179688,4107.179688,4110.769043,4243.077148,450.000000,4.000000,91.000000,,,,0.000000,4.000000,4.000000,4.000000,4.000000,4.000000,100.000000,,,,,,,,,,,,,,,,,,,,,,,,,,,,,,,,,,,,,,,,,,,,,,,,,,,,,,,,,,,,,,,
1656266490.721021,105.000000,0.000000,4251.282227,4262.563965,4096.410156,4094.358887,4245.641113,450.000000,4.000000,91.000000,,,,0.000000,4.000000,4.000000,4.000000,4.000000,4.000000,100.000000,,,,,,,,,,,,,,,,,,,,,,,,,,,,,,,,,,,,,,,,,,,,,,,,,,,,,,,,,,,,,,,
1656266490.728935,106.000000,0.000000,4251.282227,4243.077148,4122.563965,4088.205078,4252.307617,450.000000,4.000000,91.000000,,,,0.000000,4.000000,4.000000,4.000000,4.000000,4.000000,100.000000,,,,,,,,,,,,,,,,,,,,,,,,,,,,,,,,,,,,,,,,,,,,,,,,,,,,,,,,,,,,,,,
1656266490.736849,107.000000,0.000000,4258.461426,4229.230957,4130.256348,4091.794922,4232.820313,16147.000000,4.000000,91.000000,,,,0.000000,4.000000,4.000000,4.000000,4.000000,4.000000,100.000000,,,,,,,,,,,,,,,,,,,,,,,,,,,,,,,,,,,,,,,,,,,,,,,,,,,,,,,,,,,,,,,
1656266490.744664,108.000000,0.000000,4268.717773,4232.820313,4126.153809,4091.794922,4216.410156,450.000000,4.000000,91.000000,,,,0.000000,4.000000,4.000000,4.000000,4.000000,4.000000,100.000000,,,,,,,,,,,,,,,,,,,,,,,,,,,,,,,,,,,,,,,,,,,,,,,,,,,,,,,,,,,,,,,
1656266490.752478,109.000000,0.000000,4277.948730,4254.358887,4116.922852,4090.256348,4235.897461,450.000000,4.000000,91.000000,,,,0.000000,4.000000,4.000000,4.000000,4.000000,4.000000,100.000000,,,,,,,,,,,,,,,,,,,,,,,,,,,,,,,,,,,,,,,,,,,,,,,,,,,,,,,,,,,,,,,
1656266490.760392,110.000000,0.000000,4280.000000,4276.410156,4100.000000,4096.410156,4260.512695,450.000000,4.000000,91.000000,,,,0.000000,4.000000,4.000000,4.000000,4.000000,4.000000,100.000000,,,,,,,,,,,,,,,,,,,,,,,,,,,,,,,,,,,,,,,7.117031,5.092045,3.498392,1.653084,1.291188,3.724734,2.671786,4.327892,2.576525,2.621289,8.865290,6.036179,4.761460,1.485913,1.528704,2.836746,4.914491,2.607042,3.372535,2.108323,3.440059,3.027314,4.180618,3.725183,2.085186
1656266490.768207,111.000000,0.000000,4287.179688,4271.794922,4114.871582,4104.615234,4252.307617,16147.000000,4.000000,91.000000,,,,0.000000,4.000000,4.000000,4.000000,4.000000,4.000000,100.000000,,,,,,,,,,,,,,,,,,,,,,,,,,,,,,,,,,,,,,,,,,,,,,,,,,,,,,,,,,,,,,,
1656266490.775921,112.000000,0.000000,4281.538574,4246.666504,4136.922852,4085.128174,4222.051270,450.000000,4.000000,91.000000,,,,0.000000,4.000000,4.000000,4.000000,4.000000,4.000000,100.000000,,,,,,,,,,,,,,,,,,,,,,,,,,,,,,,,,,,,,,,,,,,,,,,,,,,,,,,,,,,,,,,
1656266490.783736,113.000000,0.000000,4284.102539,4243.077148,4132.307617,4074.358887,4230.256348,450.000000,4.000000,91.000000,,,,0.000000,4.000000,4.000000,4.000000,4.000000,4.000000,100.000000,,,,,,,,,,,,,,,,,,,,,,,,,,,,,,,,,,,,,,,,,,,,,,,,,,,,,,,,,,,,,,,
1656266490.791450,114.000000,0.000000,4318.461426,4253.333496,4112.820313,4120.512695,4278.974121,450.000000,4.000000,91.000000,,,,0.000000,4.000000,4.000000,4.000000,4.000000,4.000000,100.000000,,,,,,,,,,,,,,,,,,,,,,,,,,,,,,,,,,,,,,,,,,,,,,,,,,,,,,,,,,,,,,,
1656266490.799264,115.000000,0.000000,4330.769043,4269.230957,4103.077148,4141.538574,4293.846191,16147.000000,4.000000,91.000000,,,,0.000000,4.000000,4.000000,4.000000,4.000000,4.000000,100.000000,,,,,,,,,,,,,,,,,,,,,,,,,,,,,,,,,,,,,,,,,,,,,,,,,,,,,,,,,,,,,,,
1656266490.806979,116.000000,0.000000,4324.102539,4282.051270,4120.000000,4114.358887,4277.948730,450.000000,4.000000,91.000000,,,,0.000000,4.000000,4.000000,4.000000,4.000000,4.000000,100.000000,,,,,,,,,,,,,,,,,,,,,,,,,,,,,,,,,,,,,,,,,,,,,,,,,,,,,,,,,,,,,,,
1656266490.814793,117.000000,0.000000,4336.410156,4248.717773,4131.282227,4109.230957,4263.077148,450.000000,4.000000,91.000000,,,,0.000000,4.000000,4.000000,4.000000,4.000000,4.000000,100.000000,,,,,,,,,,,,,,,,,,,,,,,,,,,,,,,,,,,,,,,,,,,,,,,,,,,,,,,,,,,,,,,
1656266490.822508,118.000000,0.000000,4342.563965,4234.358887,4133.846191,4116.922852,4262.051270,450.000000,4.000000,91.000000,,,,0.000000,4.000000,4.000000,4.000000,4.000000,4.000000,100.000000,,,,,,,,,,,,,,,,,,,,,,,,,,,,,,,,,,,,,,,,,,,,,,,,,,,,,,,,,,,,,,,
1656266490.830322,119.000000,0.000000,4338.461426,4282.563965,4124.102539,4118.461426,4293.333496,16147.000000,4.000000,91.000000,,,,0.000000,4.000000,4.000000,4.000000,4.000000,4.000000,100.000000,,,,,,,,,,,,,,,,,,,,,,,,,,,,,,,,,,,,,,,,,,,,,,,,,,,,,,,,,,,,,,,
1656266490.838037,120.000000,0.000000,4326.666504,4304.102539,4109.230957,4114.358887,4305.128418,450.000000,4.000000,91.000000,,,,0.000000,4.000000,4.000000,4.000000,4.000000,4.000000,100.000000,,,,,,,,,,,,,,,,,,,,,,,,,,,,,,,,,,,,,,,,,,,,,,,,,,,,,,,,,,,,,,,
