title:david_g_Left, start timestamp:1656265768.902609, stop timestamp:1656265773.912199, headset type:INSIGHT, headset serial:A2D201AE, headset firmware:932, channels:84, sampling rate:eeg_128;pm_0.1;pow_8, samples:640       , version:2.1, 
Timestamp,EEG.Counter,EEG.Interpolated,EEG.AF3,EEG.T7,EEG.Pz,EEG.T8,EEG.AF4,EEG.RawCq,EEG.Battery,EEG.BatteryPercent,MarkerIndex,MarkerType,MarkerValueInt,EEG.MarkerHardware,CQ.AF3,CQ.T7,CQ.Pz,CQ.T8,CQ.AF4,CQ.Overall,EQ.SampleRateQuality,EQ.OVERALL,EQ.AF3,EQ.T7,EQ.Pz,EQ.T8,EQ.AF4,PM.Engagement.IsActive,PM.Engagement.Scaled,PM.Engagement.Raw,PM.Engagement.Min,PM.Engagement.Max,PM.Excitement.IsActive,PM.Excitement.Scaled,PM.Excitement.Raw,PM.Excitement.Min,PM.Excitement.Max,PM.LongTermExcitement,PM.Stress.IsActive,PM.Stress.Scaled,PM.Stress.Raw,PM.Stress.Min,PM.Stress.Max,PM.Relaxation.IsActive,PM.Relaxation.Scaled,PM.Relaxation.Raw,PM.Relaxation.Min,PM.Relaxation.Max,PM.Interest.IsActive,PM.Interest.Scaled,PM.Interest.Raw,PM.Interest.Min,PM.Interest.Max,PM.Focus.IsActive,PM.Focus.Scaled,PM.Focus.Raw,PM.Focus.Min,PM.Focus.Max,POW.AF3.Theta,POW.AF3.Alpha,POW.AF3.BetaL,POW.AF3.BetaH,POW.AF3.Gamma,POW.T7.Theta,POW.T7.Alpha,POW.T7.BetaL,POW.T7.BetaH,POW.T7.Gamma,POW.Pz.Theta,POW.Pz.Alpha,POW.Pz.BetaL,POW.Pz.BetaH,POW.Pz.Gamma,POW.T8.Theta,POW.T8.Alpha,POW.T8.BetaL,POW.T8.BetaH,POW.T8.Gamma,POW.AF4.Theta,POW.AF4.Alpha,POW.AF4.BetaL,POW.AF4.BetaH,POW.AF4.Gamma
1656265768.902609,33.000000,0.000000,4218.461426,4224.102539,4110.769043,4103.077148,4195.897461,0.000000,4.000000,95.000000,,,,0.000000,4.000000,4.000000,4.000000,4.000000,4.000000,100.000000,,,,,,,,,,,,,,,,,,,,,,,,,,,,,,,,,,,,,,,,,,,,,,,,,,,,,,,,,,,,,,,
1656265768.910523,34.000000,0.000000,4241.538574,4283.589844,4125.128418,4104.615234,4214.358887,0.000000,4.000000,95.000000,,,,0.000000,4.000000,4.000000,4.000000,4.000000,4.000000,100.000000,,,,,,,,,,,,,,,,,,,,,,,,,,,,,,,,,,,,,,,,,,,,,,,,,,,,,,,,,,,,,,,
1656265768.918338,35.000000,0.000000,4240.512695,4286.666504,4102.563965,4075.384521,4225.128418,0.000000,4.000000,95.000000,,,,0.000000,4.000000,4.000000,4.000000,4.000000,4.000000,100.000000,,,,,,,,,,,,,,,,,,,,,,,,,,,,,,,,,,,,,,,,,,,,,,,,,,,,,,,,,,,,,,,
1656265768.926252,36.000000,0.000000,4220.512695,4231.794922,4083.589844,4089.743652,4197.948730,0.000000,4.000000,95.000000,,,,0.000000,4.000000,4.000000,4.000000,4.000000,4.000000,100.000000,,,,,,,,,,,,,,,,,,,,,,,,,,,,,,,,,,,,,,,,,,,,,,,,,,,,,,,,,,,,,,,
1656265768.934067,37.000000,0.000000,4211.282227,4206.153809,4075.384521,4114.358887,4173.333496,0.000000,4.000000,95.000000,,,,0.000000,4.000000,4.000000,4.000000,4.000000,4.000000,100.000000,,,,,,,,,,,,,,,,,,,,,,,,,,,,,,,,,,,,,,,,,,,,,,,,,,,,,,,,,,,,,,,
1656265768.941981,38.000000,0.000000,4242.051270,4245.128418,4072.307617,4089.743652,4215.897461,0.000000,4.000000,95.000000,,,,0.000000,4.000000,4.000000,4.000000,4.000000,4.000000,100.000000,,,,,,,,,,,,,,,,,,,,,,,,,,,,,,,,,,,,,,,,,,,,,,,,,,,,,,,,,,,,,,,
1656265768.949795,39.000000,0.000000,4277.436035,4247.692383,4082.564209,4075.897461,4256.410156,0.000000,4.000000,95.000000,,,,0.000000,4.000000,4.000000,4.000000,4.000000,4.000000,100.000000,,,,,,,,,,,,,,,,,,,,,,,,,,,,,,,,,,,,,,,,,,,,,,,,,,,,,,,,,,,,,,,
1656265768.957710,40.000000,0.000000,4260.512695,4216.922852,4094.358887,4108.717773,4208.717773,0.000000,4.000000,95.000000,,,,0.000000,4.000000,4.000000,4.000000,4.000000,4.000000,100.000000,,,,,,,,,,,,,,,,,,,,,,,,,,,,,,,,,,,,,,,130.501328,4.655671,1.293018,13.133560,6.862879,3.909811,2.507417,3.702894,6.557358,5.549377,9.287265,2.818925,1.335766,3.451209,2.173470,7.388939,6.112912,3.247544,2.676215,2.829315,72.153290,6.281086,2.580286,6.652127,4.556563
1656265768.965524,41.000000,0.000000,4240.000000,4255.897461,4109.743652,4122.051270,4173.333496,0.000000,4.000000,95.000000,,,,0.000000,4.000000,4.000000,4.000000,4.000000,4.000000,100.000000,,,,,,,,,,,,,,,,,,,,,,,,,,,,,,,,,,,,,,,,,,,,,,,,,,,,,,,,,,,,,,,
1656265768.973438,42.000000,0.000000,4251.794922,4297.948730,4113.333496,4092.820557,4214.358887,0.000000,4.000000,95.000000,,,,0.000000,4.000000,4.000000,4.000000,4.000000,4.000000,100.000000,,,,,,,,,,,,,,,,,,,,,,,,,,,,,,,,,,,,,,,,,,,,,,,,,,,,,,,,,,,,,,,
1656265768.981253,43.000000,0.000000,4254.871582,4267.692383,4100.000000,4088.205078,4233.333496,0.000000,4.000000,95.000000,,,,0.000000,4.000000,4.000000,4.000000,4.000000,4.000000,100.000000,,,,,,,,,,,,,,,,,,,,,,,,,,,,,,,,,,,,,,,,,,,,,,,,,,,,,,,,,,,,,,,
1656265768.989167,44.000000,0.000000,4212.820313,4235.384766,4102.563965,4099.487305,4183.589844,0.000000,4.000000,95.000000,,,,0.000000,4.000000,4.000000,4.000000,4.000000,4.000000,100.000000,,,,,,,,,,,,,,,,,,,,,,,,,,,,,,,,,,,,,,,,,,,,,,,,,,,,,,,,,,,,,,,
1656265768.996981,45.000000,0.000000,4166.153809,4215.384766,4109.743652,4062.051270,4147.179688,0.000000,4.000000,95.000000,,,,0.000000,4.000000,4.000000,4.000000,4.000000,4.000000,100.000000,,,,,,,,,,,,,,,,,,,,,,,,,,,,,,,,,,,,,,,,,,,,,,,,,,,,,,,,,,,,,,,
1656265769.004896,46.000000,0.000000,4193.333496,4208.205078,4083.076904,4045.128174,4184.615234,0.000000,4.000000,95.000000,,,,0.000000,4.000000,4.000000,4.000000,4.000000,4.000000,100.000000,,,,,,,,,,,,,,,,,,,,,,,,,,,,,,,,,,,,,,,,,,,,,,,,,,,,,,,,,,,,,,,
1656265769.012710,47.000000,0.000000,4257.436035,4237.948730,4057.435791,4098.461426,4227.692383,0.000000,4.000000,95.000000,,,,0.000000,4.000000,4.000000,4.000000,4.000000,4.000000,100.000000,,,,,,,,,,,,,,,,,,,,,,,,,,,,,,,,,,,,,,,,,,,,,,,,,,,,,,,,,,,,,,,
1656265769.020624,48.000000,0.000000,4265.641113,4247.692383,4065.128174,4110.769043,4217.436035,0.000000,4.000000,95.000000,,,,0.000000,4.000000,4.000000,4.000000,4.000000,4.000000,100.000000,,,,,,,,,,,,,,,,,,,,,,,,,,,,,,,,,,,,,,,,,,,,,,,,,,,,,,,,,,,,,,,
1656265769.028439,49.000000,0.000000,4215.897461,4220.000000,4064.102539,4048.205078,4185.641113,0.000000,4.000000,95.000000,,,,0.000000,4.000000,4.000000,4.000000,4.000000,4.000000,100.000000,,,,,,,,,,,,,,,,,,,,,,,,,,,,,,,,,,,,,,,,,,,,,,,,,,,,,,,,,,,,,,,
1656265769.036153,50.000000,0.000000,4188.205078,4211.282227,4062.564209,4021.538574,4174.358887,0.000000,4.000000,95.000000,,,,0.000000,4.000000,4.000000,4.000000,4.000000,4.000000,100.000000,,,,,,,,,,,,,,,,,,,,,,,,,,,,,,,,,,,,,,,,,,,,,,,,,,,,,,,,,,,,,,,
1656265769.043968,51.000000,0.000000,4230.769043,4243.077148,4093.846191,4051.794922,4198.974121,0.000000,4.000000,95.000000,,,,0.000000,4.000000,4.000000,4.000000,4.000000,4.000000,100.000000,,,,,,,,,,,,,,,,,,,,,,,,,,,,,,,,,,,,,,,,,,,,,,,,,,,,,,,,,,,,,,,
1656265769.051882,52.000000,0.000000,4272.307617,4277.436035,4112.307617,4065.128174,4219.487305,0.000000,4.000000,95.000000,,,,0.000000,4.000000,4.000000,4.000000,4.000000,4.000000,100.000000,,,,,,,,,,,,,,,,,,,,,,,,,,,,,,,,,,,,,,,,,,,,,,,,,,,,,,,,,,,,,,,
1656265769.059696,53.000000,0.000000,4273.333496,4297.436035,4117.436035,4066.153809,4208.717773,0.000000,4.000000,95.000000,,,,0.000000,4.000000,4.000000,4.000000,4.000000,4.000000,100.000000,,,,,,,,,,,,,,,,,,,,,,,,,,,,,,,,,,,,,,,,,,,,,,,,,,,,,,,,,,,,,,,
1656265769.067411,54.000000,0.000000,4258.461426,4271.282227,4132.820313,4085.641113,4190.256348,0.000000,4.000000,95.000000,,,,0.000000,4.000000,4.000000,4.000000,4.000000,4.000000,100.000000,,,,,,,,,,,,,,,,,,,,,,,,,,,,,,,,,,,,,,,,,,,,,,,,,,,,,,,,,,,,,,,
1656265769.075325,55.000000,0.000000,4216.922852,4218.974121,4125.641113,4077.948730,4168.717773,0.000000,4.000000,95.000000,,,,0.000000,4.000000,4.000000,4.000000,4.000000,4.000000,100.000000,,,,,,,,,,,,,,,,,,,,,,,,,,,,,,,,,,,,,,,,,,,,,,,,,,,,,,,,,,,,,,,
1656265769.083140,56.000000,0.000000,4213.846191,4232.307617,4118.461426,4062.564209,4182.051270,0.000000,4.000000,95.000000,,,,0.000000,4.000000,4.000000,4.000000,4.000000,4.000000,100.000000,,,,,,,,,,,,,,,,,,,,,,,,,,,,,,,,,,,,,,,134.406433,4.896241,1.846095,13.226912,6.958742,4.634806,2.182939,4.266045,6.229231,4.992200,11.560112,3.075011,1.736302,3.509660,2.280765,10.009748,7.201698,2.907687,2.896955,2.712303,73.657928,7.131061,2.891050,6.207909,4.301993
1656265769.091054,57.000000,0.000000,4285.128418,4264.615234,4132.820313,4096.410156,4225.641113,0.000000,4.000000,95.000000,,,,0.000000,4.000000,4.000000,4.000000,4.000000,4.000000,100.000000,,,,,,,,,,,,,,,,,,,,,,,,,,,,,,,,,,,,,,,,,,,,,,,,,,,,,,,,,,,,,,,
1656265769.098868,58.000000,0.000000,4306.153809,4252.307617,4135.384766,4125.641113,4220.000000,0.000000,4.000000,95.000000,,,,0.000000,4.000000,4.000000,4.000000,4.000000,4.000000,100.000000,,,,,,,,,,,,,,,,,,,,,,,,,,,,,,,,,,,,,,,,,,,,,,,,,,,,,,,,,,,,,,,
1656265769.106783,59.000000,0.000000,4249.230957,4257.948730,4105.128418,4104.615234,4191.794922,0.000000,4.000000,95.000000,,,,0.000000,4.000000,4.000000,4.000000,4.000000,4.000000,100.000000,,,,,,,,,,,,,,,,,,,,,,,,,,,,,,,,,,,,,,,,,,,,,,,,,,,,,,,,,,,,,,,
1656265769.114597,60.000000,0.000000,4222.563965,4281.025879,4074.358887,4077.948730,4196.922852,0.000000,4.000000,95.000000,,,,0.000000,4.000000,4.000000,4.000000,4.000000,4.000000,100.000000,,,,,,,,,,,,,,,,,,,,,,,,,,,,,,,,,,,,,,,,,,,,,,,,,,,,,,,,,,,,,,,
1656265769.122412,61.000000,0.000000,4252.820313,4275.384766,4095.897461,4090.769287,4222.563965,0.000000,4.000000,95.000000,,,,0.000000,4.000000,4.000000,4.000000,4.000000,4.000000,100.000000,,,,,,,,,,,,,,,,,,,,,,,,,,,,,,,,,,,,,,,,,,,,,,,,,,,,,,,,,,,,,,,
1656265769.130126,62.000000,0.000000,4269.743652,4271.282227,4120.000000,4104.102539,4242.563965,0.000000,4.000000,95.000000,,,,0.000000,4.000000,4.000000,4.000000,4.000000,4.000000,100.000000,,,,,,,,,,,,,,,,,,,,,,,,,,,,,,,,,,,,,,,,,,,,,,,,,,,,,,,,,,,,,,,
1656265769.138040,63.000000,0.000000,4255.384766,4271.794922,4106.666504,4082.051270,4233.846191,0.000000,4.000000,95.000000,,,,0.000000,4.000000,4.000000,4.000000,4.000000,4.000000,100.000000,,,,,,,,,,,,,,,,,,,,,,,,,,,,,,,,,,,,,,,,,,,,,,,,,,,,,,,,,,,,,,,
1656265769.145855,64.000000,0.000000,4263.589844,4272.820313,4101.025879,4079.487061,4217.948730,450.000000,4.000000,95.000000,,,,0.000000,4.000000,4.000000,4.000000,4.000000,4.000000,100.000000,,,,,,,,,,,,,,,,,,,,,,,,,,,,,,,,,,,,,,,,,,,,,,,,,,,,,,,,,,,,,,,
1656265769.153769,65.000000,0.000000,4285.641113,4285.641113,4106.666504,4106.153809,4219.487305,450.000000,4.000000,95.000000,,,,0.000000,4.000000,4.000000,4.000000,4.000000,4.000000,100.000000,,,,,,,,,,,,,,,,,,,,,,,,,,,,,,,,,,,,,,,,,,,,,,,,,,,,,,,,,,,,,,,
1656265769.161583,66.000000,0.000000,4265.641113,4274.358887,4103.589844,4112.307617,4219.487305,16133.000000,4.000000,95.000000,,,,0.000000,4.000000,4.000000,4.000000,4.000000,4.000000,100.000000,,,,,,,,,,,,,,,,,,,,,,,,,,,,,,,,,,,,,,,,,,,,,,,,,,,,,,,,,,,,,,,
1656265769.169398,67.000000,0.000000,4216.922852,4249.743652,4105.641113,4075.384521,4193.846191,450.000000,4.000000,95.000000,,,,0.000000,4.000000,4.000000,4.000000,4.000000,4.000000,100.000000,,,,,,,,,,,,,,,,,,,,,,,,,,,,,,,,,,,,,,,,,,,,,,,,,,,,,,,,,,,,,,,
1656265769.177112,68.000000,0.000000,4205.641113,4235.384766,4102.563965,4047.179443,4174.358887,16148.000000,4.000000,95.000000,,,,0.000000,4.000000,4.000000,4.000000,4.000000,4.000000,100.000000,,,,,,,,,,,,,,,,,,,,,,,,,,,,,,,,,,,,,,,,,,,,,,,,,,,,,,,,,,,,,,,
1656265769.185027,69.000000,0.000000,4235.897461,4254.358887,4084.615479,4072.820557,4206.666504,450.000000,4.000000,95.000000,,,,0.000000,4.000000,4.000000,4.000000,4.000000,4.000000,100.000000,,,,,,,,,,,,,,,,,,,,,,,,,,,,,,,,,,,,,,,,,,,,,,,,,,,,,,,,,,,,,,,
1656265769.192841,70.000000,0.000000,4262.051270,4297.436035,4081.025635,4095.384521,4244.615234,16155.000000,4.000000,95.000000,,,,0.000000,4.000000,4.000000,4.000000,4.000000,4.000000,100.000000,,,,,,,,,,,,,,,,,,,,,,,,,,,,,,,,,,,,,,,,,,,,,,,,,,,,,,,,,,,,,,,
1656265769.200755,71.000000,0.000000,4265.641113,4295.384766,4092.307617,4083.589844,4243.589844,450.000000,4.000000,95.000000,,,,0.000000,4.000000,4.000000,4.000000,4.000000,4.000000,100.000000,,,,,,,,,,,,,,,,,,,,,,,,,,,,,,,,,,,,,,,,,,,,,,,,,,,,,,,,,,,,,,,
1656265769.208670,72.000000,0.000000,4232.307617,4246.666504,4088.205078,4059.487061,4211.282227,450.000000,4.000000,95.000000,,,,0.000000,4.000000,4.000000,4.000000,4.000000,4.000000,100.000000,1.000000,75.000000,3.000000,3.000000,4.000000,3.000000,3.000000,,,,,,,,,,,,,,,,,,,,,,,,,,,,,,,,119.972481,4.979952,2.699131,13.086140,6.947044,4.853708,2.046817,4.895638,6.146327,4.437664,13.120486,3.347281,2.460113,3.623830,2.437215,12.496930,7.681789,2.462968,3.239939,2.558549,64.874413,7.599600,3.104098,5.691101,4.039817
1656265769.216484,73.000000,0.000000,4185.128418,4231.282227,4071.281982,4033.846191,4169.743652,16151.000000,4.000000,95.000000,,,,0.000000,4.000000,4.000000,4.000000,4.000000,4.000000,100.000000,,,,,,,,,,,,,,,,,,,,,,,,,,,,,,,,,,,,,,,,,,,,,,,,,,,,,,,,,,,,,,,
1656265769.224398,74.000000,0.000000,4209.230957,4254.871582,4078.461426,4046.153809,4179.487305,450.000000,4.000000,95.000000,,,,0.000000,4.000000,4.000000,4.000000,4.000000,4.000000,100.000000,,,,,,,,,,,,,,,,,,,,,,,,,,,,,,,,,,,,,,,,,,,,,,,,,,,,,,,,,,,,,,,
1656265769.232213,75.000000,0.000000,4284.102539,4257.948730,4093.846191,4093.846191,4234.358887,16129.000000,4.000000,95.000000,,,,0.000000,4.000000,4.000000,4.000000,4.000000,4.000000,100.000000,,,,,,,,,,,,,,,,,,,,,,,,,,,,,,,,,,,,,,,,,,,,,,,,,,,,,,,,,,,,,,,
1656265769.240127,76.000000,0.000000,4290.769043,4264.102539,4089.230713,4106.666504,4245.641113,450.000000,4.000000,95.000000,,,,0.000000,4.000000,4.000000,4.000000,4.000000,4.000000,100.000000,,,,,,,,,,,,,,,,,,,,,,,,,,,,,,,,,,,,,,,,,,,,,,,,,,,,,,,,,,,,,,,
1656265769.247942,77.000000,0.000000,4237.948730,4267.692383,4088.205078,4070.769287,4202.563965,450.000000,4.000000,95.000000,,,,0.000000,4.000000,4.000000,4.000000,4.000000,4.000000,100.000000,,,,,,,,,,,,,,,,,,,,,,,,,,,,,,,,,,,,,,,,,,,,,,,,,,,,,,,,,,,,,,,
1656265769.255756,78.000000,0.000000,4193.846191,4237.948730,4088.205078,4047.179443,4168.205078,450.000000,4.000000,95.000000,,,,0.000000,4.000000,4.000000,4.000000,4.000000,4.000000,100.000000,,,,,,,,,,,,,,,,,,,,,,,,,,,,,,,,,,,,,,,,,,,,,,,,,,,,,,,,,,,,,,,
1656265769.263470,79.000000,0.000000,4198.974121,4234.871582,4090.256348,4073.846191,4175.897461,16129.000000,4.000000,95.000000,,,,0.000000,4.000000,4.000000,4.000000,4.000000,4.000000,100.000000,,,,,,,,,,,,,,,,,,,,,,,,,,,,,,,,,,,,,,,,,,,,,,,,,,,,,,,,,,,,,,,
1656265769.271285,80.000000,0.000000,4255.384766,4252.820313,4095.384521,4110.256348,4211.282227,450.000000,4.000000,95.000000,,,,0.000000,4.000000,4.000000,4.000000,4.000000,4.000000,100.000000,,,,,,,,,,,,,,,,,,,,,,,,,,,,,,,,,,,,,,,,,,,,,,,,,,,,,,,,,,,,,,,
1656265769.278999,81.000000,0.000000,4272.307617,4242.051270,4084.615479,4099.487305,4221.538574,450.000000,4.000000,95.000000,,,,0.000000,4.000000,4.000000,4.000000,4.000000,4.000000,100.000000,,,,,,,,,,,,,,,,,,,,,,,,,,,,,,,,,,,,,,,,,,,,,,,,,,,,,,,,,,,,,,,
1656265769.286914,82.000000,0.000000,4220.000000,4229.743652,4079.487061,4057.948730,4190.256348,450.000000,4.000000,95.000000,,,,0.000000,4.000000,4.000000,4.000000,4.000000,4.000000,100.000000,,,,,,,,,,,,,,,,,,,,,,,,,,,,,,,,,,,,,,,,,,,,,,,,,,,,,,,,,,,,,,,
1656265769.294728,83.000000,0.000000,4186.153809,4234.358887,4092.307617,4022.564209,4158.974121,16129.000000,4.000000,95.000000,,,,0.000000,4.000000,4.000000,4.000000,4.000000,4.000000,100.000000,,,,,,,,,,,,,,,,,,,,,,,,,,,,,,,,,,,,,,,,,,,,,,,,,,,,,,,,,,,,,,,
1656265769.302542,84.000000,0.000000,4222.563965,4246.666504,4110.769043,4028.205078,4164.102539,450.000000,4.000000,95.000000,,,,0.000000,4.000000,4.000000,4.000000,4.000000,4.000000,100.000000,,,,,,,,,,,,,,,,,,,,,,,,,,,,,,,,,,,,,,,,,,,,,,,,,,,,,,,,,,,,,,,
1656265769.310257,85.000000,0.000000,4247.692383,4245.641113,4102.563965,4062.564209,4186.153809,450.000000,4.000000,95.000000,,,,0.000000,4.000000,4.000000,4.000000,4.000000,4.000000,100.000000,,,,,,,,,,,,,,,,,,,,,,,,,,,,,,,,,,,,,,,,,,,,,,,,,,,,,,,,,,,,,,,
1656265769.318171,86.000000,0.000000,4220.512695,4243.589844,4092.820557,4066.153809,4186.666504,450.000000,4.000000,95.000000,,,,0.000000,4.000000,4.000000,4.000000,4.000000,4.000000,100.000000,,,,,,,,,,,,,,,,,,,,,,,,,,,,,,,,,,,,,,,,,,,,,,,,,,,,,,,,,,,,,,,
1656265769.325986,87.000000,0.000000,4245.641113,4264.615234,4118.974121,4076.923096,4185.641113,16129.000000,4.000000,95.000000,,,,0.000000,4.000000,4.000000,4.000000,4.000000,4.000000,100.000000,,,,,,,,,,,,,,,,,,,,,,,,,,,,,,,,,,,,,,,,,,,,,,,,,,,,,,,,,,,,,,,
1656265769.333900,88.000000,0.000000,4302.051270,4263.589844,4126.153809,4109.743652,4205.641113,450.000000,4.000000,95.000000,,,,0.000000,4.000000,4.000000,4.000000,4.000000,4.000000,100.000000,,,,,,,,,,,,,,,,,,,,,,,,,,,,,,,,,,,,,,,92.324776,4.836894,3.780369,12.571802,6.819797,4.557237,2.141483,5.411872,6.323624,4.043360,13.537848,3.667152,3.494586,3.737820,2.599987,14.314366,7.487538,1.980621,3.600448,2.446764,48.828362,7.593617,3.162624,5.106483,3.908941
1656265769.341714,89.000000,0.000000,4279.487305,4236.410156,4094.358887,4104.102539,4229.230957,450.000000,4.000000,95.000000,,,,0.000000,4.000000,4.000000,4.000000,4.000000,4.000000,100.000000,,,,,,,,,,,,,,,,,,,,,,,,,,,,,,,,,,,,,,,,,,,,,,,,,,,,,,,,,,,,,,,
1656265769.349629,90.000000,0.000000,4212.307617,4231.794922,4063.589844,4070.256348,4213.846191,450.000000,4.000000,95.000000,,,,0.000000,4.000000,4.000000,4.000000,4.000000,4.000000,100.000000,,,,,,,,,,,,,,,,,,,,,,,,,,,,,,,,,,,,,,,,,,,,,,,,,,,,,,,,,,,,,,,
1656265769.357443,91.000000,0.000000,4196.922852,4215.384766,4043.076904,4055.897461,4185.128418,16129.000000,4.000000,95.000000,,,,0.000000,4.000000,4.000000,4.000000,4.000000,4.000000,100.000000,,,,,,,,,,,,,,,,,,,,,,,,,,,,,,,,,,,,,,,,,,,,,,,,,,,,,,,,,,,,,,,
1656265769.365357,92.000000,0.000000,4223.589844,4207.692383,4046.153809,4068.718018,4209.743652,450.000000,4.000000,95.000000,,,,0.000000,4.000000,4.000000,4.000000,4.000000,4.000000,100.000000,,,,,,,,,,,,,,,,,,,,,,,,,,,,,,,,,,,,,,,,,,,,,,,,,,,,,,,,,,,,,,,
1656265769.373172,93.000000,0.000000,4231.282227,4251.282227,4074.871826,4065.128174,4241.538574,450.000000,4.000000,95.000000,,,,0.000000,4.000000,4.000000,4.000000,4.000000,4.000000,100.000000,,,,,,,,,,,,,,,,,,,,,,,,,,,,,,,,,,,,,,,,,,,,,,,,,,,,,,,,,,,,,,,
1656265769.381086,94.000000,0.000000,4236.922852,4288.205078,4099.487305,4053.846191,4225.128418,450.000000,4.000000,95.000000,,,,0.000000,4.000000,4.000000,4.000000,4.000000,4.000000,100.000000,,,,,,,,,,,,,,,,,,,,,,,,,,,,,,,,,,,,,,,,,,,,,,,,,,,,,,,,,,,,,,,
1656265769.388901,95.000000,0.000000,4231.794922,4256.922852,4100.512695,4060.000000,4180.512695,16129.000000,4.000000,95.000000,,,,0.000000,4.000000,4.000000,4.000000,4.000000,4.000000,100.000000,,,,,,,,,,,,,,,,,,,,,,,,,,,,,,,,,,,,,,,,,,,,,,,,,,,,,,,,,,,,,,,
1656265769.396615,96.000000,0.000000,4190.256348,4200.512695,4085.641113,4048.205078,4142.051270,450.000000,4.000000,95.000000,,,,0.000000,4.000000,4.000000,4.000000,4.000000,4.000000,100.000000,,,,,,,,,,,,,,,,,,,,,,,,,,,,,,,,,,,,,,,,,,,,,,,,,,,,,,,,,,,,,,,
1656265769.404429,97.000000,0.000000,4197.948730,4217.948730,4079.487061,4047.179443,4169.230957,450.000000,4.000000,95.000000,,,,0.000000,4.000000,4.000000,4.000000,4.000000,4.000000,100.000000,,,,,,,,,,,,,,,,,,,,,,,,,,,,,,,,,,,,,,,,,,,,,,,,,,,,,,,,,,,,,,,
1656265769.412144,98.000000,0.000000,4270.256348,4276.922852,4081.538574,4078.974365,4233.846191,450.000000,4.000000,95.000000,,,,0.000000,4.000000,4.000000,4.000000,4.000000,4.000000,100.000000,,,,,,,,,,,,,,,,,,,,,,,,,,,,,,,,,,,,,,,,,,,,,,,,,,,,,,,,,,,,,,,
1656265769.419958,99.000000,0.000000,4285.128418,4274.358887,4076.923096,4089.743652,4242.563965,16129.000000,4.000000,95.000000,,,,0.000000,4.000000,4.000000,4.000000,4.000000,4.000000,100.000000,,,,,,,,,,,,,,,,,,,,,,,,,,,,,,,,,,,,,,,,,,,,,,,,,,,,,,,,,,,,,,,
1656265769.427673,100.000000,0.000000,4231.794922,4223.589844,4080.000000,4077.435791,4196.922852,450.000000,4.000000,95.000000,,,,0.000000,4.000000,4.000000,4.000000,4.000000,4.000000,100.000000,,,,,,,,,,,,,,,,,,,,,,,,,,,,,,,,,,,,,,,,,,,,,,,,,,,,,,,,,,,,,,,
1656265769.435487,101.000000,0.000000,4200.512695,4204.615234,4073.846191,4079.487061,4171.794922,450.000000,4.000000,95.000000,,,,0.000000,4.000000,4.000000,4.000000,4.000000,4.000000,100.000000,,,,,,,,,,,,,,,,,,,,,,,,,,,,,,,,,,,,,,,,,,,,,,,,,,,,,,,,,,,,,,,
1656265769.443202,102.000000,0.000000,4219.487305,4226.666504,4065.641113,4076.923096,4192.820313,450.000000,4.000000,95.000000,,,,0.000000,4.000000,4.000000,4.000000,4.000000,4.000000,100.000000,,,,,,,,,,,,,,,,,,,,,,,,,,,,,,,,,,,,,,,,,,,,,,,,,,,,,,,,,,,,,,,
1656265769.451116,103.000000,0.000000,4231.282227,4225.128418,4093.846191,4061.538574,4203.589844,16129.000000,4.000000,95.000000,,,,0.000000,4.000000,4.000000,4.000000,4.000000,4.000000,100.000000,,,,,,,,,,,,,,,,,,,,,,,,,,,,,,,,,,,,,,,,,,,,,,,,,,,,,,,,,,,,,,,
1656265769.458931,104.000000,0.000000,4222.051270,4222.051270,4113.846191,4067.179443,4200.000000,450.000000,4.000000,95.000000,,,,0.000000,4.000000,4.000000,4.000000,4.000000,4.000000,100.000000,,,,,,,,,,,,,,,,,,,,,,,,,,,,,,,,,,,,,,,60.679871,4.566771,4.885170,11.777986,6.640767,3.929794,2.463040,5.661128,6.665140,3.880063,12.757442,4.128285,4.695808,3.748881,2.699590,15.165349,6.773980,1.551445,3.909867,2.456999,30.862043,7.176435,3.044008,4.516465,3.999572
1656265769.466745,105.000000,0.000000,4242.051270,4250.769043,4099.487305,4070.769287,4215.897461,450.000000,4.000000,95.000000,,,,0.000000,4.000000,4.000000,4.000000,4.000000,4.000000,100.000000,,,,,,,,,,,,,,,,,,,,,,,,,,,,,,,,,,,,,,,,,,,,,,,,,,,,,,,,,,,,,,,
1656265769.474459,106.000000,0.000000,4253.846191,4255.897461,4088.205078,4050.769287,4215.897461,450.000000,4.000000,95.000000,,,,0.000000,4.000000,4.000000,4.000000,4.000000,4.000000,100.000000,,,,,,,,,,,,,,,,,,,,,,,,,,,,,,,,,,,,,,,,,,,,,,,,,,,,,,,,,,,,,,,
1656265769.482374,107.000000,0.000000,4245.128418,4254.358887,4111.282227,4063.076904,4191.794922,16129.000000,4.000000,95.000000,,,,0.000000,4.000000,4.000000,4.000000,4.000000,4.000000,100.000000,,,,,,,,,,,,,,,,,,,,,,,,,,,,,,,,,,,,,,,,,,,,,,,,,,,,,,,,,,,,,,,
1656265769.490188,108.000000,0.000000,4244.102539,4261.538574,4122.563965,4084.615479,4186.153809,450.000000,4.000000,95.000000,,,,0.000000,4.000000,4.000000,4.000000,4.000000,4.000000,100.000000,,,,,,,,,,,,,,,,,,,,,,,,,,,,,,,,,,,,,,,,,,,,,,,,,,,,,,,,,,,,,,,
1656265769.498003,109.000000,0.000000,4240.000000,4238.461426,4093.846191,4074.358887,4203.077148,450.000000,4.000000,95.000000,,,,0.000000,4.000000,4.000000,4.000000,4.000000,4.000000,100.000000,,,,,,,,,,,,,,,,,,,,,,,,,,,,,,,,,,,,,,,,,,,,,,,,,,,,,,,,,,,,,,,
1656265769.505717,110.000000,0.000000,4236.410156,4240.000000,4102.563965,4075.897461,4218.974121,450.000000,4.000000,95.000000,,,,0.000000,4.000000,4.000000,4.000000,4.000000,4.000000,100.000000,,,,,,,,,,,,,,,,,,,,,,,,,,,,,,,,,,,,,,,,,,,,,,,,,,,,,,,,,,,,,,,
1656265769.513531,111.000000,0.000000,4248.205078,4288.205078,4135.384766,4081.538574,4223.077148,16129.000000,4.000000,95.000000,,,,0.000000,4.000000,4.000000,4.000000,4.000000,4.000000,100.000000,,,,,,,,,,,,,,,,,,,,,,,,,,,,,,,,,,,,,,,,,,,,,,,,,,,,,,,,,,,,,,,
1656265769.521246,112.000000,0.000000,4268.717773,4284.102539,4120.000000,4070.769287,4232.307617,450.000000,4.000000,95.000000,,,,0.000000,4.000000,4.000000,4.000000,4.000000,4.000000,100.000000,,,,,,,,,,,,,,,,,,,,,,,,,,,,,,,,,,,,,,,,,,,,,,,,,,,,,,,,,,,,,,,
1656265769.529160,113.000000,0.000000,4244.102539,4227.179688,4097.436035,4067.179443,4218.974121,450.000000,4.000000,95.000000,,,,0.000000,4.000000,4.000000,4.000000,4.000000,4.000000,100.000000,,,,,,,,,,,,,,,,,,,,,,,,,,,,,,,,,,,,,,,,,,,,,,,,,,,,,,,,,,,,,,,
1656265769.536975,114.000000,0.000000,4194.871582,4213.333496,4104.102539,4054.358887,4178.974121,450.000000,4.000000,95.000000,,,,0.000000,4.000000,4.000000,4.000000,4.000000,4.000000,100.000000,,,,,,,,,,,,,,,,,,,,,,,,,,,,,,,,,,,,,,,,,,,,,,,,,,,,,,,,,,,,,,,
1656265769.544889,115.000000,0.000000,4235.897461,4249.743652,4102.051270,4051.794922,4212.820313,16129.000000,4.000000,95.000000,,,,0.000000,4.000000,4.000000,4.000000,4.000000,4.000000,100.000000,,,,,,,,,,,,,,,,,,,,,,,,,,,,,,,,,,,,,,,,,,,,,,,,,,,,,,,,,,,,,,,
1656265769.552703,116.000000,0.000000,4325.128418,4275.384766,4092.820557,4094.871826,4281.538574,450.000000,4.000000,95.000000,,,,0.000000,4.000000,4.000000,4.000000,4.000000,4.000000,100.000000,,,,,,,,,,,,,,,,,,,,,,,,,,,,,,,,,,,,,,,,,,,,,,,,,,,,,,,,,,,,,,,
1656265769.560618,117.000000,0.000000,4325.128418,4269.230957,4109.230957,4117.436035,4263.589844,450.000000,4.000000,95.000000,,,,0.000000,4.000000,4.000000,4.000000,4.000000,4.000000,100.000000,,,,,,,,,,,,,,,,,,,,,,,,,,,,,,,,,,,,,,,,,,,,,,,,,,,,,,,,,,,,,,,
1656265769.568432,118.000000,0.000000,4248.205078,4264.615234,4087.692383,4085.128174,4223.077148,450.000000,4.000000,95.000000,,,,0.000000,4.000000,4.000000,4.000000,4.000000,4.000000,100.000000,,,,,,,,,,,,,,,,,,,,,,,,,,,,,,,,,,,,,,,,,,,,,,,,,,,,,,,,,,,,,,,
1656265769.576247,119.000000,0.000000,4215.384766,4260.000000,4049.743652,4059.487061,4214.358887,16129.000000,4.000000,95.000000,,,,0.000000,4.000000,4.000000,4.000000,4.000000,4.000000,100.000000,,,,,,,,,,,,,,,,,,,,,,,,,,,,,,,,,,,,,,,,,,,,,,,,,,,,,,,,,,,,,,,
1656265769.584061,120.000000,0.000000,4260.512695,4261.538574,4088.205078,4079.487061,4220.512695,450.000000,4.000000,95.000000,,,,0.000000,4.000000,4.000000,4.000000,4.000000,4.000000,100.000000,,,,,,,,,,,,,,,,,,,,,,,,,,,,,,,,,,,,,,,33.705185,4.367086,5.755919,11.010739,6.507029,3.283374,2.932992,5.594111,7.024356,3.916230,11.126468,4.820904,5.834349,3.574247,2.674411,14.991620,5.843694,1.304036,4.167554,2.618897,15.963379,6.508370,2.781622,4.049202,4.295438
1656265769.591775,121.000000,0.000000,4288.717773,4291.794922,4118.461426,4108.717773,4252.820313,450.000000,4.000000,95.000000,,,,0.000000,4.000000,4.000000,4.000000,4.000000,4.000000,100.000000,,,,,,,,,,,,,,,,,,,,,,,,,,,,,,,,,,,,,,,,,,,,,,,,,,,,,,,,,,,,,,,
1656265769.599690,122.000000,0.000000,4264.102539,4311.794922,4085.641113,4104.615234,4269.230957,450.000000,4.000000,95.000000,,,,0.000000,4.000000,4.000000,4.000000,4.000000,4.000000,100.000000,,,,,,,,,,,,,,,,,,,,,,,,,,,,,,,,,,,,,,,,,,,,,,,,,,,,,,,,,,,,,,,
1656265769.607504,123.000000,0.000000,4257.948730,4287.179688,4081.025635,4073.333252,4229.230957,16129.000000,4.000000,95.000000,,,,0.000000,4.000000,4.000000,4.000000,4.000000,4.000000,100.000000,,,,,,,,,,,,,,,,,,,,,,,,,,,,,,,,,,,,,,,,,,,,,,,,,,,,,,,,,,,,,,,
1656265769.615319,124.000000,0.000000,4259.487305,4252.820313,4105.128418,4055.384521,4185.128418,450.000000,4.000000,95.000000,,,,0.000000,4.000000,4.000000,4.000000,4.000000,4.000000,100.000000,,,,,,,,,,,,,,,,,,,,,,,,,,,,,,,,,,,,,,,,,,,,,,,,,,,,,,,,,,,,,,,
1656265769.623033,125.000000,0.000000,4255.897461,4261.025879,4113.333496,4090.256348,4201.538574,450.000000,4.000000,95.000000,,,,0.000000,4.000000,4.000000,4.000000,4.000000,4.000000,100.000000,,,,,,,,,,,,,,,,,,,,,,,,,,,,,,,,,,,,,,,,,,,,,,,,,,,,,,,,,,,,,,,
1656265769.630947,126.000000,0.000000,4267.692383,4272.820313,4111.794922,4111.794922,4224.102539,450.000000,4.000000,95.000000,,,,0.000000,4.000000,4.000000,4.000000,4.000000,4.000000,100.000000,,,,,,,,,,,,,,,,,,,,,,,,,,,,,,,,,,,,,,,,,,,,,,,,,,,,,,,,,,,,,,,
1656265769.638762,127.000000,0.000000,4255.897461,4256.922852,4113.846191,4084.102539,4210.256348,243.000000,4.000000,95.000000,,,,0.000000,4.000000,4.000000,4.000000,4.000000,4.000000,100.000000,,,,,,,,,,,,,,,,,,,,,,,,,,,,,,,,,,,,,,,,,,,,,,,,,,,,,,,,,,,,,,,
1656265769.646576,0.000000,0.000000,4255.384766,4265.128418,4112.820313,4087.692383,4223.589844,450.000000,4.000000,95.000000,,,,0.000000,4.000000,4.000000,4.000000,4.000000,4.000000,100.000000,,,,,,,,,,,,,,,,,,,,,,,,,,,,,,,,,,,,,,,,,,,,,,,,,,,,,,,,,,,,,,,
1656265769.654291,1.000000,0.000000,4305.641113,4276.410156,4096.410156,4119.487305,4254.358887,450.000000,4.000000,95.000000,,,,0.000000,4.000000,4.000000,4.000000,4.000000,4.000000,100.000000,,,,,,,,,,,,,,,,,,,,,,,,,,,,,,,,,,,,,,,,,,,,,,,,,,,,,,,,,,,,,,,
1656265769.662205,2.000000,0.000000,4316.922852,4257.436035,4090.769287,4112.820313,4258.461426,16079.000000,4.000000,95.000000,,,,0.000000,4.000000,4.000000,4.000000,4.000000,4.000000,100.000000,,,,,,,,,,,,,,,,,,,,,,,,,,,,,,,,,,,,,,,,,,,,,,,,,,,,,,,,,,,,,,,
1656265769.670019,3.000000,0.000000,4257.436035,4247.692383,4103.077148,4075.897461,4244.102539,450.000000,4.000000,95.000000,,,,0.000000,4.000000,4.000000,4.000000,4.000000,4.000000,100.000000,,,,,,,,,,,,,,,,,,,,,,,,,,,,,,,,,,,,,,,,,,,,,,,,,,,,,,,,,,,,,,,
1656265769.677934,4.000000,0.000000,4218.974121,4257.948730,4085.641113,4048.718018,4227.692383,16144.000000,4.000000,95.000000,,,,0.000000,4.000000,4.000000,4.000000,4.000000,4.000000,100.000000,,,,,,,,,,,,,,,,,,,,,,,,,,,,,,,,,,,,,,,,,,,,,,,,,,,,,,,,,,,,,,,
1656265769.685748,5.000000,0.000000,4254.358887,4254.871582,4073.846191,4062.564209,4233.846191,450.000000,4.000000,95.000000,,,,0.000000,4.000000,4.000000,4.000000,4.000000,4.000000,100.000000,,,,,,,,,,,,,,,,,,,,,,,,,,,,,,,,,,,,,,,,,,,,,,,,,,,,,,,,,,,,,,,
1656265769.693662,6.000000,0.000000,4304.102539,4252.820313,4107.179688,4091.281982,4255.897461,16106.000000,4.000000,95.000000,,,,0.000000,4.000000,4.000000,4.000000,4.000000,4.000000,100.000000,,,,,,,,,,,,,,,,,,,,,,,,,,,,,,,,,,,,,,,,,,,,,,,,,,,,,,,,,,,,,,,
1656265769.701477,7.000000,0.000000,4297.948730,4264.102539,4117.436035,4091.281982,4246.153809,450.000000,4.000000,95.000000,,,,0.000000,4.000000,4.000000,4.000000,4.000000,4.000000,100.000000,,,,,,,,,,,,,,,,,,,,,,,,,,,,,,,,,,,,,,,,,,,,,,,,,,,,,,,,,,,,,,,
1656265769.709391,8.000000,0.000000,4245.128418,4248.205078,4078.974365,4077.948730,4213.846191,450.000000,4.000000,95.000000,,,,0.000000,4.000000,4.000000,4.000000,4.000000,4.000000,100.000000,1.000000,75.000000,3.000000,3.000000,4.000000,3.000000,3.000000,,,,,,,,,,,,,,,,,,,,,,,,,,,,,,,,16.431808,4.332765,6.193391,10.592393,6.492192,2.856322,3.426781,5.278381,7.282923,4.057757,9.222953,5.699202,6.717224,3.221997,2.503545,13.984010,5.062747,1.351740,4.399508,2.884646,6.943955,5.763486,2.469429,3.869688,4.688663
1656265769.717206,9.000000,0.000000,4212.307617,4221.538574,4073.333252,4084.102539,4209.230957,16153.000000,4.000000,95.000000,,,,0.000000,4.000000,4.000000,4.000000,4.000000,4.000000,100.000000,,,,,,,,,,,,,,,,,,,,,,,,,,,,,,,,,,,,,,,,,,,,,,,,,,,,,,,,,,,,,,,
1656265769.725120,10.000000,0.000000,4254.358887,4251.794922,4118.974121,4113.846191,4223.077148,450.000000,4.000000,95.000000,,,,0.000000,4.000000,4.000000,4.000000,4.000000,4.000000,100.000000,,,,,,,,,,,,,,,,,,,,,,,,,,,,,,,,,,,,,,,,,,,,,,,,,,,,,,,,,,,,,,,
1656265769.732934,11.000000,0.000000,4315.384766,4290.769043,4142.051270,4107.179688,4223.077148,16101.000000,4.000000,95.000000,,,,0.000000,4.000000,4.000000,4.000000,4.000000,4.000000,100.000000,,,,,,,,,,,,,,,,,,,,,,,,,,,,,,,,,,,,,,,,,,,,,,,,,,,,,,,,,,,,,,,
1656265769.740849,12.000000,0.000000,4310.256348,4275.384766,4130.769043,4084.615479,4222.051270,450.000000,4.000000,95.000000,,,,0.000000,4.000000,4.000000,4.000000,4.000000,4.000000,100.000000,,,,,,,,,,,,,,,,,,,,,,,,,,,,,,,,,,,,,,,,,,,,,,,,,,,,,,,,,,,,,,,
1656265769.748663,13.000000,0.000000,4257.948730,4257.436035,4101.538574,4110.256348,4225.128418,450.000000,4.000000,95.000000,,,,0.000000,4.000000,4.000000,4.000000,4.000000,4.000000,100.000000,,,,,,,,,,,,,,,,,,,,,,,,,,,,,,,,,,,,,,,,,,,,,,,,,,,,,,,,,,,,,,,
1656265769.756577,14.000000,0.000000,4230.769043,4255.897461,4071.794922,4111.794922,4217.436035,450.000000,4.000000,95.000000,,,,0.000000,4.000000,4.000000,4.000000,4.000000,4.000000,100.000000,,,,,,,,,,,,,,,,,,,,,,,,,,,,,,,,,,,,,,,,,,,,,,,,,,,,,,,,,,,,,,,
1656265769.764392,15.000000,0.000000,4254.871582,4256.410156,4080.000000,4070.769287,4231.282227,16101.000000,4.000000,95.000000,,,,0.000000,4.000000,4.000000,4.000000,4.000000,4.000000,100.000000,,,,,,,,,,,,,,,,,,,,,,,,,,,,,,,,,,,,,,,,,,,,,,,,,,,,,,,,,,,,,,,
1656265769.772106,16.000000,0.000000,4287.692383,4255.897461,4093.846191,4076.410156,4268.717773,0.000000,4.000000,95.000000,,,,0.000000,4.000000,4.000000,4.000000,4.000000,4.000000,100.000000,,,,,,,,,,,,,,,,,,,,,,,,,,,,,,,,,,,,,,,,,,,,,,,,,,,,,,,,,,,,,,,
1656265769.779921,17.000000,0.000000,4293.846191,4248.205078,4093.333252,4109.743652,4262.563965,0.000000,4.000000,95.000000,,,,0.000000,4.000000,4.000000,4.000000,4.000000,4.000000,100.000000,,,,,,,,,,,,,,,,,,,,,,,,,,,,,,,,,,,,,,,,,,,,,,,,,,,,,,,,,,,,,,,
1656265769.787635,18.000000,0.000000,4263.589844,4245.641113,4104.615234,4089.230713,4210.769043,0.000000,4.000000,95.000000,,,,0.000000,4.000000,4.000000,4.000000,4.000000,4.000000,100.000000,,,,,,,,,,,,,,,,,,,,,,,,,,,,,,,,,,,,,,,,,,,,,,,,,,,,,,,,,,,,,,,
1656265769.795450,19.000000,0.000000,4231.794922,4242.051270,4098.461426,4042.564209,4181.538574,0.000000,4.000000,95.000000,,,,0.000000,4.000000,4.000000,4.000000,4.000000,4.000000,100.000000,,,,,,,,,,,,,,,,,,,,,,,,,,,,,,,,,,,,,,,,,,,,,,,,,,,,,,,,,,,,,,,
1656265769.803164,20.000000,0.000000,4234.871582,4230.769043,4073.846191,4044.102539,4200.000000,0.000000,4.000000,95.000000,,,,0.000000,4.000000,4.000000,4.000000,4.000000,4.000000,100.000000,,,,,,,,,,,,,,,,,,,,,,,,,,,,,,,,,,,,,,,,,,,,,,,,,,,,,,,,,,,,,,,
1656265769.811078,21.000000,0.000000,4219.487305,4224.102539,4067.692383,4069.743652,4209.230957,0.000000,4.000000,95.000000,,,,0.000000,4.000000,4.000000,4.000000,4.000000,4.000000,100.000000,,,,,,,,,,,,,,,,,,,,,,,,,,,,,,,,,,,,,,,,,,,,,,,,,,,,,,,,,,,,,,,
1656265769.818893,22.000000,0.000000,4179.487305,4211.282227,4070.256348,4065.128174,4179.487305,0.000000,4.000000,95.000000,,,,0.000000,4.000000,4.000000,4.000000,4.000000,4.000000,100.000000,,,,,,,,,,,,,,,,,,,,,,,,,,,,,,,,,,,,,,,,,,,,,,,,,,,,,,,,,,,,,,,
1656265769.826707,23.000000,0.000000,4210.256348,4220.512695,4072.820557,4044.102539,4185.128418,0.000000,4.000000,95.000000,,,,0.000000,4.000000,4.000000,4.000000,4.000000,4.000000,100.000000,,,,,,,,,,,,,,,,,,,,,,,,,,,,,,,,,,,,,,,,,,,,,,,,,,,,,,,,,,,,,,,
1656265769.834422,24.000000,0.000000,4284.102539,4265.641113,4077.948730,4056.923096,4239.487305,0.000000,4.000000,95.000000,,,,0.000000,4.000000,4.000000,4.000000,4.000000,4.000000,100.000000,,,,,,,,,,,,,,,,,,,,,,,,,,,,,,,,,,,,,,,8.388689,4.424426,6.163624,10.670327,6.618846,2.677085,3.841400,4.832425,7.390802,4.198721,7.593237,6.559858,7.229627,2.789706,2.227936,12.441014,4.661086,1.756787,4.615379,3.157111,3.338916,5.047396,2.214625,4.121729,5.042548
1656265769.842336,25.000000,0.000000,4292.820313,4282.051270,4086.666748,4085.641113,4242.051270,0.000000,4.000000,95.000000,,,,0.000000,4.000000,4.000000,4.000000,4.000000,4.000000,100.000000,,,,,,,,,,,,,,,,,,,,,,,,,,,,,,,,,,,,,,,,,,,,,,,,,,,,,,,,,,,,,,,
1656265769.850150,26.000000,0.000000,4236.410156,4233.846191,4081.538574,4061.538574,4181.538574,0.000000,4.000000,95.000000,,,,0.000000,4.000000,4.000000,4.000000,4.000000,4.000000,100.000000,,,,,,,,,,,,,,,,,,,,,,,,,,,,,,,,,,,,,,,,,,,,,,,,,,,,,,,,,,,,,,,
1656265769.858065,27.000000,0.000000,4195.384766,4184.102539,4049.230713,4022.051270,4161.025879,0.000000,4.000000,95.000000,,,,0.000000,4.000000,4.000000,4.000000,4.000000,4.000000,100.000000,,,,,,,,,,,,,,,,,,,,,,,,,,,,,,,,,,,,,,,,,,,,,,,,,,,,,,,,,,,,,,,
1656265769.865879,28.000000,0.000000,4215.384766,4207.692383,4047.179443,4041.538574,4195.897461,0.000000,4.000000,95.000000,,,,0.000000,4.000000,4.000000,4.000000,4.000000,4.000000,100.000000,,,,,,,,,,,,,,,,,,,,,,,,,,,,,,,,,,,,,,,,,,,,,,,,,,,,,,,,,,,,,,,
1656265769.873793,29.000000,0.000000,4235.384766,4250.256348,4080.512939,4066.153809,4198.974121,0.000000,4.000000,95.000000,,,,0.000000,4.000000,4.000000,4.000000,4.000000,4.000000,100.000000,,,,,,,,,,,,,,,,,,,,,,,,,,,,,,,,,,,,,,,,,,,,,,,,,,,,,,,,,,,,,,,
1656265769.881608,30.000000,0.000000,4224.102539,4245.128418,4086.666748,4052.820557,4178.974121,0.000000,4.000000,95.000000,,,,0.000000,4.000000,4.000000,4.000000,4.000000,4.000000,100.000000,,,,,,,,,,,,,,,,,,,,,,,,,,,,,,,,,,,,,,,,,,,,,,,,,,,,,,,,,,,,,,,
1656265769.889522,31.000000,0.000000,4226.666504,4220.000000,4059.487061,4036.410156,4185.641113,0.000000,4.000000,95.000000,,,,0.000000,4.000000,4.000000,4.000000,4.000000,4.000000,100.000000,,,,,,,,,,,,,,,,,,,,,,,,,,,,,,,,,,,,,,,,,,,,,,,,,,,,,,,,,,,,,,,
1656265769.897337,32.000000,0.000000,4219.487305,4197.436035,4045.128174,4026.666748,4174.871582,0.000000,4.000000,95.000000,,,,0.000000,4.000000,4.000000,4.000000,4.000000,4.000000,100.000000,,,,,,,,,,,,,,,,,,,,,,,,,,,,,,,,,,,,,,,,,,,,,,,,,,,,,,,,,,,,,,,
1656265769.905251,33.000000,0.000000,4200.512695,4205.641113,4053.333252,4033.333252,4164.102539,0.000000,4.000000,95.000000,,,,0.000000,4.000000,4.000000,4.000000,4.000000,4.000000,100.000000,,,,,,,,,,,,,,,,,,,,,,,,,,,,,,,,,,,,,,,,,,,,,,,,,,,,,,,,,,,,,,,
1656265769.913065,34.000000,0.000000,4220.512695,4236.410156,4052.307617,4061.025635,4200.512695,0.000000,4.000000,95.000000,,,,0.000000,4.000000,4.000000,4.000000,4.000000,4.000000,100.000000,,,,,,,,,,,,,,,,,,,,,,,,,,,,,,,,,,,,,,,,,,,,,,,,,,,,,,,,,,,,,,,
1656265769.920980,35.000000,0.000000,4241.538574,4235.384766,4049.230713,4068.718018,4218.461426,0.000000,4.000000,95.000000,,,,0.000000,4.000000,4.000000,4.000000,4.000000,4.000000,100.000000,,,,,,,,,,,,,,,,,,,,,,,,,,,,,,,,,,,,,,,,,,,,,,,,,,,,,,,,,,,,,,,
1656265769.928794,36.000000,0.000000,4210.769043,4214.358887,4043.589844,4027.179443,4176.922852,0.000000,4.000000,95.000000,,,,0.000000,4.000000,4.000000,4.000000,4.000000,4.000000,100.000000,,,,,,,,,,,,,,,,,,,,,,,,,,,,,,,,,,,,,,,,,,,,,,,,,,,,,,,,,,,,,,,
1656265769.936708,37.000000,0.000000,4169.230957,4196.410156,4012.820557,3978.974365,4139.487305,0.000000,4.000000,95.000000,,,,0.000000,4.000000,4.000000,4.000000,4.000000,4.000000,100.000000,,,,,,,,,,,,,,,,,,,,,,,,,,,,,,,,,,,,,,,,,,,,,,,,,,,,,,,,,,,,,,,
1656265769.944523,38.000000,0.000000,4175.897461,4184.102539,4006.153809,3995.897461,4158.461426,0.000000,4.000000,95.000000,,,,0.000000,4.000000,4.000000,4.000000,4.000000,4.000000,100.000000,,,,,,,,,,,,,,,,,,,,,,,,,,,,,,,,,,,,,,,,,,,,,,,,,,,,,,,,,,,,,,,
1656265769.952237,39.000000,0.000000,4190.769043,4188.717773,4042.051270,4037.435791,4180.000000,0.000000,4.000000,95.000000,,,,0.000000,4.000000,4.000000,4.000000,4.000000,4.000000,100.000000,,,,,,,,,,,,,,,,,,,,,,,,,,,,,,,,,,,,,,,,,,,,,,,,,,,,,,,,,,,,,,,
1656265769.960052,40.000000,0.000000,4175.897461,4205.128418,4060.000000,4029.743652,4158.974121,0.000000,4.000000,95.000000,,,,0.000000,4.000000,4.000000,4.000000,4.000000,4.000000,100.000000,,,,,,,,,,,,,,,,,,,,,,,,,,,,,,,,,,,,,,,5.702811,4.552043,5.793371,11.173735,6.880278,2.657139,4.135504,4.346488,7.338912,4.253814,6.556146,7.149680,7.342747,2.399184,1.942516,10.636260,4.618226,2.494537,4.780500,3.355412,2.735325,4.461036,2.091404,4.849722,5.251871
1656265769.967766,41.000000,0.000000,4191.282227,4214.871582,4049.743652,4030.769287,4148.205078,0.000000,4.000000,95.000000,,,,0.000000,4.000000,4.000000,4.000000,4.000000,4.000000,100.000000,,,,,,,,,,,,,,,,,,,,,,,,,,,,,,,,,,,,,,,,,,,,,,,,,,,,,,,,,,,,,,,
1656265769.975581,42.000000,0.000000,4216.410156,4213.333496,4041.538574,4055.897461,4160.000000,0.000000,4.000000,95.000000,,,,0.000000,4.000000,4.000000,4.000000,4.000000,4.000000,100.000000,,,,,,,,,,,,,,,,,,,,,,,,,,,,,,,,,,,,,,,,,,,,,,,,,,,,,,,,,,,,,,,
1656265769.983295,43.000000,0.000000,4212.307617,4222.051270,4047.179443,4062.564209,4165.641113,0.000000,4.000000,95.000000,,,,0.000000,4.000000,4.000000,4.000000,4.000000,4.000000,100.000000,,,,,,,,,,,,,,,,,,,,,,,,,,,,,,,,,,,,,,,,,,,,,,,,,,,,,,,,,,,,,,,
1656265769.991109,44.000000,0.000000,4197.948730,4205.128418,4063.589844,4051.281982,4152.820313,0.000000,4.000000,95.000000,,,,0.000000,4.000000,4.000000,4.000000,4.000000,4.000000,100.000000,,,,,,,,,,,,,,,,,,,,,,,,,,,,,,,,,,,,,,,,,,,,,,,,,,,,,,,,,,,,,,,
1656265769.998824,45.000000,0.000000,4172.820313,4173.846191,4065.128174,4017.948730,4137.436035,0.000000,4.000000,95.000000,,,,0.000000,4.000000,4.000000,4.000000,4.000000,4.000000,100.000000,,,,,,,,,,,,,,,,,,,,,,,,,,,,,,,,,,,,,,,,,,,,,,,,,,,,,,,,,,,,,,,
1656265770.006638,46.000000,0.000000,4182.051270,4185.641113,4036.923096,4008.718018,4161.538574,0.000000,4.000000,95.000000,,,,0.000000,4.000000,4.000000,4.000000,4.000000,4.000000,100.000000,,,,,,,,,,,,,,,,,,,,,,,,,,,,,,,,,,,,,,,,,,,,,,,,,,,,,,,,,,,,,,,
1656265770.014353,47.000000,0.000000,4228.717773,4196.922852,4013.846191,4047.692383,4195.384766,0.000000,4.000000,95.000000,,,,0.000000,4.000000,4.000000,4.000000,4.000000,4.000000,100.000000,,,,,,,,,,,,,,,,,,,,,,,,,,,,,,,,,,,,,,,,,,,,,,,,,,,,,,,,,,,,,,,
1656265770.022267,48.000000,0.000000,4234.871582,4190.256348,4026.666748,4056.410156,4185.641113,0.000000,4.000000,95.000000,,,,0.000000,4.000000,4.000000,4.000000,4.000000,4.000000,100.000000,,,,,,,,,,,,,,,,,,,,,,,,,,,,,,,,,,,,,,,,,,,,,,,,,,,,,,,,,,,,,,,
1656265770.030082,49.000000,0.000000,4183.589844,4192.307617,4024.615479,4016.410156,4161.025879,0.000000,4.000000,95.000000,,,,0.000000,4.000000,4.000000,4.000000,4.000000,4.000000,100.000000,,,,,,,,,,,,,,,,,,,,,,,,,,,,,,,,,,,,,,,,,,,,,,,,,,,,,,,,,,,,,,,
1656265770.037996,50.000000,0.000000,4158.974121,4192.820313,4010.256348,4013.333252,4153.333496,0.000000,4.000000,95.000000,,,,0.000000,4.000000,4.000000,4.000000,4.000000,4.000000,100.000000,,,,,,,,,,,,,,,,,,,,,,,,,,,,,,,,,,,,,,,,,,,,,,,,,,,,,,,,,,,,,,,
1656265770.045810,51.000000,0.000000,4205.641113,4215.384766,4040.000000,4050.769287,4178.974121,0.000000,4.000000,95.000000,,,,0.000000,4.000000,4.000000,4.000000,4.000000,4.000000,100.000000,,,,,,,,,,,,,,,,,,,,,,,,,,,,,,,,,,,,,,,,,,,,,,,,,,,,,,,,,,,,,,,
1656265770.053725,52.000000,0.000000,4255.384766,4260.512695,4070.256348,4056.410156,4207.179688,0.000000,4.000000,95.000000,,,,0.000000,4.000000,4.000000,4.000000,4.000000,4.000000,100.000000,,,,,,,,,,,,,,,,,,,,,,,,,,,,,,,,,,,,,,,,,,,,,,,,,,,,,,,,,,,,,,,
1656265770.061539,53.000000,0.000000,4241.025879,4261.538574,4051.794922,4032.307617,4196.922852,0.000000,4.000000,95.000000,,,,0.000000,4.000000,4.000000,4.000000,4.000000,4.000000,100.000000,,,,,,,,,,,,,,,,,,,,,,,,,,,,,,,,,,,,,,,,,,,,,,,,,,,,,,,,,,,,,,,
1656265770.069453,54.000000,0.000000,4188.717773,4217.436035,4022.051270,4024.615479,4165.641113,0.000000,4.000000,95.000000,,,,0.000000,4.000000,4.000000,4.000000,4.000000,4.000000,100.000000,,,,,,,,,,,,,,,,,,,,,,,,,,,,,,,,,,,,,,,,,,,,,,,,,,,,,,,,,,,,,,,
1656265770.077268,55.000000,0.000000,4180.000000,4185.128418,4009.230713,4028.205078,4151.794922,0.000000,4.000000,95.000000,,,,0.000000,4.000000,4.000000,4.000000,4.000000,4.000000,100.000000,,,,,,,,,,,,,,,,,,,,,,,,,,,,,,,,,,,,,,,,,,,,,,,,,,,,,,,,,,,,,,,
1656265770.085182,56.000000,0.000000,4222.051270,4195.897461,4024.615479,4035.897461,4190.256348,0.000000,4.000000,95.000000,,,,0.000000,4.000000,4.000000,4.000000,4.000000,4.000000,100.000000,,,,,,,,,,,,,,,,,,,,,,,,,,,,,,,,,,,,,,,4.642113,4.664851,5.304688,11.885592,7.250119,2.645908,4.320018,3.873899,7.136069,4.188202,6.088583,7.271340,7.098182,2.153287,1.747832,8.765910,4.709289,3.465265,4.826175,3.454792,2.810872,4.094036,2.131981,5.918721,5.275205
1656265770.092996,57.000000,0.000000,4253.333496,4229.230957,4041.538574,4049.230713,4234.358887,0.000000,4.000000,95.000000,,,,0.000000,4.000000,4.000000,4.000000,4.000000,4.000000,100.000000,,,,,,,,,,,,,,,,,,,,,,,,,,,,,,,,,,,,,,,,,,,,,,,,,,,,,,,,,,,,,,,
1656265770.100911,58.000000,0.000000,4254.871582,4240.512695,4041.538574,4061.538574,4227.692383,0.000000,4.000000,95.000000,,,,0.000000,4.000000,4.000000,4.000000,4.000000,4.000000,100.000000,,,,,,,,,,,,,,,,,,,,,,,,,,,,,,,,,,,,,,,,,,,,,,,,,,,,,,,,,,,,,,,
1656265770.108725,59.000000,0.000000,4232.820313,4223.077148,4062.564209,4056.410156,4180.512695,0.000000,4.000000,95.000000,,,,0.000000,4.000000,4.000000,4.000000,4.000000,4.000000,100.000000,,,,,,,,,,,,,,,,,,,,,,,,,,,,,,,,,,,,,,,,,,,,,,,,,,,,,,,,,,,,,,,
1656265770.116440,60.000000,0.000000,4207.179688,4202.563965,4086.666748,4024.615479,4138.461426,0.000000,4.000000,95.000000,,,,0.000000,4.000000,4.000000,4.000000,4.000000,4.000000,100.000000,,,,,,,,,,,,,,,,,,,,,,,,,,,,,,,,,,,,,,,,,,,,,,,,,,,,,,,,,,,,,,,
1656265770.124254,61.000000,0.000000,4218.974121,4218.974121,4084.102539,4024.102539,4156.922852,0.000000,4.000000,95.000000,,,,0.000000,4.000000,4.000000,4.000000,4.000000,4.000000,100.000000,,,,,,,,,,,,,,,,,,,,,,,,,,,,,,,,,,,,,,,,,,,,,,,,,,,,,,,,,,,,,,,
1656265770.131969,62.000000,0.000000,4241.025879,4246.666504,4069.743652,4067.179443,4201.025879,0.000000,4.000000,95.000000,,,,0.000000,4.000000,4.000000,4.000000,4.000000,4.000000,100.000000,,,,,,,,,,,,,,,,,,,,,,,,,,,,,,,,,,,,,,,,,,,,,,,,,,,,,,,,,,,,,,,
1656265770.139783,63.000000,0.000000,4223.077148,4234.871582,4060.512939,4078.974365,4202.051270,0.000000,4.000000,95.000000,,,,0.000000,4.000000,4.000000,4.000000,4.000000,4.000000,100.000000,,,,,,,,,,,,,,,,,,,,,,,,,,,,,,,,,,,,,,,,,,,,,,,,,,,,,,,,,,,,,,,
1656265770.147497,64.000000,0.000000,4214.358887,4226.153809,4063.589844,4046.153809,4189.743652,450.000000,4.000000,95.000000,,,,0.000000,4.000000,4.000000,4.000000,4.000000,4.000000,100.000000,,,,,,,,,,,,,,,,,,,,,,,,,,,,,,,,,,,,,,,,,,,,,,,,,,,,,,,,,,,,,,,
1656265770.155312,65.000000,0.000000,4238.461426,4252.307617,4057.435791,4024.102539,4207.692383,450.000000,4.000000,95.000000,,,,0.000000,4.000000,4.000000,4.000000,4.000000,4.000000,100.000000,,,,,,,,,,,,,,,,,,,,,,,,,,,,,,,,,,,,,,,,,,,,,,,,,,,,,,,,,,,,,,,
1656265770.163026,66.000000,0.000000,4243.589844,4272.307617,4055.897461,4053.333252,4218.461426,16133.000000,4.000000,95.000000,,,,0.000000,4.000000,4.000000,4.000000,4.000000,4.000000,100.000000,,,,,,,,,,,,,,,,,,,,,,,,,,,,,,,,,,,,,,,,,,,,,,,,,,,,,,,,,,,,,,,
1656265770.170841,67.000000,0.000000,4212.307617,4243.077148,4081.025635,4066.666748,4176.410156,450.000000,4.000000,95.000000,,,,0.000000,4.000000,4.000000,4.000000,4.000000,4.000000,100.000000,,,,,,,,,,,,,,,,,,,,,,,,,,,,,,,,,,,,,,,,,,,,,,,,,,,,,,,,,,,,,,,
1656265770.178555,68.000000,0.000000,4193.846191,4198.461426,4094.871826,4026.153809,4143.077148,16199.000000,4.000000,95.000000,,,,0.000000,4.000000,4.000000,4.000000,4.000000,4.000000,100.000000,,,,,,,,,,,,,,,,,,,,,,,,,,,,,,,,,,,,,,,,,,,,,,,,,,,,,,,,,,,,,,,
1656265770.186470,69.000000,0.000000,4224.102539,4221.025879,4068.718018,4015.384521,4189.230957,450.000000,4.000000,95.000000,,,,0.000000,4.000000,4.000000,4.000000,4.000000,4.000000,100.000000,,,,,,,,,,,,,,,,,,,,,,,,,,,,,,,,,,,,,,,,,,,,,,,,,,,,,,,,,,,,,,,
1656265770.194284,70.000000,0.000000,4258.461426,4263.077148,4043.589844,4039.487061,4247.179688,16167.000000,4.000000,95.000000,,,,0.000000,4.000000,4.000000,4.000000,4.000000,4.000000,100.000000,,,,,,,,,,,,,,,,,,,,,,,,,,,,,,,,,,,,,,,,,,,,,,,,,,,,,,,,,,,,,,,
1656265770.202198,71.000000,0.000000,4267.692383,4244.102539,4063.076904,4056.410156,4235.897461,450.000000,4.000000,95.000000,,,,0.000000,4.000000,4.000000,4.000000,4.000000,4.000000,100.000000,,,,,,,,,,,,,,,,,,,,,,,,,,,,,,,,,,,,,,,,,,,,,,,,,,,,,,,,,,,,,,,
1656265770.210013,72.000000,0.000000,4231.794922,4210.769043,4070.769287,4063.076904,4187.179688,450.000000,4.000000,95.000000,,,,0.000000,4.000000,4.000000,4.000000,4.000000,4.000000,100.000000,1.000000,75.000000,3.000000,4.000000,4.000000,3.000000,3.000000,,,,,,,,,,,,,,,,,,,,,,,,,,,,,,,,3.867056,4.770676,4.927572,12.553187,7.659343,2.579963,4.400975,3.446931,6.827143,4.012152,5.888596,6.897776,6.566042,2.100879,1.697707,6.977567,4.702415,4.450798,4.676540,3.485333,2.861333,4.044727,2.347534,7.021864,5.133340
1656265770.217827,73.000000,0.000000,4176.410156,4202.051270,4044.102539,4040.512939,4168.205078,16173.000000,4.000000,95.000000,,,,0.000000,4.000000,4.000000,4.000000,4.000000,4.000000,100.000000,,,,,,,,,,,,,,,,,,,,,,,,,,,,,,,,,,,,,,,,,,,,,,,,,,,,,,,,,,,,,,,
1656265770.225542,74.000000,0.000000,4200.000000,4222.051270,4042.051270,4036.410156,4203.077148,450.000000,4.000000,95.000000,,,,0.000000,4.000000,4.000000,4.000000,4.000000,4.000000,100.000000,,,,,,,,,,,,,,,,,,,,,,,,,,,,,,,,,,,,,,,,,,,,,,,,,,,,,,,,,,,,,,,
1656265770.233356,75.000000,0.000000,4282.563965,4247.179688,4059.487061,4071.281982,4241.538574,16109.000000,4.000000,95.000000,,,,0.000000,4.000000,4.000000,4.000000,4.000000,4.000000,100.000000,,,,,,,,,,,,,,,,,,,,,,,,,,,,,,,,,,,,,,,,,,,,,,,,,,,,,,,,,,,,,,,
1656265770.241071,76.000000,0.000000,4307.692383,4253.333496,4072.820557,4078.974365,4235.384766,450.000000,4.000000,95.000000,,,,0.000000,4.000000,4.000000,4.000000,4.000000,4.000000,100.000000,,,,,,,,,,,,,,,,,,,,,,,,,,,,,,,,,,,,,,,,,,,,,,,,,,,,,,,,,,,,,,,
1656265770.248985,77.000000,0.000000,4254.871582,4238.461426,4068.718018,4057.948730,4206.153809,450.000000,4.000000,95.000000,,,,0.000000,4.000000,4.000000,4.000000,4.000000,4.000000,100.000000,,,,,,,,,,,,,,,,,,,,,,,,,,,,,,,,,,,,,,,,,,,,,,,,,,,,,,,,,,,,,,,
1656265770.256799,78.000000,0.000000,4191.282227,4226.153809,4048.718018,4050.769287,4185.128418,450.000000,4.000000,95.000000,,,,0.000000,4.000000,4.000000,4.000000,4.000000,4.000000,100.000000,,,,,,,,,,,,,,,,,,,,,,,,,,,,,,,,,,,,,,,,,,,,,,,,,,,,,,,,,,,,,,,
1656265770.264714,79.000000,0.000000,4212.307617,4243.589844,4055.897461,4076.923096,4195.897461,16109.000000,4.000000,95.000000,,,,0.000000,4.000000,4.000000,4.000000,4.000000,4.000000,100.000000,,,,,,,,,,,,,,,,,,,,,,,,,,,,,,,,,,,,,,,,,,,,,,,,,,,,,,,,,,,,,,,
1656265770.272528,80.000000,0.000000,4290.256348,4245.641113,4076.410156,4102.563965,4226.153809,450.000000,4.000000,95.000000,,,,0.000000,4.000000,4.000000,4.000000,4.000000,4.000000,100.000000,,,,,,,,,,,,,,,,,,,,,,,,,,,,,,,,,,,,,,,,,,,,,,,,,,,,,,,,,,,,,,,
1656265770.280442,81.000000,0.000000,4293.846191,4229.230957,4070.256348,4091.281982,4232.307617,450.000000,4.000000,95.000000,,,,0.000000,4.000000,4.000000,4.000000,4.000000,4.000000,100.000000,,,,,,,,,,,,,,,,,,,,,,,,,,,,,,,,,,,,,,,,,,,,,,,,,,,,,,,,,,,,,,,
1656265770.288257,82.000000,0.000000,4243.589844,4229.743652,4061.025635,4062.564209,4214.871582,450.000000,4.000000,95.000000,,,,0.000000,4.000000,4.000000,4.000000,4.000000,4.000000,100.000000,,,,,,,,,,,,,,,,,,,,,,,,,,,,,,,,,,,,,,,,,,,,,,,,,,,,,,,,,,,,,,,
1656265770.296171,83.000000,0.000000,4231.794922,4227.179688,4059.487061,4051.794922,4193.333496,16109.000000,4.000000,95.000000,,,,0.000000,4.000000,4.000000,4.000000,4.000000,4.000000,100.000000,,,,,,,,,,,,,,,,,,,,,,,,,,,,,,,,,,,,,,,,,,,,,,,,,,,,,,,,,,,,,,,
1656265770.304085,84.000000,0.000000,4242.051270,4218.974121,4075.897461,4074.358887,4190.769043,450.000000,4.000000,95.000000,,,,0.000000,4.000000,4.000000,4.000000,4.000000,4.000000,100.000000,,,,,,,,,,,,,,,,,,,,,,,,,,,,,,,,,,,,,,,,,,,,,,,,,,,,,,,,,,,,,,,
1656265770.311900,85.000000,0.000000,4212.307617,4220.000000,4101.025879,4071.281982,4190.769043,450.000000,4.000000,95.000000,,,,0.000000,4.000000,4.000000,4.000000,4.000000,4.000000,100.000000,,,,,,,,,,,,,,,,,,,,,,,,,,,,,,,,,,,,,,,,,,,,,,,,,,,,,,,,,,,,,,,
1656265770.319714,86.000000,0.000000,4177.948730,4223.077148,4097.948730,4041.025635,4172.820313,450.000000,4.000000,95.000000,,,,0.000000,4.000000,4.000000,4.000000,4.000000,4.000000,100.000000,,,,,,,,,,,,,,,,,,,,,,,,,,,,,,,,,,,,,,,,,,,,,,,,,,,,,,,,,,,,,,,
1656265770.327429,87.000000,0.000000,4218.974121,4230.256348,4097.436035,4063.589844,4166.153809,16109.000000,4.000000,95.000000,,,,0.000000,4.000000,4.000000,4.000000,4.000000,4.000000,100.000000,,,,,,,,,,,,,,,,,,,,,,,,,,,,,,,,,,,,,,,,,,,,,,,,,,,,,,,,,,,,,,,
1656265770.335343,88.000000,0.000000,4281.025879,4238.974121,4105.641113,4103.589844,4189.743652,450.000000,4.000000,95.000000,,,,0.000000,4.000000,4.000000,4.000000,4.000000,4.000000,100.000000,,,,,,,,,,,,,,,,,,,,,,,,,,,,,,,,,,,,,,,3.126444,4.754528,4.782165,12.980623,7.996319,2.501993,4.354861,3.119136,6.491900,3.769351,5.661492,6.157657,5.866168,2.226171,1.776473,5.340616,4.494769,5.248337,4.315843,3.507791,2.805976,4.275425,2.705198,7.839130,4.898607
1656265770.343157,89.000000,0.000000,4282.051270,4233.846191,4094.358887,4093.333252,4227.692383,450.000000,4.000000,95.000000,,,,0.000000,4.000000,4.000000,4.000000,4.000000,4.000000,100.000000,,,,,,,,,,,,,,,,,,,,,,,,,,,,,,,,,,,,,,,,,,,,,,,,,,,,,,,,,,,,,,,
1656265770.350972,90.000000,0.000000,4220.000000,4220.000000,4086.153809,4060.512939,4220.000000,450.000000,4.000000,95.000000,,,,0.000000,4.000000,4.000000,4.000000,4.000000,4.000000,100.000000,,,,,,,,,,,,,,,,,,,,,,,,,,,,,,,,,,,,,,,,,,,,,,,,,,,,,,,,,,,,,,,
1656265770.358686,91.000000,0.000000,4171.794922,4217.436035,4085.128174,4050.256348,4176.410156,16109.000000,4.000000,95.000000,,,,0.000000,4.000000,4.000000,4.000000,4.000000,4.000000,100.000000,,,,,,,,,,,,,,,,,,,,,,,,,,,,,,,,,,,,,,,,,,,,,,,,,,,,,,,,,,,,,,,
1656265770.366501,92.000000,0.000000,4221.025879,4244.615234,4086.153809,4059.487061,4184.102539,450.000000,4.000000,95.000000,,,,0.000000,4.000000,4.000000,4.000000,4.000000,4.000000,100.000000,,,,,,,,,,,,,,,,,,,,,,,,,,,,,,,,,,,,,,,,,,,,,,,,,,,,,,,,,,,,,,,
1656265770.374215,93.000000,0.000000,4278.974121,4266.666504,4093.333252,4056.410156,4203.077148,450.000000,4.000000,95.000000,,,,0.000000,4.000000,4.000000,4.000000,4.000000,4.000000,100.000000,,,,,,,,,,,,,,,,,,,,,,,,,,,,,,,,,,,,,,,,,,,,,,,,,,,,,,,,,,,,,,,
1656265770.382030,94.000000,0.000000,4260.512695,4261.025879,4094.358887,4047.179443,4194.358887,450.000000,4.000000,95.000000,,,,0.000000,4.000000,4.000000,4.000000,4.000000,4.000000,100.000000,,,,,,,,,,,,,,,,,,,,,,,,,,,,,,,,,,,,,,,,,,,,,,,,,,,,,,,,,,,,,,,
1656265770.389744,95.000000,0.000000,4220.512695,4239.487305,4070.769287,4058.974365,4199.487305,16109.000000,4.000000,95.000000,,,,0.000000,4.000000,4.000000,4.000000,4.000000,4.000000,100.000000,,,,,,,,,,,,,,,,,,,,,,,,,,,,,,,,,,,,,,,,,,,,,,,,,,,,,,,,,,,,,,,
1656265770.397558,96.000000,0.000000,4206.153809,4202.051270,4072.820557,4075.897461,4185.128418,450.000000,4.000000,95.000000,,,,0.000000,4.000000,4.000000,4.000000,4.000000,4.000000,100.000000,,,,,,,,,,,,,,,,,,,,,,,,,,,,,,,,,,,,,,,,,,,,,,,,,,,,,,,,,,,,,,,
1656265770.405273,97.000000,0.000000,4242.051270,4210.256348,4111.794922,4092.307617,4180.000000,450.000000,4.000000,95.000000,,,,0.000000,4.000000,4.000000,4.000000,4.000000,4.000000,100.000000,,,,,,,,,,,,,,,,,,,,,,,,,,,,,,,,,,,,,,,,,,,,,,,,,,,,,,,,,,,,,,,
1656265770.413087,98.000000,0.000000,4292.820313,4270.256348,4101.538574,4120.000000,4240.000000,450.000000,4.000000,95.000000,,,,0.000000,4.000000,4.000000,4.000000,4.000000,4.000000,100.000000,,,,,,,,,,,,,,,,,,,,,,,,,,,,,,,,,,,,,,,,,,,,,,,,,,,,,,,,,,,,,,,
1656265770.420802,99.000000,0.000000,4287.692383,4287.179688,4069.230713,4126.153809,4258.461426,16109.000000,4.000000,95.000000,,,,0.000000,4.000000,4.000000,4.000000,4.000000,4.000000,100.000000,,,,,,,,,,,,,,,,,,,,,,,,,,,,,,,,,,,,,,,,,,,,,,,,,,,,,,,,,,,,,,,
1656265770.428616,100.000000,0.000000,4241.538574,4246.153809,4095.384521,4092.820557,4184.615234,450.000000,4.000000,95.000000,,,,0.000000,4.000000,4.000000,4.000000,4.000000,4.000000,100.000000,,,,,,,,,,,,,,,,,,,,,,,,,,,,,,,,,,,,,,,,,,,,,,,,,,,,,,,,,,,,,,,
1656265770.436331,101.000000,0.000000,4213.846191,4218.461426,4109.230957,4054.358887,4144.102539,450.000000,4.000000,95.000000,,,,0.000000,4.000000,4.000000,4.000000,4.000000,4.000000,100.000000,,,,,,,,,,,,,,,,,,,,,,,,,,,,,,,,,,,,,,,,,,,,,,,,,,,,,,,,,,,,,,,
1656265770.444245,102.000000,0.000000,4230.769043,4230.769043,4078.461426,4049.743652,4193.333496,450.000000,4.000000,95.000000,,,,0.000000,4.000000,4.000000,4.000000,4.000000,4.000000,100.000000,,,,,,,,,,,,,,,,,,,,,,,,,,,,,,,,,,,,,,,,,,,,,,,,,,,,,,,,,,,,,,,
1656265770.452060,103.000000,0.000000,4234.871582,4238.461426,4075.897461,4054.358887,4214.871582,16109.000000,4.000000,95.000000,,,,0.000000,4.000000,4.000000,4.000000,4.000000,4.000000,100.000000,,,,,,,,,,,,,,,,,,,,,,,,,,,,,,,,,,,,,,,,,,,,,,,,,,,,,,,,,,,,,,,
1656265770.459974,104.000000,0.000000,4195.384766,4224.102539,4102.563965,4046.153809,4167.692383,450.000000,4.000000,95.000000,,,,0.000000,4.000000,4.000000,4.000000,4.000000,4.000000,100.000000,,,,,,,,,,,,,,,,,,,,,,,,,,,,,,,,,,,,,,,2.482145,4.587035,4.821052,13.094893,8.169998,2.427407,4.196277,2.967413,6.214367,3.522635,5.243612,5.306538,5.182091,2.459709,1.914766,3.965374,4.137753,5.717042,3.824864,3.577434,2.644913,4.586513,3.130613,8.213383,4.675368
1656265770.467888,105.000000,0.000000,4200.000000,4232.820313,4102.563965,4053.846191,4153.846191,450.000000,4.000000,95.000000,,,,0.000000,4.000000,4.000000,4.000000,4.000000,4.000000,100.000000,,,,,,,,,,,,,,,,,,,,,,,,,,,,,,,,,,,,,,,,,,,,,,,,,,,,,,,,,,,,,,,
1656265770.475703,106.000000,0.000000,4249.743652,4254.358887,4070.256348,4061.025635,4192.307617,450.000000,4.000000,95.000000,,,,0.000000,4.000000,4.000000,4.000000,4.000000,4.000000,100.000000,,,,,,,,,,,,,,,,,,,,,,,,,,,,,,,,,,,,,,,,,,,,,,,,,,,,,,,,,,,,,,,
1656265770.483517,107.000000,0.000000,4245.128418,4242.563965,4045.641113,4058.461426,4209.743652,16109.000000,4.000000,95.000000,,,,0.000000,4.000000,4.000000,4.000000,4.000000,4.000000,100.000000,,,,,,,,,,,,,,,,,,,,,,,,,,,,,,,,,,,,,,,,,,,,,,,,,,,,,,,,,,,,,,,
1656265770.491331,108.000000,0.000000,4205.128418,4211.794922,4041.025635,4073.846191,4197.948730,450.000000,4.000000,95.000000,,,,0.000000,4.000000,4.000000,4.000000,4.000000,4.000000,100.000000,,,,,,,,,,,,,,,,,,,,,,,,,,,,,,,,,,,,,,,,,,,,,,,,,,,,,,,,,,,,,,,
1656265770.499146,109.000000,0.000000,4205.641113,4216.410156,4053.333252,4084.615479,4196.410156,450.000000,4.000000,95.000000,,,,0.000000,4.000000,4.000000,4.000000,4.000000,4.000000,100.000000,,,,,,,,,,,,,,,,,,,,,,,,,,,,,,,,,,,,,,,,,,,,,,,,,,,,,,,,,,,,,,,
1656265770.506860,110.000000,0.000000,4241.538574,4241.025879,4085.128174,4085.641113,4185.128418,450.000000,4.000000,95.000000,,,,0.000000,4.000000,4.000000,4.000000,4.000000,4.000000,100.000000,,,,,,,,,,,,,,,,,,,,,,,,,,,,,,,,,,,,,,,,,,,,,,,,,,,,,,,,,,,,,,,
1656265770.514675,111.000000,0.000000,4269.743652,4228.717773,4103.589844,4083.589844,4158.461426,16109.000000,4.000000,95.000000,,,,0.000000,4.000000,4.000000,4.000000,4.000000,4.000000,100.000000,,,,,,,,,,,,,,,,,,,,,,,,,,,,,,,,,,,,,,,,,,,,,,,,,,,,,,,,,,,,,,,
1656265770.522389,112.000000,0.000000,4274.871582,4229.743652,4099.487305,4072.307617,4181.025879,450.000000,4.000000,95.000000,,,,0.000000,4.000000,4.000000,4.000000,4.000000,4.000000,100.000000,,,,,,,,,,,,,,,,,,,,,,,,,,,,,,,,,,,,,,,,,,,,,,,,,,,,,,,,,,,,,,,
1656265770.530204,113.000000,0.000000,4244.102539,4251.794922,4081.025635,4056.923096,4204.102539,450.000000,4.000000,95.000000,,,,0.000000,4.000000,4.000000,4.000000,4.000000,4.000000,100.000000,,,,,,,,,,,,,,,,,,,,,,,,,,,,,,,,,,,,,,,,,,,,,,,,,,,,,,,,,,,,,,,
1656265770.537918,114.000000,0.000000,4205.128418,4211.794922,4066.153809,4051.794922,4164.102539,450.000000,4.000000,95.000000,,,,0.000000,4.000000,4.000000,4.000000,4.000000,4.000000,100.000000,,,,,,,,,,,,,,,,,,,,,,,,,,,,,,,,,,,,,,,,,,,,,,,,,,,,,,,,,,,,,,,
1656265770.545733,115.000000,0.000000,4224.615234,4192.820313,4067.179443,4074.358887,4177.948730,16109.000000,4.000000,95.000000,,,,0.000000,4.000000,4.000000,4.000000,4.000000,4.000000,100.000000,,,,,,,,,,,,,,,,,,,,,,,,,,,,,,,,,,,,,,,,,,,,,,,,,,,,,,,,,,,,,,,
1656265770.553447,116.000000,0.000000,4267.179688,4254.358887,4058.461426,4089.743652,4248.717773,450.000000,4.000000,95.000000,,,,0.000000,4.000000,4.000000,4.000000,4.000000,4.000000,100.000000,,,,,,,,,,,,,,,,,,,,,,,,,,,,,,,,,,,,,,,,,,,,,,,,,,,,,,,,,,,,,,,
1656265770.561261,117.000000,0.000000,4264.102539,4269.743652,4061.538574,4081.025635,4243.077148,450.000000,4.000000,95.000000,,,,0.000000,4.000000,4.000000,4.000000,4.000000,4.000000,100.000000,,,,,,,,,,,,,,,,,,,,,,,,,,,,,,,,,,,,,,,,,,,,,,,,,,,,,,,,,,,,,,,
1656265770.568976,118.000000,0.000000,4215.897461,4209.743652,4077.435791,4060.512939,4185.641113,450.000000,4.000000,95.000000,,,,0.000000,4.000000,4.000000,4.000000,4.000000,4.000000,100.000000,,,,,,,,,,,,,,,,,,,,,,,,,,,,,,,,,,,,,,,,,,,,,,,,,,,,,,,,,,,,,,,
1656265770.576790,119.000000,0.000000,4183.077148,4177.948730,4050.256348,4040.000000,4162.051270,16109.000000,4.000000,95.000000,,,,0.000000,4.000000,4.000000,4.000000,4.000000,4.000000,100.000000,,,,,,,,,,,,,,,,,,,,,,,,,,,,,,,,,,,,,,,,,,,,,,,,,,,,,,,,,,,,,,,
1656265770.584505,120.000000,0.000000,4222.051270,4200.000000,4030.769287,4037.435791,4181.025879,450.000000,4.000000,95.000000,,,,0.000000,4.000000,4.000000,4.000000,4.000000,4.000000,100.000000,,,,,,,,,,,,,,,,,,,,,,,,,,,,,,,,,,,,,,,2.111588,4.266174,4.920353,12.996125,8.179632,2.323802,3.958761,3.043216,6.034792,3.318892,4.705338,4.545702,4.676010,2.710196,2.036256,3.040429,3.743025,5.829578,3.328949,3.711246,2.454251,4.755524,3.605125,8.187186,4.557178
1656265770.592419,121.000000,0.000000,4273.846191,4229.230957,4064.615479,4040.512939,4211.794922,450.000000,4.000000,95.000000,,,,0.000000,4.000000,4.000000,4.000000,4.000000,4.000000,100.000000,,,,,,,,,,,,,,,,,,,,,,,,,,,,,,,,,,,,,,,,,,,,,,,,,,,,,,,,,,,,,,,
1656265770.600234,122.000000,0.000000,4268.205078,4231.794922,4084.102539,4051.281982,4222.563965,450.000000,4.000000,95.000000,,,,0.000000,4.000000,4.000000,4.000000,4.000000,4.000000,100.000000,,,,,,,,,,,,,,,,,,,,,,,,,,,,,,,,,,,,,,,,,,,,,,,,,,,,,,,,,,,,,,,
1656265770.608048,123.000000,0.000000,4231.282227,4211.794922,4078.461426,4056.923096,4191.282227,16109.000000,4.000000,95.000000,,,,0.000000,4.000000,4.000000,4.000000,4.000000,4.000000,100.000000,,,,,,,,,,,,,,,,,,,,,,,,,,,,,,,,,,,,,,,,,,,,,,,,,,,,,,,,,,,,,,,
1656265770.615763,124.000000,0.000000,4218.974121,4205.641113,4071.794922,4036.410156,4152.307617,450.000000,4.000000,95.000000,,,,0.000000,4.000000,4.000000,4.000000,4.000000,4.000000,100.000000,,,,,,,,,,,,,,,,,,,,,,,,,,,,,,,,,,,,,,,,,,,,,,,,,,,,,,,,,,,,,,,
1656265770.623577,125.000000,0.000000,4250.256348,4230.769043,4065.128174,4028.718018,4175.384766,450.000000,4.000000,95.000000,,,,0.000000,4.000000,4.000000,4.000000,4.000000,4.000000,100.000000,,,,,,,,,,,,,,,,,,,,,,,,,,,,,,,,,,,,,,,,,,,,,,,,,,,,,,,,,,,,,,,
1656265770.631291,126.000000,0.000000,4271.794922,4243.077148,4067.179443,4038.461426,4215.897461,450.000000,4.000000,95.000000,,,,0.000000,4.000000,4.000000,4.000000,4.000000,4.000000,100.000000,,,,,,,,,,,,,,,,,,,,,,,,,,,,,,,,,,,,,,,,,,,,,,,,,,,,,,,,,,,,,,,
1656265770.639206,127.000000,0.000000,4243.077148,4220.512695,4069.230713,4031.794922,4202.051270,243.000000,4.000000,95.000000,,,,0.000000,4.000000,4.000000,4.000000,4.000000,4.000000,100.000000,,,,,,,,,,,,,,,,,,,,,,,,,,,,,,,,,,,,,,,,,,,,,,,,,,,,,,,,,,,,,,,
1656265770.647020,0.000000,0.000000,4234.358887,4211.282227,4046.666748,4042.564209,4201.025879,450.000000,4.000000,95.000000,,,,0.000000,4.000000,4.000000,4.000000,4.000000,4.000000,100.000000,,,,,,,,,,,,,,,,,,,,,,,,,,,,,,,,,,,,,,,,,,,,,,,,,,,,,,,,,,,,,,,
1656265770.654934,1.000000,0.000000,4274.358887,4224.615234,4033.333252,4072.820557,4232.820313,450.000000,4.000000,95.000000,,,,0.000000,4.000000,4.000000,4.000000,4.000000,4.000000,100.000000,,,,,,,,,,,,,,,,,,,,,,,,,,,,,,,,,,,,,,,,,,,,,,,,,,,,,,,,,,,,,,,
1656265770.662749,2.000000,0.000000,4282.051270,4229.743652,4064.102539,4076.923096,4230.256348,16126.000000,4.000000,95.000000,,,,0.000000,4.000000,4.000000,4.000000,4.000000,4.000000,100.000000,,,,,,,,,,,,,,,,,,,,,,,,,,,,,,,,,,,,,,,,,,,,,,,,,,,,,,,,,,,,,,,
1656265770.670563,3.000000,0.000000,4238.461426,4213.333496,4073.846191,4067.179443,4208.205078,450.000000,4.000000,95.000000,,,,0.000000,4.000000,4.000000,4.000000,4.000000,4.000000,100.000000,,,,,,,,,,,,,,,,,,,,,,,,,,,,,,,,,,,,,,,,,,,,,,,,,,,,,,,,,,,,,,,
1656265770.678278,4.000000,0.000000,4208.205078,4187.179688,4041.538574,4058.974365,4197.436035,16132.000000,4.000000,95.000000,,,,0.000000,4.000000,4.000000,4.000000,4.000000,4.000000,100.000000,,,,,,,,,,,,,,,,,,,,,,,,,,,,,,,,,,,,,,,,,,,,,,,,,,,,,,,,,,,,,,,
1656265770.686092,5.000000,0.000000,4228.717773,4208.205078,4045.128174,4050.256348,4192.307617,450.000000,4.000000,95.000000,,,,0.000000,4.000000,4.000000,4.000000,4.000000,4.000000,100.000000,,,,,,,,,,,,,,,,,,,,,,,,,,,,,,,,,,,,,,,,,,,,,,,,,,,,,,,,,,,,,,,
1656265770.693907,6.000000,0.000000,4246.153809,4251.282227,4077.435791,4032.820557,4188.205078,16137.000000,4.000000,95.000000,,,,0.000000,4.000000,4.000000,4.000000,4.000000,4.000000,100.000000,,,,,,,,,,,,,,,,,,,,,,,,,,,,,,,,,,,,,,,,,,,,,,,,,,,,,,,,,,,,,,,
1656265770.701621,7.000000,0.000000,4231.282227,4250.256348,4082.051270,4027.692383,4190.256348,450.000000,4.000000,95.000000,,,,0.000000,4.000000,4.000000,4.000000,4.000000,4.000000,100.000000,,,,,,,,,,,,,,,,,,,,,,,,,,,,,,,,,,,,,,,,,,,,,,,,,,,,,,,,,,,,,,,
1656265770.709436,8.000000,0.000000,4217.436035,4212.307617,4053.333252,4052.307617,4192.820313,450.000000,4.000000,95.000000,,,,0.000000,4.000000,4.000000,4.000000,4.000000,4.000000,100.000000,1.000000,75.000000,3.000000,3.000000,4.000000,4.000000,3.000000,,,,,,,,,,,,,,,,,,,,,,,,,,,,,,,,2.131615,3.850459,4.959195,12.901668,8.122750,2.159688,3.706029,3.311226,5.947309,3.176449,4.270619,3.901223,4.407318,2.892327,2.094632,2.680227,3.408011,5.713275,2.930244,3.872409,2.337483,4.604416,4.139944,7.926651,4.602255
1656265770.717150,9.000000,0.000000,4213.333496,4188.205078,4030.256348,4068.205078,4195.897461,16124.000000,4.000000,95.000000,,,,0.000000,4.000000,4.000000,4.000000,4.000000,4.000000,100.000000,,,,,,,,,,,,,,,,,,,,,,,,,,,,,,,,,,,,,,,,,,,,,,,,,,,,,,,,,,,,,,,
1656265770.724964,10.000000,0.000000,4237.436035,4217.436035,4058.461426,4074.871826,4210.256348,450.000000,4.000000,95.000000,,,,0.000000,4.000000,4.000000,4.000000,4.000000,4.000000,100.000000,,,,,,,,,,,,,,,,,,,,,,,,,,,,,,,,,,,,,,,,,,,,,,,,,,,,,,,,,,,,,,,
1656265770.732679,11.000000,0.000000,4275.384766,4245.128418,4108.205078,4070.769287,4213.846191,16171.000000,4.000000,95.000000,,,,0.000000,4.000000,4.000000,4.000000,4.000000,4.000000,100.000000,,,,,,,,,,,,,,,,,,,,,,,,,,,,,,,,,,,,,,,,,,,,,,,,,,,,,,,,,,,,,,,
1656265770.740493,12.000000,0.000000,4288.205078,4241.025879,4122.563965,4058.461426,4219.487305,450.000000,4.000000,95.000000,,,,0.000000,4.000000,4.000000,4.000000,4.000000,4.000000,100.000000,,,,,,,,,,,,,,,,,,,,,,,,,,,,,,,,,,,,,,,,,,,,,,,,,,,,,,,,,,,,,,,
1656265770.748208,13.000000,0.000000,4272.820313,4227.179688,4103.589844,4065.128174,4227.692383,450.000000,4.000000,95.000000,,,,0.000000,4.000000,4.000000,4.000000,4.000000,4.000000,100.000000,,,,,,,,,,,,,,,,,,,,,,,,,,,,,,,,,,,,,,,,,,,,,,,,,,,,,,,,,,,,,,,
1656265770.756022,14.000000,0.000000,4238.974121,4195.897461,4081.538574,4066.153809,4205.128418,450.000000,4.000000,95.000000,,,,0.000000,4.000000,4.000000,4.000000,4.000000,4.000000,100.000000,,,,,,,,,,,,,,,,,,,,,,,,,,,,,,,,,,,,,,,,,,,,,,,,,,,,,,,,,,,,,,,
1656265770.763737,15.000000,0.000000,4240.512695,4193.846191,4079.487061,4058.974365,4200.000000,16171.000000,4.000000,95.000000,,,,0.000000,4.000000,4.000000,4.000000,4.000000,4.000000,100.000000,,,,,,,,,,,,,,,,,,,,,,,,,,,,,,,,,,,,,,,,,,,,,,,,,,,,,,,,,,,,,,,
1656265770.771551,16.000000,0.000000,4272.307617,4237.948730,4081.538574,4075.897461,4233.846191,0.000000,4.000000,95.000000,,,,0.000000,4.000000,4.000000,4.000000,4.000000,4.000000,100.000000,,,,,,,,,,,,,,,,,,,,,,,,,,,,,,,,,,,,,,,,,,,,,,,,,,,,,,,,,,,,,,,
1656265770.779266,17.000000,0.000000,4267.692383,4257.436035,4078.461426,4094.358887,4245.641113,0.000000,4.000000,95.000000,,,,0.000000,4.000000,4.000000,4.000000,4.000000,4.000000,100.000000,,,,,,,,,,,,,,,,,,,,,,,,,,,,,,,,,,,,,,,,,,,,,,,,,,,,,,,,,,,,,,,
1656265770.787080,18.000000,0.000000,4233.846191,4226.666504,4086.153809,4083.076904,4214.358887,0.000000,4.000000,95.000000,,,,0.000000,4.000000,4.000000,4.000000,4.000000,4.000000,100.000000,,,,,,,,,,,,,,,,,,,,,,,,,,,,,,,,,,,,,,,,,,,,,,,,,,,,,,,,,,,,,,,
1656265770.794795,19.000000,0.000000,4214.358887,4205.641113,4100.512695,4062.051270,4183.589844,0.000000,4.000000,95.000000,,,,0.000000,4.000000,4.000000,4.000000,4.000000,4.000000,100.000000,,,,,,,,,,,,,,,,,,,,,,,,,,,,,,,,,,,,,,,,,,,,,,,,,,,,,,,,,,,,,,,
1656265770.802709,20.000000,0.000000,4236.922852,4231.794922,4120.512695,4065.641113,4186.666504,0.000000,4.000000,95.000000,,,,0.000000,4.000000,4.000000,4.000000,4.000000,4.000000,100.000000,,,,,,,,,,,,,,,,,,,,,,,,,,,,,,,,,,,,,,,,,,,,,,,,,,,,,,,,,,,,,,,
1656265770.810523,21.000000,0.000000,4255.897461,4250.769043,4128.205078,4073.846191,4195.384766,0.000000,4.000000,95.000000,,,,0.000000,4.000000,4.000000,4.000000,4.000000,4.000000,100.000000,,,,,,,,,,,,,,,,,,,,,,,,,,,,,,,,,,,,,,,,,,,,,,,,,,,,,,,,,,,,,,,
1656265770.818438,22.000000,0.000000,4221.025879,4229.230957,4101.538574,4062.051270,4193.846191,0.000000,4.000000,95.000000,,,,0.000000,4.000000,4.000000,4.000000,4.000000,4.000000,100.000000,,,,,,,,,,,,,,,,,,,,,,,,,,,,,,,,,,,,,,,,,,,,,,,,,,,,,,,,,,,,,,,
1656265770.826252,23.000000,0.000000,4218.974121,4205.641113,4094.871826,4065.128174,4215.897461,0.000000,4.000000,95.000000,,,,0.000000,4.000000,4.000000,4.000000,4.000000,4.000000,100.000000,,,,,,,,,,,,,,,,,,,,,,,,,,,,,,,,,,,,,,,,,,,,,,,,,,,,,,,,,,,,,,,
1656265770.834166,24.000000,0.000000,4277.436035,4213.333496,4122.051270,4094.358887,4235.897461,0.000000,4.000000,95.000000,,,,0.000000,4.000000,4.000000,4.000000,4.000000,4.000000,100.000000,,,,,,,,,,,,,,,,,,,,,,,,,,,,,,,,,,,,,,,2.549176,3.477076,4.899114,12.972448,8.119390,1.887776,3.477730,3.580446,5.905437,3.101414,4.065934,3.415813,4.386038,2.950020,2.079472,2.836595,3.256459,5.650386,2.682210,3.978674,2.368753,4.065670,4.738084,7.617675,4.826585
1656265770.841981,25.000000,0.000000,4282.051270,4233.333496,4127.692383,4107.179688,4217.948730,0.000000,4.000000,95.000000,,,,0.000000,4.000000,4.000000,4.000000,4.000000,4.000000,100.000000,,,,,,,,,,,,,,,,,,,,,,,,,,,,,,,,,,,,,,,,,,,,,,,,,,,,,,,,,,,,,,,
1656265770.849895,26.000000,0.000000,4225.128418,4229.230957,4120.000000,4078.974365,4194.358887,0.000000,4.000000,95.000000,,,,0.000000,4.000000,4.000000,4.000000,4.000000,4.000000,100.000000,,,,,,,,,,,,,,,,,,,,,,,,,,,,,,,,,,,,,,,,,,,,,,,,,,,,,,,,,,,,,,,
1656265770.857709,27.000000,0.000000,4211.794922,4213.333496,4128.205078,4041.538574,4186.666504,0.000000,4.000000,95.000000,,,,0.000000,4.000000,4.000000,4.000000,4.000000,4.000000,100.000000,,,,,,,,,,,,,,,,,,,,,,,,,,,,,,,,,,,,,,,,,,,,,,,,,,,,,,,,,,,,,,,
1656265770.865624,28.000000,0.000000,4263.589844,4230.769043,4125.641113,4045.128174,4211.794922,0.000000,4.000000,95.000000,,,,0.000000,4.000000,4.000000,4.000000,4.000000,4.000000,100.000000,,,,,,,,,,,,,,,,,,,,,,,,,,,,,,,,,,,,,,,,,,,,,,,,,,,,,,,,,,,,,,,
1656265770.873438,29.000000,0.000000,4301.538574,4246.666504,4099.487305,4078.974365,4243.589844,0.000000,4.000000,95.000000,,,,0.000000,4.000000,4.000000,4.000000,4.000000,4.000000,100.000000,,,,,,,,,,,,,,,,,,,,,,,,,,,,,,,,,,,,,,,,,,,,,,,,,,,,,,,,,,,,,,,
1656265770.881153,30.000000,0.000000,4273.333496,4229.230957,4095.897461,4091.281982,4223.077148,0.000000,4.000000,95.000000,,,,0.000000,4.000000,4.000000,4.000000,4.000000,4.000000,100.000000,,,,,,,,,,,,,,,,,,,,,,,,,,,,,,,,,,,,,,,,,,,,,,,,,,,,,,,,,,,,,,,
1656265770.889067,31.000000,0.000000,4211.282227,4217.436035,4097.948730,4076.923096,4192.820313,0.000000,4.000000,95.000000,,,,0.000000,4.000000,4.000000,4.000000,4.000000,4.000000,100.000000,,,,,,,,,,,,,,,,,,,,,,,,,,,,,,,,,,,,,,,,,,,,,,,,,,,,,,,,,,,,,,,
1656265770.896881,32.000000,0.000000,4184.615234,4214.358887,4093.333252,4064.615479,4187.692383,0.000000,4.000000,95.000000,,,,0.000000,4.000000,4.000000,4.000000,4.000000,4.000000,100.000000,,,,,,,,,,,,,,,,,,,,,,,,,,,,,,,,,,,,,,,,,,,,,,,,,,,,,,,,,,,,,,,
1656265770.904796,33.000000,0.000000,4228.205078,4235.384766,4117.948730,4086.666748,4212.307617,0.000000,4.000000,95.000000,,,,0.000000,4.000000,4.000000,4.000000,4.000000,4.000000,100.000000,,,,,,,,,,,,,,,,,,,,,,,,,,,,,,,,,,,,,,,,,,,,,,,,,,,,,,,,,,,,,,,
1656265770.912610,34.000000,0.000000,4293.333496,4277.436035,4134.871582,4122.563965,4263.077148,0.000000,4.000000,95.000000,,,,0.000000,4.000000,4.000000,4.000000,4.000000,4.000000,100.000000,,,,,,,,,,,,,,,,,,,,,,,,,,,,,,,,,,,,,,,,,,,,,,,,,,,,,,,,,,,,,,,
1656265770.920524,35.000000,0.000000,4305.641113,4267.692383,4119.487305,4102.051270,4277.436035,0.000000,4.000000,95.000000,,,,0.000000,4.000000,4.000000,4.000000,4.000000,4.000000,100.000000,,,,,,,,,,,,,,,,,,,,,,,,,,,,,,,,,,,,,,,,,,,,,,,,,,,,,,,,,,,,,,,
1656265770.928339,36.000000,0.000000,4264.615234,4209.743652,4102.051270,4062.051270,4232.820313,0.000000,4.000000,95.000000,,,,0.000000,4.000000,4.000000,4.000000,4.000000,4.000000,100.000000,,,,,,,,,,,,,,,,,,,,,,,,,,,,,,,,,,,,,,,,,,,,,,,,,,,,,,,,,,,,,,,
1656265770.936253,37.000000,0.000000,4243.589844,4195.897461,4087.692383,4069.230713,4203.077148,0.000000,4.000000,95.000000,,,,0.000000,4.000000,4.000000,4.000000,4.000000,4.000000,100.000000,,,,,,,,,,,,,,,,,,,,,,,,,,,,,,,,,,,,,,,,,,,,,,,,,,,,,,,,,,,,,,,
1656265770.944068,38.000000,0.000000,4270.769043,4223.589844,4095.384521,4092.307617,4231.794922,0.000000,4.000000,95.000000,,,,0.000000,4.000000,4.000000,4.000000,4.000000,4.000000,100.000000,,,,,,,,,,,,,,,,,,,,,,,,,,,,,,,,,,,,,,,,,,,,,,,,,,,,,,,,,,,,,,,
1656265770.951982,39.000000,0.000000,4264.102539,4236.410156,4133.846191,4078.974365,4238.974121,0.000000,4.000000,95.000000,,,,0.000000,4.000000,4.000000,4.000000,4.000000,4.000000,100.000000,,,,,,,,,,,,,,,,,,,,,,,,,,,,,,,,,,,,,,,,,,,,,,,,,,,,,,,,,,,,,,,
1656265770.959796,40.000000,0.000000,4237.948730,4244.615234,4147.179688,4075.384521,4217.436035,0.000000,4.000000,95.000000,,,,0.000000,4.000000,4.000000,4.000000,4.000000,4.000000,100.000000,,,,,,,,,,,,,,,,,,,,,,,,,,,,,,,,,,,,,,,3.218226,3.306710,4.733639,13.160462,8.233774,1.571948,3.276137,3.629593,5.868730,3.107538,4.089890,3.067659,4.531241,2.899566,2.020743,3.298511,3.365906,5.878980,2.594533,3.930719,2.524937,3.305299,5.361784,7.353145,5.186529
1656265770.967711,41.000000,0.000000,4258.461426,4258.461426,4131.794922,4103.589844,4204.102539,0.000000,4.000000,95.000000,,,,0.000000,4.000000,4.000000,4.000000,4.000000,4.000000,100.000000,,,,,,,,,,,,,,,,,,,,,,,,,,,,,,,,,,,,,,,,,,,,,,,,,,,,,,,,,,,,,,,
1656265770.975625,42.000000,0.000000,4276.922852,4252.307617,4127.179688,4094.871826,4195.384766,0.000000,4.000000,95.000000,,,,0.000000,4.000000,4.000000,4.000000,4.000000,4.000000,100.000000,,,,,,,,,,,,,,,,,,,,,,,,,,,,,,,,,,,,,,,,,,,,,,,,,,,,,,,,,,,,,,,
1656265770.983439,43.000000,0.000000,4276.410156,4241.538574,4124.615234,4061.538574,4230.256348,0.000000,4.000000,95.000000,,,,0.000000,4.000000,4.000000,4.000000,4.000000,4.000000,100.000000,,,,,,,,,,,,,,,,,,,,,,,,,,,,,,,,,,,,,,,,,,,,,,,,,,,,,,,,,,,,,,,
1656265770.991354,44.000000,0.000000,4264.102539,4241.538574,4114.358887,4051.794922,4249.743652,0.000000,4.000000,95.000000,,,,0.000000,4.000000,4.000000,4.000000,4.000000,4.000000,100.000000,,,,,,,,,,,,,,,,,,,,,,,,,,,,,,,,,,,,,,,,,,,,,,,,,,,,,,,,,,,,,,,
1656265770.999168,45.000000,0.000000,4226.153809,4247.179688,4112.307617,4057.948730,4203.589844,0.000000,4.000000,95.000000,,,,0.000000,4.000000,4.000000,4.000000,4.000000,4.000000,100.000000,,,,,,,,,,,,,,,,,,,,,,,,,,,,,,,,,,,,,,,,,,,,,,,,,,,,,,,,,,,,,,,
1656265771.007082,46.000000,0.000000,4232.307617,4268.205078,4123.589844,4081.025635,4204.102539,0.000000,4.000000,95.000000,,,,0.000000,4.000000,4.000000,4.000000,4.000000,4.000000,100.000000,,,,,,,,,,,,,,,,,,,,,,,,,,,,,,,,,,,,,,,,,,,,,,,,,,,,,,,,,,,,,,,
1656265771.014897,47.000000,0.000000,4291.794922,4274.871582,4119.487305,4107.179688,4263.077148,0.000000,4.000000,95.000000,,,,0.000000,4.000000,4.000000,4.000000,4.000000,4.000000,100.000000,,,,,,,,,,,,,,,,,,,,,,,,,,,,,,,,,,,,,,,,,,,,,,,,,,,,,,,,,,,,,,,
1656265771.022811,48.000000,0.000000,4297.436035,4248.717773,4107.692383,4103.589844,4265.128418,0.000000,4.000000,95.000000,,,,0.000000,4.000000,4.000000,4.000000,4.000000,4.000000,100.000000,,,,,,,,,,,,,,,,,,,,,,,,,,,,,,,,,,,,,,,,,,,,,,,,,,,,,,,,,,,,,,,
1656265771.030625,49.000000,0.000000,4241.538574,4225.128418,4113.846191,4058.974365,4212.307617,0.000000,4.000000,95.000000,,,,0.000000,4.000000,4.000000,4.000000,4.000000,4.000000,100.000000,,,,,,,,,,,,,,,,,,,,,,,,,,,,,,,,,,,,,,,,,,,,,,,,,,,,,,,,,,,,,,,
1656265771.038540,50.000000,0.000000,4213.846191,4223.589844,4116.922852,4030.769287,4192.820313,0.000000,4.000000,95.000000,,,,0.000000,4.000000,4.000000,4.000000,4.000000,4.000000,100.000000,,,,,,,,,,,,,,,,,,,,,,,,,,,,,,,,,,,,,,,,,,,,,,,,,,,,,,,,,,,,,,,
1656265771.046354,51.000000,0.000000,4257.436035,4247.692383,4123.589844,4068.718018,4219.487305,0.000000,4.000000,95.000000,,,,0.000000,4.000000,4.000000,4.000000,4.000000,4.000000,100.000000,,,,,,,,,,,,,,,,,,,,,,,,,,,,,,,,,,,,,,,,,,,,,,,,,,,,,,,,,,,,,,,
1656265771.054268,52.000000,0.000000,4312.820313,4262.051270,4141.025879,4097.948730,4236.410156,0.000000,4.000000,95.000000,,,,0.000000,4.000000,4.000000,4.000000,4.000000,4.000000,100.000000,,,,,,,,,,,,,,,,,,,,,,,,,,,,,,,,,,,,,,,,,,,,,,,,,,,,,,,,,,,,,,,
1656265771.062083,53.000000,0.000000,4306.666504,4256.922852,4142.051270,4071.281982,4231.794922,0.000000,4.000000,95.000000,,,,0.000000,4.000000,4.000000,4.000000,4.000000,4.000000,100.000000,,,,,,,,,,,,,,,,,,,,,,,,,,,,,,,,,,,,,,,,,,,,,,,,,,,,,,,,,,,,,,,
1656265771.069997,54.000000,0.000000,4257.436035,4246.666504,4109.230957,4057.948730,4227.179688,0.000000,4.000000,95.000000,,,,0.000000,4.000000,4.000000,4.000000,4.000000,4.000000,100.000000,,,,,,,,,,,,,,,,,,,,,,,,,,,,,,,,,,,,,,,,,,,,,,,,,,,,,,,,,,,,,,,
1656265771.077812,55.000000,0.000000,4220.512695,4225.128418,4069.230713,4067.179443,4212.820313,0.000000,4.000000,95.000000,,,,0.000000,4.000000,4.000000,4.000000,4.000000,4.000000,100.000000,,,,,,,,,,,,,,,,,,,,,,,,,,,,,,,,,,,,,,,,,,,,,,,,,,,,,,,,,,,,,,,
1656265771.085726,56.000000,0.000000,4245.641113,4231.794922,4085.641113,4063.589844,4213.333496,0.000000,4.000000,95.000000,,,,0.000000,4.000000,4.000000,4.000000,4.000000,4.000000,100.000000,,,,,,,,,,,,,,,,,,,,,,,,,,,,,,,,,,,,,,,3.890435,3.496681,4.520433,13.228270,8.440544,1.265555,3.079147,3.349944,5.823703,3.217252,4.165824,2.824738,4.670811,2.828505,1.966746,3.832845,3.713264,6.422847,2.648093,3.668304,2.723305,2.669275,5.896176,7.099398,5.580227
1656265771.093540,57.000000,0.000000,4291.794922,4267.179688,4127.692383,4054.871826,4241.025879,0.000000,4.000000,95.000000,,,,0.000000,4.000000,4.000000,4.000000,4.000000,4.000000,100.000000,,,,,,,,,,,,,,,,,,,,,,,,,,,,,,,,,,,,,,,,,,,,,,,,,,,,,,,,,,,,,,,
1656265771.101455,58.000000,0.000000,4290.769043,4264.102539,4129.230957,4067.179443,4245.641113,0.000000,4.000000,95.000000,,,,0.000000,4.000000,4.000000,4.000000,4.000000,4.000000,100.000000,,,,,,,,,,,,,,,,,,,,,,,,,,,,,,,,,,,,,,,,,,,,,,,,,,,,,,,,,,,,,,,
1656265771.109369,59.000000,0.000000,4261.025879,4235.384766,4116.410156,4077.435791,4213.846191,0.000000,4.000000,95.000000,,,,0.000000,4.000000,4.000000,4.000000,4.000000,4.000000,100.000000,,,,,,,,,,,,,,,,,,,,,,,,,,,,,,,,,,,,,,,,,,,,,,,,,,,,,,,,,,,,,,,
1656265771.117183,60.000000,0.000000,4234.358887,4232.307617,4109.743652,4055.897461,4185.641113,0.000000,4.000000,95.000000,,,,0.000000,4.000000,4.000000,4.000000,4.000000,4.000000,100.000000,,,,,,,,,,,,,,,,,,,,,,,,,,,,,,,,,,,,,,,,,,,,,,,,,,,,,,,,,,,,,,,
1656265771.125098,61.000000,0.000000,4238.974121,4255.384766,4108.717773,4056.410156,4197.436035,0.000000,4.000000,95.000000,,,,0.000000,4.000000,4.000000,4.000000,4.000000,4.000000,100.000000,,,,,,,,,,,,,,,,,,,,,,,,,,,,,,,,,,,,,,,,,,,,,,,,,,,,,,,,,,,,,,,
1656265771.132912,62.000000,0.000000,4270.769043,4247.179688,4107.179688,4080.512939,4230.769043,0.000000,4.000000,95.000000,,,,0.000000,4.000000,4.000000,4.000000,4.000000,4.000000,100.000000,,,,,,,,,,,,,,,,,,,,,,,,,,,,,,,,,,,,,,,,,,,,,,,,,,,,,,,,,,,,,,,
1656265771.140826,63.000000,0.000000,4284.102539,4212.820313,4111.794922,4073.333252,4229.743652,0.000000,4.000000,95.000000,,,,0.000000,4.000000,4.000000,4.000000,4.000000,4.000000,100.000000,,,,,,,,,,,,,,,,,,,,,,,,,,,,,,,,,,,,,,,,,,,,,,,,,,,,,,,,,,,,,,,
1656265771.148641,64.000000,0.000000,4273.846191,4230.769043,4117.948730,4070.769287,4224.102539,450.000000,4.000000,95.000000,,,,0.000000,4.000000,4.000000,4.000000,4.000000,4.000000,100.000000,,,,,,,,,,,,,,,,,,,,,,,,,,,,,,,,,,,,,,,,,,,,,,,,,,,,,,,,,,,,,,,
1656265771.156455,65.000000,0.000000,4261.538574,4263.077148,4102.051270,4080.512939,4235.384766,450.000000,4.000000,95.000000,,,,0.000000,4.000000,4.000000,4.000000,4.000000,4.000000,100.000000,,,,,,,,,,,,,,,,,,,,,,,,,,,,,,,,,,,,,,,,,,,,,,,,,,,,,,,,,,,,,,,
1656265771.164369,66.000000,0.000000,4252.820313,4248.205078,4084.615479,4069.743652,4232.307617,16122.000000,4.000000,95.000000,,,,0.000000,4.000000,4.000000,4.000000,4.000000,4.000000,100.000000,,,,,,,,,,,,,,,,,,,,,,,,,,,,,,,,,,,,,,,,,,,,,,,,,,,,,,,,,,,,,,,
1656265771.172284,67.000000,0.000000,4228.205078,4218.974121,4067.179443,4053.333252,4225.641113,450.000000,4.000000,95.000000,,,,0.000000,4.000000,4.000000,4.000000,4.000000,4.000000,100.000000,,,,,,,,,,,,,,,,,,,,,,,,,,,,,,,,,,,,,,,,,,,,,,,,,,,,,,,,,,,,,,,
1656265771.180098,68.000000,0.000000,4207.692383,4198.974121,4070.256348,4051.794922,4203.077148,16143.000000,4.000000,95.000000,,,,0.000000,4.000000,4.000000,4.000000,4.000000,4.000000,100.000000,,,,,,,,,,,,,,,,,,,,,,,,,,,,,,,,,,,,,,,,,,,,,,,,,,,,,,,,,,,,,,,
1656265771.188012,69.000000,0.000000,4239.487305,4221.025879,4102.051270,4069.230713,4190.256348,450.000000,4.000000,95.000000,,,,0.000000,4.000000,4.000000,4.000000,4.000000,4.000000,100.000000,,,,,,,,,,,,,,,,,,,,,,,,,,,,,,,,,,,,,,,,,,,,,,,,,,,,,,,,,,,,,,,
1656265771.195827,70.000000,0.000000,4277.948730,4269.743652,4098.461426,4087.179443,4232.820313,16121.000000,4.000000,95.000000,,,,0.000000,4.000000,4.000000,4.000000,4.000000,4.000000,100.000000,,,,,,,,,,,,,,,,,,,,,,,,,,,,,,,,,,,,,,,,,,,,,,,,,,,,,,,,,,,,,,,
1656265771.203741,71.000000,0.000000,4269.743652,4267.692383,4078.461426,4085.641113,4255.897461,450.000000,4.000000,95.000000,,,,0.000000,4.000000,4.000000,4.000000,4.000000,4.000000,100.000000,,,,,,,,,,,,,,,,,,,,,,,,,,,,,,,,,,,,,,,,,,,,,,,,,,,,,,,,,,,,,,,
1656265771.211556,72.000000,0.000000,4236.410156,4220.000000,4093.846191,4057.948730,4205.641113,450.000000,4.000000,95.000000,,,,0.000000,4.000000,4.000000,4.000000,4.000000,4.000000,100.000000,1.000000,83.333336,3.000000,4.000000,4.000000,4.000000,3.000000,,,,,,,,,,,,,,,,,,,,,,,,,,,,,,,,4.335305,4.128057,4.296405,12.950612,8.658076,1.024539,2.860892,2.799365,5.765196,3.424575,4.098773,2.764250,4.637829,2.844607,1.948211,4.264416,4.163912,7.026592,2.829198,3.220382,2.862099,2.470850,6.180159,6.778003,5.885133
1656265771.219470,73.000000,0.000000,4207.179688,4196.922852,4096.922852,4032.820557,4173.333496,16134.000000,4.000000,95.000000,,,,0.000000,4.000000,4.000000,4.000000,4.000000,4.000000,100.000000,,,,,,,,,,,,,,,,,,,,,,,,,,,,,,,,,,,,,,,,,,,,,,,,,,,,,,,,,,,,,,,
1656265771.227284,74.000000,0.000000,4222.051270,4223.077148,4083.076904,4043.589844,4213.333496,450.000000,4.000000,95.000000,,,,0.000000,4.000000,4.000000,4.000000,4.000000,4.000000,100.000000,,,,,,,,,,,,,,,,,,,,,,,,,,,,,,,,,,,,,,,,,,,,,,,,,,,,,,,,,,,,,,,
1656265771.235199,75.000000,0.000000,4264.615234,4258.974121,4086.666748,4067.179443,4240.512695,16162.000000,4.000000,95.000000,,,,0.000000,4.000000,4.000000,4.000000,4.000000,4.000000,100.000000,,,,,,,,,,,,,,,,,,,,,,,,,,,,,,,,,,,,,,,,,,,,,,,,,,,,,,,,,,,,,,,
1656265771.243013,76.000000,0.000000,4281.025879,4267.179688,4095.897461,4074.358887,4229.230957,450.000000,4.000000,95.000000,,,,0.000000,4.000000,4.000000,4.000000,4.000000,4.000000,100.000000,,,,,,,,,,,,,,,,,,,,,,,,,,,,,,,,,,,,,,,,,,,,,,,,,,,,,,,,,,,,,,,
1656265771.250827,77.000000,0.000000,4255.384766,4244.102539,4098.974121,4056.923096,4202.563965,450.000000,4.000000,95.000000,,,,0.000000,4.000000,4.000000,4.000000,4.000000,4.000000,100.000000,,,,,,,,,,,,,,,,,,,,,,,,,,,,,,,,,,,,,,,,,,,,,,,,,,,,,,,,,,,,,,,
1656265771.258542,78.000000,0.000000,4212.820313,4217.436035,4095.384521,4033.846191,4185.641113,450.000000,4.000000,95.000000,,,,0.000000,4.000000,4.000000,4.000000,4.000000,4.000000,100.000000,,,,,,,,,,,,,,,,,,,,,,,,,,,,,,,,,,,,,,,,,,,,,,,,,,,,,,,,,,,,,,,
1656265771.266456,79.000000,0.000000,4237.436035,4229.743652,4095.897461,4051.794922,4227.179688,16162.000000,4.000000,95.000000,,,,0.000000,4.000000,4.000000,4.000000,4.000000,4.000000,100.000000,,,,,,,,,,,,,,,,,,,,,,,,,,,,,,,,,,,,,,,,,,,,,,,,,,,,,,,,,,,,,,,
1656265771.274370,80.000000,0.000000,4299.487305,4246.153809,4106.666504,4095.384521,4265.641113,450.000000,4.000000,95.000000,,,,0.000000,4.000000,4.000000,4.000000,4.000000,4.000000,100.000000,,,,,,,,,,,,,,,,,,,,,,,,,,,,,,,,,,,,,,,,,,,,,,,,,,,,,,,,,,,,,,,
1656265771.282185,81.000000,0.000000,4292.820313,4234.871582,4118.461426,4107.692383,4232.820313,450.000000,4.000000,95.000000,,,,0.000000,4.000000,4.000000,4.000000,4.000000,4.000000,100.000000,,,,,,,,,,,,,,,,,,,,,,,,,,,,,,,,,,,,,,,,,,,,,,,,,,,,,,,,,,,,,,,
1656265771.290099,82.000000,0.000000,4248.717773,4234.871582,4104.615234,4098.461426,4206.666504,450.000000,4.000000,95.000000,,,,0.000000,4.000000,4.000000,4.000000,4.000000,4.000000,100.000000,,,,,,,,,,,,,,,,,,,,,,,,,,,,,,,,,,,,,,,,,,,,,,,,,,,,,,,,,,,,,,,
1656265771.297914,83.000000,0.000000,4241.538574,4240.000000,4072.820557,4080.512939,4215.384766,16162.000000,4.000000,95.000000,,,,0.000000,4.000000,4.000000,4.000000,4.000000,4.000000,100.000000,,,,,,,,,,,,,,,,,,,,,,,,,,,,,,,,,,,,,,,,,,,,,,,,,,,,,,,,,,,,,,,
1656265771.305728,84.000000,0.000000,4263.077148,4242.563965,4072.820557,4059.487061,4224.102539,450.000000,4.000000,95.000000,,,,0.000000,4.000000,4.000000,4.000000,4.000000,4.000000,100.000000,,,,,,,,,,,,,,,,,,,,,,,,,,,,,,,,,,,,,,,,,,,,,,,,,,,,,,,,,,,,,,,
1656265771.313642,85.000000,0.000000,4271.794922,4244.102539,4082.564209,4068.718018,4238.974121,450.000000,4.000000,95.000000,,,,0.000000,4.000000,4.000000,4.000000,4.000000,4.000000,100.000000,,,,,,,,,,,,,,,,,,,,,,,,,,,,,,,,,,,,,,,,,,,,,,,,,,,,,,,,,,,,,,,
1656265771.321457,86.000000,0.000000,4273.333496,4230.769043,4081.538574,4087.692383,4244.102539,450.000000,4.000000,95.000000,,,,0.000000,4.000000,4.000000,4.000000,4.000000,4.000000,100.000000,,,,,,,,,,,,,,,,,,,,,,,,,,,,,,,,,,,,,,,,,,,,,,,,,,,,,,,,,,,,,,,
1656265771.329371,87.000000,0.000000,4275.897461,4244.615234,4092.307617,4077.435791,4238.461426,16162.000000,4.000000,95.000000,,,,0.000000,4.000000,4.000000,4.000000,4.000000,4.000000,100.000000,,,,,,,,,,,,,,,,,,,,,,,,,,,,,,,,,,,,,,,,,,,,,,,,,,,,,,,,,,,,,,,
1656265771.337185,88.000000,0.000000,4268.717773,4276.922852,4101.025879,4047.692383,4246.153809,450.000000,4.000000,95.000000,,,,0.000000,4.000000,4.000000,4.000000,4.000000,4.000000,100.000000,,,,,,,,,,,,,,,,,,,,,,,,,,,,,,,,,,,,,,,4.409549,5.051623,4.049044,12.284221,8.788701,0.830466,2.594426,2.135587,5.702142,3.667913,3.799383,2.881883,4.368469,3.032004,1.960665,4.478985,4.515540,7.305339,3.151685,2.698593,2.882810,2.814415,6.115666,6.365993,6.006070
1656265771.345100,89.000000,0.000000,4261.538574,4264.102539,4107.179688,4049.230713,4244.615234,450.000000,4.000000,95.000000,,,,0.000000,4.000000,4.000000,4.000000,4.000000,4.000000,100.000000,,,,,,,,,,,,,,,,,,,,,,,,,,,,,,,,,,,,,,,,,,,,,,,,,,,,,,,,,,,,,,,
1656265771.352914,90.000000,0.000000,4252.307617,4231.794922,4110.256348,4066.666748,4199.487305,450.000000,4.000000,95.000000,,,,0.000000,4.000000,4.000000,4.000000,4.000000,4.000000,100.000000,,,,,,,,,,,,,,,,,,,,,,,,,,,,,,,,,,,,,,,,,,,,,,,,,,,,,,,,,,,,,,,
1656265771.360828,91.000000,0.000000,4227.692383,4227.692383,4085.641113,4048.205078,4171.794922,16162.000000,4.000000,95.000000,,,,0.000000,4.000000,4.000000,4.000000,4.000000,4.000000,100.000000,,,,,,,,,,,,,,,,,,,,,,,,,,,,,,,,,,,,,,,,,,,,,,,,,,,,,,,,,,,,,,,
1656265771.368743,92.000000,0.000000,4224.102539,4243.589844,4060.000000,4043.076904,4218.974121,450.000000,4.000000,95.000000,,,,0.000000,4.000000,4.000000,4.000000,4.000000,4.000000,100.000000,,,,,,,,,,,,,,,,,,,,,,,,,,,,,,,,,,,,,,,,,,,,,,,,,,,,,,,,,,,,,,,
1656265771.376557,93.000000,0.000000,4255.897461,4253.846191,4073.846191,4071.794922,4246.153809,450.000000,4.000000,95.000000,,,,0.000000,4.000000,4.000000,4.000000,4.000000,4.000000,100.000000,,,,,,,,,,,,,,,,,,,,,,,,,,,,,,,,,,,,,,,,,,,,,,,,,,,,,,,,,,,,,,,
1656265771.384471,94.000000,0.000000,4270.769043,4249.743652,4084.102539,4073.333252,4215.384766,450.000000,4.000000,95.000000,,,,0.000000,4.000000,4.000000,4.000000,4.000000,4.000000,100.000000,,,,,,,,,,,,,,,,,,,,,,,,,,,,,,,,,,,,,,,,,,,,,,,,,,,,,,,,,,,,,,,
1656265771.392286,95.000000,0.000000,4249.230957,4225.128418,4062.051270,4064.615479,4187.692383,16162.000000,4.000000,95.000000,,,,0.000000,4.000000,4.000000,4.000000,4.000000,4.000000,100.000000,,,,,,,,,,,,,,,,,,,,,,,,,,,,,,,,,,,,,,,,,,,,,,,,,,,,,,,,,,,,,,,
1656265771.400100,96.000000,0.000000,4216.922852,4190.256348,4046.666748,4069.230713,4175.384766,450.000000,4.000000,95.000000,,,,0.000000,4.000000,4.000000,4.000000,4.000000,4.000000,100.000000,,,,,,,,,,,,,,,,,,,,,,,,,,,,,,,,,,,,,,,,,,,,,,,,,,,,,,,,,,,,,,,
1656265771.408015,97.000000,0.000000,4217.436035,4183.589844,4063.076904,4071.281982,4201.025879,450.000000,4.000000,95.000000,,,,0.000000,4.000000,4.000000,4.000000,4.000000,4.000000,100.000000,,,,,,,,,,,,,,,,,,,,,,,,,,,,,,,,,,,,,,,,,,,,,,,,,,,,,,,,,,,,,,,
1656265771.415829,98.000000,0.000000,4256.410156,4204.615234,4089.743652,4078.461426,4229.743652,450.000000,4.000000,95.000000,,,,0.000000,4.000000,4.000000,4.000000,4.000000,4.000000,100.000000,,,,,,,,,,,,,,,,,,,,,,,,,,,,,,,,,,,,,,,,,,,,,,,,,,,,,,,,,,,,,,,
1656265771.423544,99.000000,0.000000,4273.333496,4213.333496,4100.512695,4081.025635,4216.410156,16162.000000,4.000000,95.000000,,,,0.000000,4.000000,4.000000,4.000000,4.000000,4.000000,100.000000,,,,,,,,,,,,,,,,,,,,,,,,,,,,,,,,,,,,,,,,,,,,,,,,,,,,,,,,,,,,,,,
1656265771.431458,100.000000,0.000000,4245.641113,4195.897461,4085.641113,4046.666748,4209.743652,450.000000,4.000000,95.000000,,,,0.000000,4.000000,4.000000,4.000000,4.000000,4.000000,100.000000,,,,,,,,,,,,,,,,,,,,,,,,,,,,,,,,,,,,,,,,,,,,,,,,,,,,,,,,,,,,,,,
1656265771.439272,101.000000,0.000000,4220.000000,4187.692383,4059.487061,4021.538574,4218.974121,450.000000,4.000000,95.000000,,,,0.000000,4.000000,4.000000,4.000000,4.000000,4.000000,100.000000,,,,,,,,,,,,,,,,,,,,,,,,,,,,,,,,,,,,,,,,,,,,,,,,,,,,,,,,,,,,,,,
1656265771.447087,102.000000,0.000000,4246.666504,4219.487305,4083.589844,4065.128174,4218.974121,450.000000,4.000000,95.000000,,,,0.000000,4.000000,4.000000,4.000000,4.000000,4.000000,100.000000,,,,,,,,,,,,,,,,,,,,,,,,,,,,,,,,,,,,,,,,,,,,,,,,,,,,,,,,,,,,,,,
1656265771.454901,103.000000,0.000000,4278.461426,4241.025879,4134.358887,4084.615479,4208.205078,16162.000000,4.000000,95.000000,,,,0.000000,4.000000,4.000000,4.000000,4.000000,4.000000,100.000000,,,,,,,,,,,,,,,,,,,,,,,,,,,,,,,,,,,,,,,,,,,,,,,,,,,,,,,,,,,,,,,
1656265771.462815,104.000000,0.000000,4265.128418,4235.384766,4122.051270,4050.769287,4196.922852,450.000000,4.000000,95.000000,,,,0.000000,4.000000,4.000000,4.000000,4.000000,4.000000,100.000000,,,,,,,,,,,,,,,,,,,,,,,,,,,,,,,,,,,,,,,4.099527,5.955903,3.759480,11.414083,8.755127,0.664891,2.289229,1.527144,5.654499,3.867296,3.314188,3.049284,3.927135,3.406705,1.968676,4.417577,4.607195,6.959200,3.630017,2.241565,2.777980,3.524886,5.686558,5.897004,5.919748
1656265771.470630,105.000000,0.000000,4254.871582,4234.871582,4088.718018,4057.435791,4204.102539,450.000000,4.000000,95.000000,,,,0.000000,4.000000,4.000000,4.000000,4.000000,4.000000,100.000000,,,,,,,,,,,,,,,,,,,,,,,,,,,,,,,,,,,,,,,,,,,,,,,,,,,,,,,,,,,,,,,
1656265771.478544,106.000000,0.000000,4250.769043,4214.871582,4083.076904,4073.846191,4216.410156,450.000000,4.000000,95.000000,,,,0.000000,4.000000,4.000000,4.000000,4.000000,4.000000,100.000000,,,,,,,,,,,,,,,,,,,,,,,,,,,,,,,,,,,,,,,,,,,,,,,,,,,,,,,,,,,,,,,
1656265771.486358,107.000000,0.000000,4237.948730,4200.000000,4086.153809,4064.615479,4214.358887,16162.000000,4.000000,95.000000,,,,0.000000,4.000000,4.000000,4.000000,4.000000,4.000000,100.000000,,,,,,,,,,,,,,,,,,,,,,,,,,,,,,,,,,,,,,,,,,,,,,,,,,,,,,,,,,,,,,,
1656265771.494273,108.000000,0.000000,4233.333496,4214.871582,4080.000000,4065.641113,4194.871582,450.000000,4.000000,95.000000,,,,0.000000,4.000000,4.000000,4.000000,4.000000,4.000000,100.000000,,,,,,,,,,,,,,,,,,,,,,,,,,,,,,,,,,,,,,,,,,,,,,,,,,,,,,,,,,,,,,,
1656265771.502087,109.000000,0.000000,4223.589844,4202.051270,4066.666748,4061.025635,4169.743652,450.000000,4.000000,95.000000,,,,0.000000,4.000000,4.000000,4.000000,4.000000,4.000000,100.000000,,,,,,,,,,,,,,,,,,,,,,,,,,,,,,,,,,,,,,,,,,,,,,,,,,,,,,,,,,,,,,,
1656265771.510001,110.000000,0.000000,4223.077148,4188.717773,4060.512939,4046.666748,4181.538574,450.000000,4.000000,95.000000,,,,0.000000,4.000000,4.000000,4.000000,4.000000,4.000000,100.000000,,,,,,,,,,,,,,,,,,,,,,,,,,,,,,,,,,,,,,,,,,,,,,,,,,,,,,,,,,,,,,,
1656265771.517816,111.000000,0.000000,4241.538574,4223.077148,4062.564209,4056.923096,4208.717773,16162.000000,4.000000,95.000000,,,,0.000000,4.000000,4.000000,4.000000,4.000000,4.000000,100.000000,,,,,,,,,,,,,,,,,,,,,,,,,,,,,,,,,,,,,,,,,,,,,,,,,,,,,,,,,,,,,,,
1656265771.525730,112.000000,0.000000,4253.846191,4244.615234,4082.564209,4084.615479,4210.256348,450.000000,4.000000,95.000000,,,,0.000000,4.000000,4.000000,4.000000,4.000000,4.000000,100.000000,,,,,,,,,,,,,,,,,,,,,,,,,,,,,,,,,,,,,,,,,,,,,,,,,,,,,,,,,,,,,,,
1656265771.533644,113.000000,0.000000,4236.922852,4211.282227,4094.358887,4083.589844,4196.410156,450.000000,4.000000,95.000000,,,,0.000000,4.000000,4.000000,4.000000,4.000000,4.000000,100.000000,,,,,,,,,,,,,,,,,,,,,,,,,,,,,,,,,,,,,,,,,,,,,,,,,,,,,,,,,,,,,,,
1656265771.541459,114.000000,0.000000,4212.307617,4178.461426,4071.794922,4054.871826,4185.641113,450.000000,4.000000,95.000000,,,,0.000000,4.000000,4.000000,4.000000,4.000000,4.000000,100.000000,,,,,,,,,,,,,,,,,,,,,,,,,,,,,,,,,,,,,,,,,,,,,,,,,,,,,,,,,,,,,,,
1656265771.549273,115.000000,0.000000,4230.256348,4187.179688,4061.025635,4064.615479,4198.974121,16162.000000,4.000000,95.000000,,,,0.000000,4.000000,4.000000,4.000000,4.000000,4.000000,100.000000,,,,,,,,,,,,,,,,,,,,,,,,,,,,,,,,,,,,,,,,,,,,,,,,,,,,,,,,,,,,,,,
1656265771.556988,116.000000,0.000000,4267.692383,4208.205078,4078.461426,4078.974365,4216.410156,450.000000,4.000000,95.000000,,,,0.000000,4.000000,4.000000,4.000000,4.000000,4.000000,100.000000,,,,,,,,,,,,,,,,,,,,,,,,,,,,,,,,,,,,,,,,,,,,,,,,,,,,,,,,,,,,,,,
1656265771.564902,117.000000,0.000000,4275.897461,4227.179688,4087.692383,4049.230713,4211.794922,450.000000,4.000000,95.000000,,,,0.000000,4.000000,4.000000,4.000000,4.000000,4.000000,100.000000,,,,,,,,,,,,,,,,,,,,,,,,,,,,,,,,,,,,,,,,,,,,,,,,,,,,,,,,,,,,,,,
1656265771.572717,118.000000,0.000000,4246.153809,4222.051270,4060.000000,4023.589844,4193.846191,450.000000,4.000000,95.000000,,,,0.000000,4.000000,4.000000,4.000000,4.000000,4.000000,100.000000,,,,,,,,,,,,,,,,,,,,,,,,,,,,,,,,,,,,,,,,,,,,,,,,,,,,,,,,,,,,,,,
1656265771.580531,119.000000,0.000000,4201.538574,4187.179688,4024.102539,4028.205078,4167.692383,16162.000000,4.000000,95.000000,,,,0.000000,4.000000,4.000000,4.000000,4.000000,4.000000,100.000000,,,,,,,,,,,,,,,,,,,,,,,,,,,,,,,,,,,,,,,,,,,,,,,,,,,,,,,,,,,,,,,
1656265771.588245,120.000000,0.000000,4218.461426,4192.307617,4037.948730,4057.948730,4167.179688,450.000000,4.000000,95.000000,,,,0.000000,4.000000,4.000000,4.000000,4.000000,4.000000,100.000000,,,,,,,,,,,,,,,,,,,,,,,,,,,,,,,,,,,,,,,3.556702,6.444592,3.423871,10.631407,8.523298,0.496769,1.998413,1.070405,5.642227,3.964990,2.818972,3.119469,3.493328,3.891714,1.932387,4.113494,4.400194,5.974390,4.220570,1.947866,2.605048,4.229642,4.992015,5.473300,5.682617
1656265771.596160,121.000000,0.000000,4281.538574,4230.769043,4075.384521,4069.743652,4206.153809,450.000000,4.000000,95.000000,,,,0.000000,4.000000,4.000000,4.000000,4.000000,4.000000,100.000000,,,,,,,,,,,,,,,,,,,,,,,,,,,,,,,,,,,,,,,,,,,,,,,,,,,,,,,,,,,,,,,
1656265771.603974,122.000000,0.000000,4286.666504,4237.436035,4098.461426,4065.641113,4227.179688,450.000000,4.000000,95.000000,,,,0.000000,4.000000,4.000000,4.000000,4.000000,4.000000,100.000000,,,,,,,,,,,,,,,,,,,,,,,,,,,,,,,,,,,,,,,,,,,,,,,,,,,,,,,,,,,,,,,
1656265771.611888,123.000000,0.000000,4238.461426,4217.948730,4103.589844,4075.384521,4203.077148,16162.000000,4.000000,95.000000,,,,0.000000,4.000000,4.000000,4.000000,4.000000,4.000000,100.000000,,,,,,,,,,,,,,,,,,,,,,,,,,,,,,,,,,,,,,,,,,,,,,,,,,,,,,,,,,,,,,,
1656265771.619703,124.000000,0.000000,4213.333496,4198.461426,4089.230713,4067.179443,4180.512695,450.000000,4.000000,95.000000,,,,0.000000,4.000000,4.000000,4.000000,4.000000,4.000000,100.000000,,,,,,,,,,,,,,,,,,,,,,,,,,,,,,,,,,,,,,,,,,,,,,,,,,,,,,,,,,,,,,,
1656265771.627517,125.000000,0.000000,4239.487305,4205.128418,4088.205078,4045.641113,4192.307617,450.000000,4.000000,95.000000,,,,0.000000,4.000000,4.000000,4.000000,4.000000,4.000000,100.000000,,,,,,,,,,,,,,,,,,,,,,,,,,,,,,,,,,,,,,,,,,,,,,,,,,,,,,,,,,,,,,,
1656265771.635232,126.000000,0.000000,4262.051270,4213.846191,4090.769287,4050.769287,4210.256348,450.000000,4.000000,95.000000,,,,0.000000,4.000000,4.000000,4.000000,4.000000,4.000000,100.000000,,,,,,,,,,,,,,,,,,,,,,,,,,,,,,,,,,,,,,,,,,,,,,,,,,,,,,,,,,,,,,,
1656265771.643146,127.000000,0.000000,4246.666504,4207.692383,4086.666748,4075.384521,4206.153809,243.000000,4.000000,95.000000,,,,0.000000,4.000000,4.000000,4.000000,4.000000,4.000000,100.000000,,,,,,,,,,,,,,,,,,,,,,,,,,,,,,,,,,,,,,,,,,,,,,,,,,,,,,,,,,,,,,,
1656265771.650960,0.000000,0.000000,4250.256348,4227.692383,4106.666504,4070.769287,4194.871582,450.000000,4.000000,95.000000,,,,0.000000,4.000000,4.000000,4.000000,4.000000,4.000000,100.000000,,,,,,,,,,,,,,,,,,,,,,,,,,,,,,,,,,,,,,,,,,,,,,,,,,,,,,,,,,,,,,,
1656265771.658875,1.000000,0.000000,4272.307617,4244.102539,4113.846191,4037.435791,4190.256348,450.000000,4.000000,95.000000,,,,0.000000,4.000000,4.000000,4.000000,4.000000,4.000000,100.000000,,,,,,,,,,,,,,,,,,,,,,,,,,,,,,,,,,,,,,,,,,,,,,,,,,,,,,,,,,,,,,,
1656265771.666689,2.000000,0.000000,4263.589844,4226.153809,4097.436035,4042.564209,4204.102539,16190.000000,4.000000,95.000000,,,,0.000000,4.000000,4.000000,4.000000,4.000000,4.000000,100.000000,,,,,,,,,,,,,,,,,,,,,,,,,,,,,,,,,,,,,,,,,,,,,,,,,,,,,,,,,,,,,,,
1656265771.674604,3.000000,0.000000,4216.922852,4220.512695,4086.153809,4067.179443,4210.256348,450.000000,4.000000,95.000000,,,,0.000000,4.000000,4.000000,4.000000,4.000000,4.000000,100.000000,,,,,,,,,,,,,,,,,,,,,,,,,,,,,,,,,,,,,,,,,,,,,,,,,,,,,,,,,,,,,,,
1656265771.682418,4.000000,0.000000,4193.846191,4218.461426,4064.102539,4047.692383,4196.410156,16202.000000,4.000000,95.000000,,,,0.000000,4.000000,4.000000,4.000000,4.000000,4.000000,100.000000,,,,,,,,,,,,,,,,,,,,,,,,,,,,,,,,,,,,,,,,,,,,,,,,,,,,,,,,,,,,,,,
1656265771.690332,5.000000,0.000000,4236.410156,4206.153809,4058.974365,4037.435791,4203.589844,450.000000,4.000000,95.000000,,,,0.000000,4.000000,4.000000,4.000000,4.000000,4.000000,100.000000,,,,,,,,,,,,,,,,,,,,,,,,,,,,,,,,,,,,,,,,,,,,,,,,,,,,,,,,,,,,,,,
1656265771.698147,6.000000,0.000000,4270.256348,4222.051270,4080.512939,4064.102539,4210.769043,16150.000000,4.000000,95.000000,,,,0.000000,4.000000,4.000000,4.000000,4.000000,4.000000,100.000000,,,,,,,,,,,,,,,,,,,,,,,,,,,,,,,,,,,,,,,,,,,,,,,,,,,,,,,,,,,,,,,
1656265771.706061,7.000000,0.000000,4261.538574,4241.025879,4087.692383,4062.051270,4196.922852,450.000000,4.000000,95.000000,,,,0.000000,4.000000,4.000000,4.000000,4.000000,4.000000,100.000000,,,,,,,,,,,,,,,,,,,,,,,,,,,,,,,,,,,,,,,,,,,,,,,,,,,,,,,,,,,,,,,
1656265771.713875,8.000000,0.000000,4236.922852,4214.871582,4077.435791,4040.512939,4184.102539,450.000000,4.000000,95.000000,,,,0.000000,4.000000,4.000000,4.000000,4.000000,4.000000,100.000000,1.000000,83.333336,3.000000,4.000000,4.000000,4.000000,3.000000,,,,,,,,,,,,,,,,,,,,,,,,,,,,,,,,3.012153,6.264181,3.060059,10.162790,8.112513,0.411352,1.842075,0.799067,5.661776,3.935937,2.504846,3.055735,3.219161,4.324068,1.845081,3.653340,3.951511,4.613002,4.814105,1.847765,2.462077,4.570367,4.185953,5.195074,5.389269
1656265771.721590,9.000000,0.000000,4207.179688,4192.820313,4071.794922,4037.435791,4176.410156,16170.000000,4.000000,95.000000,,,,0.000000,4.000000,4.000000,4.000000,4.000000,4.000000,100.000000,,,,,,,,,,,,,,,,,,,,,,,,,,,,,,,,,,,,,,,,,,,,,,,,,,,,,,,,,,,,,,,
1656265771.729504,10.000000,0.000000,4235.897461,4238.461426,4080.000000,4053.333252,4204.102539,450.000000,4.000000,95.000000,,,,0.000000,4.000000,4.000000,4.000000,4.000000,4.000000,100.000000,,,,,,,,,,,,,,,,,,,,,,,,,,,,,,,,,,,,,,,,,,,,,,,,,,,,,,,,,,,,,,,
1656265771.737319,11.000000,0.000000,4305.128418,4262.563965,4085.641113,4072.820557,4234.871582,16103.000000,4.000000,95.000000,,,,0.000000,4.000000,4.000000,4.000000,4.000000,4.000000,100.000000,,,,,,,,,,,,,,,,,,,,,,,,,,,,,,,,,,,,,,,,,,,,,,,,,,,,,,,,,,,,,,,
1656265771.745233,12.000000,0.000000,4298.974121,4232.307617,4101.025879,4073.846191,4202.051270,450.000000,4.000000,95.000000,,,,0.000000,4.000000,4.000000,4.000000,4.000000,4.000000,100.000000,,,,,,,,,,,,,,,,,,,,,,,,,,,,,,,,,,,,,,,,,,,,,,,,,,,,,,,,,,,,,,,
1656265771.753047,13.000000,0.000000,4236.410156,4231.794922,4100.000000,4045.128174,4167.692383,450.000000,4.000000,95.000000,,,,0.000000,4.000000,4.000000,4.000000,4.000000,4.000000,100.000000,,,,,,,,,,,,,,,,,,,,,,,,,,,,,,,,,,,,,,,,,,,,,,,,,,,,,,,,,,,,,,,
1656265771.760962,14.000000,0.000000,4211.794922,4234.871582,4064.615479,4027.179443,4184.102539,450.000000,4.000000,95.000000,,,,0.000000,4.000000,4.000000,4.000000,4.000000,4.000000,100.000000,,,,,,,,,,,,,,,,,,,,,,,,,,,,,,,,,,,,,,,,,,,,,,,,,,,,,,,,,,,,,,,
1656265771.768776,15.000000,0.000000,4237.436035,4222.563965,4069.230713,4054.358887,4197.948730,16103.000000,4.000000,95.000000,,,,0.000000,4.000000,4.000000,4.000000,4.000000,4.000000,100.000000,,,,,,,,,,,,,,,,,,,,,,,,,,,,,,,,,,,,,,,,,,,,,,,,,,,,,,,,,,,,,,,
1656265771.776690,16.000000,0.000000,4255.897461,4241.538574,4102.563965,4071.281982,4192.820313,0.000000,4.000000,95.000000,,,,0.000000,4.000000,4.000000,4.000000,4.000000,4.000000,100.000000,,,,,,,,,,,,,,,,,,,,,,,,,,,,,,,,,,,,,,,,,,,,,,,,,,,,,,,,,,,,,,,
1656265771.784505,17.000000,0.000000,4244.615234,4258.974121,4094.871826,4061.025635,4198.461426,0.000000,4.000000,95.000000,,,,0.000000,4.000000,4.000000,4.000000,4.000000,4.000000,100.000000,,,,,,,,,,,,,,,,,,,,,,,,,,,,,,,,,,,,,,,,,,,,,,,,,,,,,,,,,,,,,,,
1656265771.792419,18.000000,0.000000,4233.333496,4231.794922,4082.051270,4062.051270,4179.487305,0.000000,4.000000,95.000000,,,,0.000000,4.000000,4.000000,4.000000,4.000000,4.000000,100.000000,,,,,,,,,,,,,,,,,,,,,,,,,,,,,,,,,,,,,,,,,,,,,,,,,,,,,,,,,,,,,,,
1656265771.800233,19.000000,0.000000,4227.179688,4211.794922,4097.436035,4057.435791,4136.410156,0.000000,4.000000,95.000000,,,,0.000000,4.000000,4.000000,4.000000,4.000000,4.000000,100.000000,,,,,,,,,,,,,,,,,,,,,,,,,,,,,,,,,,,,,,,,,,,,,,,,,,,,,,,,,,,,,,,
1656265771.808148,20.000000,0.000000,4228.205078,4233.333496,4102.563965,4047.692383,4172.307617,0.000000,4.000000,95.000000,,,,0.000000,4.000000,4.000000,4.000000,4.000000,4.000000,100.000000,,,,,,,,,,,,,,,,,,,,,,,,,,,,,,,,,,,,,,,,,,,,,,,,,,,,,,,,,,,,,,,
1656265771.815962,21.000000,0.000000,4228.205078,4229.743652,4088.205078,4053.846191,4222.563965,0.000000,4.000000,95.000000,,,,0.000000,4.000000,4.000000,4.000000,4.000000,4.000000,100.000000,,,,,,,,,,,,,,,,,,,,,,,,,,,,,,,,,,,,,,,,,,,,,,,,,,,,,,,,,,,,,,,
1656265771.823876,22.000000,0.000000,4225.641113,4213.846191,4082.564209,4059.487061,4186.153809,0.000000,4.000000,95.000000,,,,0.000000,4.000000,4.000000,4.000000,4.000000,4.000000,100.000000,,,,,,,,,,,,,,,,,,,,,,,,,,,,,,,,,,,,,,,,,,,,,,,,,,,,,,,,,,,,,,,
1656265771.831691,23.000000,0.000000,4246.666504,4235.384766,4084.102539,4058.974365,4174.871582,0.000000,4.000000,95.000000,,,,0.000000,4.000000,4.000000,4.000000,4.000000,4.000000,100.000000,,,,,,,,,,,,,,,,,,,,,,,,,,,,,,,,,,,,,,,,,,,,,,,,,,,,,,,,,,,,,,,
1656265771.839605,24.000000,0.000000,4278.461426,4248.717773,4083.076904,4053.846191,4220.512695,0.000000,4.000000,95.000000,,,,0.000000,4.000000,4.000000,4.000000,4.000000,4.000000,100.000000,,,,,,,,,,,,,,,,,,,,,,,,,,,,,,,,,,,,,,,2.692914,5.429439,2.671540,10.043253,7.578184,0.565147,1.890470,0.719641,5.675485,3.790856,2.493632,2.951382,3.161702,4.542946,1.740847,3.155966,3.438626,3.273026,5.238494,1.905222,2.403866,4.407485,3.398222,5.067297,5.116349
1656265771.847420,25.000000,0.000000,4290.256348,4246.153809,4089.230713,4066.153809,4225.641113,0.000000,4.000000,95.000000,,,,0.000000,4.000000,4.000000,4.000000,4.000000,4.000000,100.000000,,,,,,,,,,,,,,,,,,,,,,,,,,,,,,,,,,,,,,,,,,,,,,,,,,,,,,,,,,,,,,,
1656265771.855334,26.000000,0.000000,4258.461426,4245.128418,4087.692383,4079.487061,4189.230957,0.000000,4.000000,95.000000,,,,0.000000,4.000000,4.000000,4.000000,4.000000,4.000000,100.000000,,,,,,,,,,,,,,,,,,,,,,,,,,,,,,,,,,,,,,,,,,,,,,,,,,,,,,,,,,,,,,,
1656265771.863148,27.000000,0.000000,4205.128418,4214.358887,4075.384521,4057.948730,4176.410156,0.000000,4.000000,95.000000,,,,0.000000,4.000000,4.000000,4.000000,4.000000,4.000000,100.000000,,,,,,,,,,,,,,,,,,,,,,,,,,,,,,,,,,,,,,,,,,,,,,,,,,,,,,,,,,,,,,,
1656265771.871063,28.000000,0.000000,4229.743652,4210.256348,4087.692383,4058.974365,4197.436035,0.000000,4.000000,95.000000,,,,0.000000,4.000000,4.000000,4.000000,4.000000,4.000000,100.000000,,,,,,,,,,,,,,,,,,,,,,,,,,,,,,,,,,,,,,,,,,,,,,,,,,,,,,,,,,,,,,,
1656265771.878877,29.000000,0.000000,4307.692383,4260.000000,4114.871582,4084.102539,4210.769043,0.000000,4.000000,95.000000,,,,0.000000,4.000000,4.000000,4.000000,4.000000,4.000000,100.000000,,,,,,,,,,,,,,,,,,,,,,,,,,,,,,,,,,,,,,,,,,,,,,,,,,,,,,,,,,,,,,,
1656265771.886791,30.000000,0.000000,4290.256348,4266.153809,4112.307617,4061.538574,4206.666504,0.000000,4.000000,95.000000,,,,0.000000,4.000000,4.000000,4.000000,4.000000,4.000000,100.000000,,,,,,,,,,,,,,,,,,,,,,,,,,,,,,,,,,,,,,,,,,,,,,,,,,,,,,,,,,,,,,,
1656265771.894606,31.000000,0.000000,4208.205078,4218.974121,4069.743652,4031.281982,4198.974121,0.000000,4.000000,95.000000,,,,0.000000,4.000000,4.000000,4.000000,4.000000,4.000000,100.000000,,,,,,,,,,,,,,,,,,,,,,,,,,,,,,,,,,,,,,,,,,,,,,,,,,,,,,,,,,,,,,,
1656265771.902320,32.000000,0.000000,4192.307617,4202.051270,4044.615479,4040.000000,4184.102539,0.000000,4.000000,95.000000,,,,0.000000,4.000000,4.000000,4.000000,4.000000,4.000000,100.000000,,,,,,,,,,,,,,,,,,,,,,,,,,,,,,,,,,,,,,,,,,,,,,,,,,,,,,,,,,,,,,,
1656265771.910235,33.000000,0.000000,4245.128418,4245.641113,4074.871826,4061.025635,4189.743652,0.000000,4.000000,95.000000,,,,0.000000,4.000000,4.000000,4.000000,4.000000,4.000000,100.000000,,,,,,,,,,,,,,,,,,,,,,,,,,,,,,,,,,,,,,,,,,,,,,,,,,,,,,,,,,,,,,,
1656265771.918049,34.000000,0.000000,4290.769043,4270.256348,4086.153809,4070.256348,4227.179688,0.000000,4.000000,95.000000,,,,0.000000,4.000000,4.000000,4.000000,4.000000,4.000000,100.000000,,,,,,,,,,,,,,,,,,,,,,,,,,,,,,,,,,,,,,,,,,,,,,,,,,,,,,,,,,,,,,,
1656265771.925963,35.000000,0.000000,4285.128418,4234.358887,4061.538574,4067.692383,4230.256348,0.000000,4.000000,95.000000,,,,0.000000,4.000000,4.000000,4.000000,4.000000,4.000000,100.000000,,,,,,,,,,,,,,,,,,,,,,,,,,,,,,,,,,,,,,,,,,,,,,,,,,,,,,,,,,,,,,,
1656265771.933778,36.000000,0.000000,4231.282227,4198.974121,4066.666748,4045.128174,4180.000000,0.000000,4.000000,95.000000,,,,0.000000,4.000000,4.000000,4.000000,4.000000,4.000000,100.000000,,,,,,,,,,,,,,,,,,,,,,,,,,,,,,,,,,,,,,,,,,,,,,,,,,,,,,,,,,,,,,,
1656265771.941692,37.000000,0.000000,4188.205078,4202.051270,4073.333252,4015.384521,4145.641113,0.000000,4.000000,95.000000,,,,0.000000,4.000000,4.000000,4.000000,4.000000,4.000000,100.000000,,,,,,,,,,,,,,,,,,,,,,,,,,,,,,,,,,,,,,,,,,,,,,,,,,,,,,,,,,,,,,,
1656265771.949506,38.000000,0.000000,4223.077148,4228.205078,4065.641113,4024.102539,4173.846191,0.000000,4.000000,95.000000,,,,0.000000,4.000000,4.000000,4.000000,4.000000,4.000000,100.000000,,,,,,,,,,,,,,,,,,,,,,,,,,,,,,,,,,,,,,,,,,,,,,,,,,,,,,,,,,,,,,,
1656265771.957421,39.000000,0.000000,4270.769043,4233.846191,4081.538574,4053.846191,4215.384766,0.000000,4.000000,95.000000,,,,0.000000,4.000000,4.000000,4.000000,4.000000,4.000000,100.000000,,,,,,,,,,,,,,,,,,,,,,,,,,,,,,,,,,,,,,,,,,,,,,,,,,,,,,,,,,,,,,,
1656265771.965235,40.000000,0.000000,4260.000000,4220.512695,4102.051270,4055.384521,4203.589844,0.000000,4.000000,95.000000,,,,0.000000,4.000000,4.000000,4.000000,4.000000,4.000000,100.000000,,,,,,,,,,,,,,,,,,,,,,,,,,,,,,,,,,,,,,,2.691515,4.200554,2.288976,10.126359,6.987621,0.997868,2.107999,0.820063,5.627733,3.573282,2.814342,2.964261,3.268802,4.478891,1.667815,2.695682,3.072361,2.330673,5.349409,2.040371,2.396228,3.816947,2.754154,5.012666,4.884658
1656265771.973149,41.000000,0.000000,4239.487305,4225.641113,4094.871826,4058.461426,4183.077148,0.000000,4.000000,95.000000,,,,0.000000,4.000000,4.000000,4.000000,4.000000,4.000000,100.000000,,,,,,,,,,,,,,,,,,,,,,,,,,,,,,,,,,,,,,,,,,,,,,,,,,,,,,,,,,,,,,,
1656265771.980964,42.000000,0.000000,4237.948730,4237.948730,4063.589844,4068.205078,4199.487305,0.000000,4.000000,95.000000,,,,0.000000,4.000000,4.000000,4.000000,4.000000,4.000000,100.000000,,,,,,,,,,,,,,,,,,,,,,,,,,,,,,,,,,,,,,,,,,,,,,,,,,,,,,,,,,,,,,,
1656265771.988878,43.000000,0.000000,4242.563965,4241.025879,4045.641113,4049.230713,4218.461426,0.000000,4.000000,95.000000,,,,0.000000,4.000000,4.000000,4.000000,4.000000,4.000000,100.000000,,,,,,,,,,,,,,,,,,,,,,,,,,,,,,,,,,,,,,,,,,,,,,,,,,,,,,,,,,,,,,,
1656265771.996692,44.000000,0.000000,4238.974121,4227.692383,4047.692383,4031.281982,4202.563965,0.000000,4.000000,95.000000,,,,0.000000,4.000000,4.000000,4.000000,4.000000,4.000000,100.000000,,,,,,,,,,,,,,,,,,,,,,,,,,,,,,,,,,,,,,,,,,,,,,,,,,,,,,,,,,,,,,,
1656265772.004607,45.000000,0.000000,4236.922852,4203.589844,4054.358887,4044.102539,4177.948730,0.000000,4.000000,95.000000,,,,0.000000,4.000000,4.000000,4.000000,4.000000,4.000000,100.000000,,,,,,,,,,,,,,,,,,,,,,,,,,,,,,,,,,,,,,,,,,,,,,,,,,,,,,,,,,,,,,,
1656265772.012421,46.000000,0.000000,4257.948730,4225.641113,4060.000000,4052.820557,4199.487305,0.000000,4.000000,95.000000,,,,0.000000,4.000000,4.000000,4.000000,4.000000,4.000000,100.000000,,,,,,,,,,,,,,,,,,,,,,,,,,,,,,,,,,,,,,,,,,,,,,,,,,,,,,,,,,,,,,,
1656265772.020335,47.000000,0.000000,4267.692383,4267.179688,4060.000000,4037.435791,4227.179688,0.000000,4.000000,95.000000,,,,0.000000,4.000000,4.000000,4.000000,4.000000,4.000000,100.000000,,,,,,,,,,,,,,,,,,,,,,,,,,,,,,,,,,,,,,,,,,,,,,,,,,,,,,,,,,,,,,,
1656265772.028150,48.000000,0.000000,4242.051270,4263.589844,4065.641113,4049.230713,4205.128418,0.000000,4.000000,95.000000,,,,0.000000,4.000000,4.000000,4.000000,4.000000,4.000000,100.000000,,,,,,,,,,,,,,,,,,,,,,,,,,,,,,,,,,,,,,,,,,,,,,,,,,,,,,,,,,,,,,,
1656265772.036064,49.000000,0.000000,4204.102539,4231.282227,4056.410156,4068.718018,4174.358887,0.000000,4.000000,95.000000,,,,0.000000,4.000000,4.000000,4.000000,4.000000,4.000000,100.000000,,,,,,,,,,,,,,,,,,,,,,,,,,,,,,,,,,,,,,,,,,,,,,,,,,,,,,,,,,,,,,,
1656265772.043879,50.000000,0.000000,4178.974121,4200.000000,4023.589844,4044.102539,4177.948730,0.000000,4.000000,95.000000,,,,0.000000,4.000000,4.000000,4.000000,4.000000,4.000000,100.000000,,,,,,,,,,,,,,,,,,,,,,,,,,,,,,,,,,,,,,,,,,,,,,,,,,,,,,,,,,,,,,,
1656265772.051793,51.000000,0.000000,4210.256348,4202.563965,4028.205078,4043.076904,4196.410156,0.000000,4.000000,95.000000,,,,0.000000,4.000000,4.000000,4.000000,4.000000,4.000000,100.000000,,,,,,,,,,,,,,,,,,,,,,,,,,,,,,,,,,,,,,,,,,,,,,,,,,,,,,,,,,,,,,,
1656265772.059607,52.000000,0.000000,4263.589844,4234.871582,4072.820557,4071.281982,4194.871582,0.000000,4.000000,95.000000,,,,0.000000,4.000000,4.000000,4.000000,4.000000,4.000000,100.000000,,,,,,,,,,,,,,,,,,,,,,,,,,,,,,,,,,,,,,,,,,,,,,,,,,,,,,,,,,,,,,,
1656265772.067322,53.000000,0.000000,4262.051270,4242.563965,4087.179443,4061.025635,4197.436035,0.000000,4.000000,95.000000,,,,0.000000,4.000000,4.000000,4.000000,4.000000,4.000000,100.000000,,,,,,,,,,,,,,,,,,,,,,,,,,,,,,,,,,,,,,,,,,,,,,,,,,,,,,,,,,,,,,,
1656265772.075236,54.000000,0.000000,4231.794922,4212.307617,4053.846191,4043.589844,4206.666504,0.000000,4.000000,95.000000,,,,0.000000,4.000000,4.000000,4.000000,4.000000,4.000000,100.000000,,,,,,,,,,,,,,,,,,,,,,,,,,,,,,,,,,,,,,,,,,,,,,,,,,,,,,,,,,,,,,,
1656265772.083051,55.000000,0.000000,4221.538574,4203.589844,4032.820557,4060.000000,4198.461426,0.000000,4.000000,95.000000,,,,0.000000,4.000000,4.000000,4.000000,4.000000,4.000000,100.000000,,,,,,,,,,,,,,,,,,,,,,,,,,,,,,,,,,,,,,,,,,,,,,,,,,,,,,,,,,,,,,,
1656265772.090965,56.000000,0.000000,4238.974121,4228.205078,4069.743652,4083.076904,4192.820313,0.000000,4.000000,95.000000,,,,0.000000,4.000000,4.000000,4.000000,4.000000,4.000000,100.000000,,,,,,,,,,,,,,,,,,,,,,,,,,,,,,,,,,,,,,,2.934422,2.983836,1.968219,10.189235,6.415949,1.632204,2.373037,1.081021,5.463990,3.342669,3.377029,3.217654,3.445733,4.160171,1.660663,2.278243,2.944050,1.968886,5.102116,2.167212,2.393785,3.013304,2.289345,4.935009,4.671887
1656265772.098779,57.000000,0.000000,4267.179688,4229.230957,4102.563965,4064.615479,4198.974121,0.000000,4.000000,95.000000,,,,0.000000,4.000000,4.000000,4.000000,4.000000,4.000000,100.000000,,,,,,,,,,,,,,,,,,,,,,,,,,,,,,,,,,,,,,,,,,,,,,,,,,,,,,,,,,,,,,,
1656265772.106694,58.000000,0.000000,4274.871582,4216.922852,4092.307617,4036.410156,4203.077148,0.000000,4.000000,95.000000,,,,0.000000,4.000000,4.000000,4.000000,4.000000,4.000000,100.000000,,,,,,,,,,,,,,,,,,,,,,,,,,,,,,,,,,,,,,,,,,,,,,,,,,,,,,,,,,,,,,,
1656265772.114508,59.000000,0.000000,4241.538574,4225.641113,4084.102539,4041.538574,4203.589844,0.000000,4.000000,95.000000,,,,0.000000,4.000000,4.000000,4.000000,4.000000,4.000000,100.000000,,,,,,,,,,,,,,,,,,,,,,,,,,,,,,,,,,,,,,,,,,,,,,,,,,,,,,,,,,,,,,,
1656265772.122322,60.000000,0.000000,4208.205078,4224.102539,4070.256348,4040.512939,4190.256348,0.000000,4.000000,95.000000,,,,0.000000,4.000000,4.000000,4.000000,4.000000,4.000000,100.000000,,,,,,,,,,,,,,,,,,,,,,,,,,,,,,,,,,,,,,,,,,,,,,,,,,,,,,,,,,,,,,,
1656265772.130037,61.000000,0.000000,4221.025879,4224.615234,4048.205078,4025.128174,4182.051270,0.000000,4.000000,95.000000,,,,0.000000,4.000000,4.000000,4.000000,4.000000,4.000000,100.000000,,,,,,,,,,,,,,,,,,,,,,,,,,,,,,,,,,,,,,,,,,,,,,,,,,,,,,,,,,,,,,,
1656265772.137851,62.000000,0.000000,4238.974121,4237.436035,4052.820557,4027.179443,4187.179688,0.000000,4.000000,95.000000,,,,0.000000,4.000000,4.000000,4.000000,4.000000,4.000000,100.000000,,,,,,,,,,,,,,,,,,,,,,,,,,,,,,,,,,,,,,,,,,,,,,,,,,,,,,,,,,,,,,,
1656265772.145566,63.000000,0.000000,4237.436035,4229.230957,4069.743652,4037.948730,4185.128418,0.000000,4.000000,95.000000,,,,0.000000,4.000000,4.000000,4.000000,4.000000,4.000000,100.000000,,,,,,,,,,,,,,,,,,,,,,,,,,,,,,,,,,,,,,,,,,,,,,,,,,,,,,,,,,,,,,,
1656265772.153480,64.000000,0.000000,4243.589844,4219.487305,4066.666748,4052.307617,4200.512695,450.000000,4.000000,95.000000,,,,0.000000,4.000000,4.000000,4.000000,4.000000,4.000000,100.000000,,,,,,,,,,,,,,,,,,,,,,,,,,,,,,,,,,,,,,,,,,,,,,,,,,,,,,,,,,,,,,,
1656265772.161295,65.000000,0.000000,4241.538574,4220.000000,4060.512939,4060.000000,4207.179688,450.000000,4.000000,95.000000,,,,0.000000,4.000000,4.000000,4.000000,4.000000,4.000000,100.000000,,,,,,,,,,,,,,,,,,,,,,,,,,,,,,,,,,,,,,,,,,,,,,,,,,,,,,,,,,,,,,,
1656265772.169209,66.000000,0.000000,4241.538574,4221.025879,4069.743652,4057.435791,4199.487305,16160.000000,4.000000,95.000000,,,,0.000000,4.000000,4.000000,4.000000,4.000000,4.000000,100.000000,,,,,,,,,,,,,,,,,,,,,,,,,,,,,,,,,,,,,,,,,,,,,,,,,,,,,,,,,,,,,,,
1656265772.177023,67.000000,0.000000,4238.974121,4215.897461,4078.461426,4059.487061,4200.512695,450.000000,4.000000,95.000000,,,,0.000000,4.000000,4.000000,4.000000,4.000000,4.000000,100.000000,,,,,,,,,,,,,,,,,,,,,,,,,,,,,,,,,,,,,,,,,,,,,,,,,,,,,,,,,,,,,,,
1656265772.184938,68.000000,0.000000,4218.461426,4210.256348,4078.974365,4062.051270,4194.871582,16159.000000,4.000000,95.000000,,,,0.000000,4.000000,4.000000,4.000000,4.000000,4.000000,100.000000,,,,,,,,,,,,,,,,,,,,,,,,,,,,,,,,,,,,,,,,,,,,,,,,,,,,,,,,,,,,,,,
1656265772.192752,69.000000,0.000000,4246.153809,4228.205078,4081.025635,4064.102539,4210.769043,450.000000,4.000000,95.000000,,,,0.000000,4.000000,4.000000,4.000000,4.000000,4.000000,100.000000,,,,,,,,,,,,,,,,,,,,,,,,,,,,,,,,,,,,,,,,,,,,,,,,,,,,,,,,,,,,,,,
1656265772.200666,70.000000,0.000000,4291.282227,4241.025879,4087.179443,4069.230713,4238.461426,16120.000000,4.000000,95.000000,,,,0.000000,4.000000,4.000000,4.000000,4.000000,4.000000,100.000000,,,,,,,,,,,,,,,,,,,,,,,,,,,,,,,,,,,,,,,,,,,,,,,,,,,,,,,,,,,,,,,
1656265772.208481,71.000000,0.000000,4272.820313,4228.205078,4095.897461,4065.641113,4225.128418,450.000000,4.000000,95.000000,,,,0.000000,4.000000,4.000000,4.000000,4.000000,4.000000,100.000000,,,,,,,,,,,,,,,,,,,,,,,,,,,,,,,,,,,,,,,,,,,,,,,,,,,,,,,,,,,,,,,
1656265772.216395,72.000000,0.000000,4222.051270,4221.538574,4080.512939,4041.025635,4180.512695,450.000000,4.000000,95.000000,,,,0.000000,4.000000,4.000000,4.000000,4.000000,4.000000,100.000000,1.000000,83.333336,3.000000,4.000000,4.000000,4.000000,3.000000,,,,,,,,,,,,,,,,,,,,,,,,,,,,,,,,3.253357,2.153506,1.718612,10.112332,5.962482,2.306747,2.544804,1.449327,5.156601,3.163616,4.006238,3.682491,3.599050,3.710891,1.722799,1.913730,2.995028,2.087244,4.591836,2.231877,2.359785,2.241561,1.963936,4.788479,4.454704
1656265772.224309,73.000000,0.000000,4191.282227,4227.179688,4048.205078,4026.153809,4166.153809,16145.000000,4.000000,95.000000,,,,0.000000,4.000000,4.000000,4.000000,4.000000,4.000000,100.000000,,,,,,,,,,,,,,,,,,,,,,,,,,,,,,,,,,,,,,,,,,,,,,,,,,,,,,,,,,,,,,,
1656265772.232124,74.000000,0.000000,4231.794922,4238.461426,4059.487061,4061.025635,4192.307617,450.000000,4.000000,95.000000,,,,0.000000,4.000000,4.000000,4.000000,4.000000,4.000000,100.000000,,,,,,,,,,,,,,,,,,,,,,,,,,,,,,,,,,,,,,,,,,,,,,,,,,,,,,,,,,,,,,,
1656265772.240038,75.000000,0.000000,4301.025879,4246.666504,4084.615479,4092.307617,4211.794922,16157.000000,4.000000,95.000000,,,,0.000000,4.000000,4.000000,4.000000,4.000000,4.000000,100.000000,,,,,,,,,,,,,,,,,,,,,,,,,,,,,,,,,,,,,,,,,,,,,,,,,,,,,,,,,,,,,,,
1656265772.247852,76.000000,0.000000,4293.333496,4244.615234,4064.615479,4086.153809,4219.487305,450.000000,4.000000,95.000000,,,,0.000000,4.000000,4.000000,4.000000,4.000000,4.000000,100.000000,,,,,,,,,,,,,,,,,,,,,,,,,,,,,,,,,,,,,,,,,,,,,,,,,,,,,,,,,,,,,,,
1656265772.255667,77.000000,0.000000,4223.589844,4235.384766,4048.205078,4069.743652,4208.717773,450.000000,4.000000,95.000000,,,,0.000000,4.000000,4.000000,4.000000,4.000000,4.000000,100.000000,,,,,,,,,,,,,,,,,,,,,,,,,,,,,,,,,,,,,,,,,,,,,,,,,,,,,,,,,,,,,,,
1656265772.263381,78.000000,0.000000,4195.897461,4218.461426,4059.487061,4046.666748,4182.051270,450.000000,4.000000,95.000000,,,,0.000000,4.000000,4.000000,4.000000,4.000000,4.000000,100.000000,,,,,,,,,,,,,,,,,,,,,,,,,,,,,,,,,,,,,,,,,,,,,,,,,,,,,,,,,,,,,,,
1656265772.271296,79.000000,0.000000,4232.820313,4229.230957,4079.487061,4035.897461,4198.974121,16157.000000,4.000000,95.000000,,,,0.000000,4.000000,4.000000,4.000000,4.000000,4.000000,100.000000,,,,,,,,,,,,,,,,,,,,,,,,,,,,,,,,,,,,,,,,,,,,,,,,,,,,,,,,,,,,,,,
1656265772.279110,80.000000,0.000000,4270.769043,4266.666504,4094.358887,4063.076904,4244.615234,450.000000,4.000000,95.000000,,,,0.000000,4.000000,4.000000,4.000000,4.000000,4.000000,100.000000,,,,,,,,,,,,,,,,,,,,,,,,,,,,,,,,,,,,,,,,,,,,,,,,,,,,,,,,,,,,,,,
1656265772.287024,81.000000,0.000000,4277.436035,4261.025879,4084.615479,4092.307617,4243.589844,450.000000,4.000000,95.000000,,,,0.000000,4.000000,4.000000,4.000000,4.000000,4.000000,100.000000,,,,,,,,,,,,,,,,,,,,,,,,,,,,,,,,,,,,,,,,,,,,,,,,,,,,,,,,,,,,,,,
1656265772.294839,82.000000,0.000000,4255.897461,4215.384766,4068.718018,4064.615479,4206.666504,450.000000,4.000000,95.000000,,,,0.000000,4.000000,4.000000,4.000000,4.000000,4.000000,100.000000,,,,,,,,,,,,,,,,,,,,,,,,,,,,,,,,,,,,,,,,,,,,,,,,,,,,,,,,,,,,,,,
1656265772.302653,83.000000,0.000000,4225.641113,4192.820313,4066.666748,4017.435791,4188.717773,16157.000000,4.000000,95.000000,,,,0.000000,4.000000,4.000000,4.000000,4.000000,4.000000,100.000000,,,,,,,,,,,,,,,,,,,,,,,,,,,,,,,,,,,,,,,,,,,,,,,,,,,,,,,,,,,,,,,
1656265772.310368,84.000000,0.000000,4235.897461,4207.179688,4084.102539,4041.538574,4210.769043,450.000000,4.000000,95.000000,,,,0.000000,4.000000,4.000000,4.000000,4.000000,4.000000,100.000000,,,,,,,,,,,,,,,,,,,,,,,,,,,,,,,,,,,,,,,,,,,,,,,,,,,,,,,,,,,,,,,
1656265772.318282,85.000000,0.000000,4273.846191,4223.077148,4109.230957,4076.410156,4223.589844,450.000000,4.000000,95.000000,,,,0.000000,4.000000,4.000000,4.000000,4.000000,4.000000,100.000000,,,,,,,,,,,,,,,,,,,,,,,,,,,,,,,,,,,,,,,,,,,,,,,,,,,,,,,,,,,,,,,
