title:david_g_Left, start timestamp:1656264871.546076, stop timestamp:1656264876.569486, headset type:INSIGHT, headset serial:A2D201AE, headset firmware:932, channels:84, sampling rate:eeg_128;pm_0.1;pow_8, samples:646       , version:2.1, 
Timestamp,EEG.Counter,EEG.Interpolated,EEG.AF3,EEG.T7,EEG.Pz,EEG.T8,EEG.AF4,EEG.RawCq,EEG.Battery,EEG.BatteryPercent,MarkerIndex,MarkerType,MarkerValueInt,EEG.MarkerHardware,CQ.AF3,CQ.T7,CQ.Pz,CQ.T8,CQ.AF4,CQ.Overall,EQ.SampleRateQuality,EQ.OVERALL,EQ.AF3,EQ.T7,EQ.Pz,EQ.T8,EQ.AF4,PM.Engagement.IsActive,PM.Engagement.Scaled,PM.Engagement.Raw,PM.Engagement.Min,PM.Engagement.Max,PM.Excitement.IsActive,PM.Excitement.Scaled,PM.Excitement.Raw,PM.Excitement.Min,PM.Excitement.Max,PM.LongTermExcitement,PM.Stress.IsActive,PM.Stress.Scaled,PM.Stress.Raw,PM.Stress.Min,PM.Stress.Max,PM.Relaxation.IsActive,PM.Relaxation.Scaled,PM.Relaxation.Raw,PM.Relaxation.Min,PM.Relaxation.Max,PM.Interest.IsActive,PM.Interest.Scaled,PM.Interest.Raw,PM.Interest.Min,PM.Interest.Max,PM.Focus.IsActive,PM.Focus.Scaled,PM.Focus.Raw,PM.Focus.Min,PM.Focus.Max,POW.AF3.Theta,POW.AF3.Alpha,POW.AF3.BetaL,POW.AF3.BetaH,POW.AF3.Gamma,POW.T7.Theta,POW.T7.Alpha,POW.T7.BetaL,POW.T7.BetaH,POW.T7.Gamma,POW.Pz.Theta,POW.Pz.Alpha,POW.Pz.BetaL,POW.Pz.BetaH,POW.Pz.Gamma,POW.T8.Theta,POW.T8.Alpha,POW.T8.BetaL,POW.T8.BetaH,POW.T8.Gamma,POW.AF4.Theta,POW.AF4.Alpha,POW.AF4.BetaL,POW.AF4.BetaH,POW.AF4.Gamma
1656264871.546076,95.000000,0.000000,4281.025879,4215.384766,4121.538574,4097.436035,4197.948730,16167.000000,4.000000,86.000000,,,,0.000000,4.000000,4.000000,4.000000,4.000000,4.000000,100.000000,,,,,,,,,,,,,,,,,,,,,,,,,,,,,,,,,,,,,,,4.736238,3.671133,2.218846,1.972763,0.821445,1.991278,1.686770,1.647395,0.634006,1.510013,9.204375,2.453128,1.268717,1.858089,1.542124,2.657784,2.365685,1.175170,1.214071,0.667325,7.374574,3.202377,1.508751,2.258658,1.287312
1656264871.553991,96.000000,0.000000,4276.922852,4253.846191,4093.333252,4108.205078,4220.000000,450.000000,4.000000,86.000000,,,,0.000000,4.000000,4.000000,4.000000,4.000000,4.000000,100.000000,,,,,,,,,,,,,,,,,,,,,,,,,,,,,,,,,,,,,,,,,,,,,,,,,,,,,,,,,,,,,,,
1656264871.561905,97.000000,0.000000,4270.769043,4243.589844,4067.179443,4100.000000,4225.128418,450.000000,4.000000,86.000000,,,,0.000000,4.000000,4.000000,4.000000,4.000000,4.000000,100.000000,,,,,,,,,,,,,,,,,,,,,,,,,,,,,,,,,,,,,,,,,,,,,,,,,,,,,,,,,,,,,,,
1656264871.569719,98.000000,0.000000,4273.846191,4213.846191,4087.179443,4082.051270,4221.025879,450.000000,4.000000,86.000000,,,,0.000000,4.000000,4.000000,4.000000,4.000000,4.000000,100.000000,,,,,,,,,,,,,,,,,,,,,,,,,,,,,,,,,,,,,,,,,,,,,,,,,,,,,,,,,,,,,,,
1656264871.577534,99.000000,0.000000,4260.512695,4228.717773,4104.615234,4072.307617,4214.871582,16167.000000,4.000000,86.000000,,,,0.000000,4.000000,4.000000,4.000000,4.000000,4.000000,100.000000,,,,,,,,,,,,,,,,,,,,,,,,,,,,,,,,,,,,,,,,,,,,,,,,,,,,,,,,,,,,,,,
1656264871.585448,100.000000,0.000000,4255.384766,4248.717773,4100.512695,4083.589844,4212.307617,450.000000,4.000000,86.000000,,,,0.000000,4.000000,4.000000,4.000000,4.000000,4.000000,100.000000,,,,,,,,,,,,,,,,,,,,,,,,,,,,,,,,,,,,,,,,,,,,,,,,,,,,,,,,,,,,,,,
1656264871.593262,101.000000,0.000000,4282.051270,4235.384766,4100.512695,4107.179688,4216.410156,450.000000,4.000000,86.000000,,,,0.000000,4.000000,4.000000,4.000000,4.000000,4.000000,100.000000,,,,,,,,,,,,,,,,,,,,,,,,,,,,,,,,,,,,,,,,,,,,,,,,,,,,,,,,,,,,,,,
1656264871.601177,102.000000,0.000000,4279.487305,4231.282227,4115.384766,4101.025879,4222.563965,450.000000,4.000000,86.000000,,,,0.000000,4.000000,4.000000,4.000000,4.000000,4.000000,100.000000,,,,,,,,,,,,,,,,,,,,,,,,,,,,,,,,,,,,,,,,,,,,,,,,,,,,,,,,,,,,,,,
1656264871.608991,103.000000,0.000000,4270.769043,4246.153809,4130.256348,4091.281982,4231.794922,16167.000000,4.000000,86.000000,,,,0.000000,4.000000,4.000000,4.000000,4.000000,4.000000,100.000000,,,,,,,,,,,,,,,,,,,,,,,,,,,,,,,,,,,,,,,,,,,,,,,,,,,,,,,,,,,,,,,
1656264871.616706,104.000000,0.000000,4298.461426,4234.871582,4124.102539,4111.282227,4226.666504,450.000000,4.000000,86.000000,,,,0.000000,4.000000,4.000000,4.000000,4.000000,4.000000,100.000000,,,,,,,,,,,,,,,,,,,,,,,,,,,,,,,,,,,,,,,,,,,,,,,,,,,,,,,,,,,,,,,
1656264871.624620,105.000000,0.000000,4294.871582,4209.230957,4118.461426,4120.000000,4205.641113,450.000000,4.000000,86.000000,,,,0.000000,4.000000,4.000000,4.000000,4.000000,4.000000,100.000000,,,,,,,,,,,,,,,,,,,,,,,,,,,,,,,,,,,,,,,,,,,,,,,,,,,,,,,,,,,,,,,
1656264871.632434,106.000000,0.000000,4247.179688,4228.717773,4117.436035,4094.871826,4193.846191,450.000000,4.000000,86.000000,,,,0.000000,4.000000,4.000000,4.000000,4.000000,4.000000,100.000000,,,,,,,,,,,,,,,,,,,,,,,,,,,,,,,,,,,,,,,,,,,,,,,,,,,,,,,,,,,,,,,
1656264871.640249,107.000000,0.000000,4231.794922,4264.102539,4106.153809,4074.871826,4195.897461,16167.000000,4.000000,86.000000,,,,0.000000,4.000000,4.000000,4.000000,4.000000,4.000000,100.000000,,,,,,,,,,,,,,,,,,,,,,,,,,,,,,,,,,,,,,,,,,,,,,,,,,,,,,,,,,,,,,,
1656264871.647963,108.000000,0.000000,4255.897461,4263.589844,4104.102539,4080.512939,4208.717773,450.000000,4.000000,86.000000,,,,0.000000,4.000000,4.000000,4.000000,4.000000,4.000000,100.000000,,,,,,,,,,,,,,,,,,,,,,,,,,,,,,,,,,,,,,,,,,,,,,,,,,,,,,,,,,,,,,,
1656264871.655778,109.000000,0.000000,4249.230957,4252.820313,4097.436035,4085.128174,4224.102539,450.000000,4.000000,86.000000,,,,0.000000,4.000000,4.000000,4.000000,4.000000,4.000000,100.000000,,,,,,,,,,,,,,,,,,,,,,,,,,,,,,,,,,,,,,,,,,,,,,,,,,,,,,,,,,,,,,,
1656264871.663492,110.000000,0.000000,4223.077148,4247.179688,4093.333252,4074.358887,4217.436035,450.000000,4.000000,86.000000,,,,0.000000,4.000000,4.000000,4.000000,4.000000,4.000000,100.000000,,,,,,,,,,,,,,,,,,,,,,,,,,,,,,,,,,,,,,,,,,,,,,,,,,,,,,,,,,,,,,,
1656264871.671307,111.000000,0.000000,4253.846191,4232.820313,4116.922852,4082.564209,4211.794922,16167.000000,4.000000,86.000000,,,,0.000000,4.000000,4.000000,4.000000,4.000000,4.000000,100.000000,,,,,,,,,,,,,,,,,,,,,,,,,,,,,,,,,,,,,,,5.506715,4.003580,2.307830,1.896922,0.804694,1.994605,1.891099,2.140563,0.711458,1.368107,9.553289,2.741458,1.437634,1.944086,1.372383,2.525813,2.505221,1.313974,1.075942,0.680299,6.071307,3.289165,1.273706,2.192563,1.200507
1656264871.679021,112.000000,0.000000,4297.436035,4215.384766,4129.230957,4124.102539,4217.948730,450.000000,4.000000,86.000000,,,,0.000000,4.000000,4.000000,4.000000,4.000000,4.000000,100.000000,,,,,,,,,,,,,,,,,,,,,,,,,,,,,,,,,,,,,,,,,,,,,,,,,,,,,,,,,,,,,,,
1656264871.686836,113.000000,0.000000,4291.794922,4227.179688,4122.563965,4145.128418,4223.077148,450.000000,4.000000,86.000000,,,,0.000000,4.000000,4.000000,4.000000,4.000000,4.000000,100.000000,,,,,,,,,,,,,,,,,,,,,,,,,,,,,,,,,,,,,,,,,,,,,,,,,,,,,,,,,,,,,,,
1656264871.694550,114.000000,0.000000,4266.666504,4246.666504,4109.230957,4107.692383,4221.538574,450.000000,4.000000,86.000000,,,,0.000000,4.000000,4.000000,4.000000,4.000000,4.000000,100.000000,,,,,,,,,,,,,,,,,,,,,,,,,,,,,,,,,,,,,,,,,,,,,,,,,,,,,,,,,,,,,,,
1656264871.702364,115.000000,0.000000,4257.948730,4243.077148,4094.358887,4076.923096,4211.794922,16167.000000,4.000000,86.000000,,,,0.000000,4.000000,4.000000,4.000000,4.000000,4.000000,100.000000,,,,,,,,,,,,,,,,,,,,,,,,,,,,,,,,,,,,,,,,,,,,,,,,,,,,,,,,,,,,,,,
1656264871.710079,116.000000,0.000000,4265.128418,4238.461426,4110.256348,4097.436035,4203.589844,450.000000,4.000000,86.000000,,,,0.000000,4.000000,4.000000,4.000000,4.000000,4.000000,100.000000,,,,,,,,,,,,,,,,,,,,,,,,,,,,,,,,,,,,,,,,,,,,,,,,,,,,,,,,,,,,,,,
1656264871.717893,117.000000,0.000000,4269.743652,4238.974121,4139.487305,4100.000000,4196.410156,450.000000,4.000000,86.000000,,,,0.000000,4.000000,4.000000,4.000000,4.000000,4.000000,100.000000,,,,,,,,,,,,,,,,,,,,,,,,,,,,,,,,,,,,,,,,,,,,,,,,,,,,,,,,,,,,,,,
1656264871.725608,118.000000,0.000000,4275.384766,4242.051270,4137.436035,4085.128174,4205.128418,450.000000,4.000000,86.000000,,,,0.000000,4.000000,4.000000,4.000000,4.000000,4.000000,100.000000,,,,,,,,,,,,,,,,,,,,,,,,,,,,,,,,,,,,,,,,,,,,,,,,,,,,,,,,,,,,,,,
1656264871.733522,119.000000,0.000000,4270.256348,4237.436035,4116.410156,4078.461426,4218.461426,16167.000000,4.000000,86.000000,,,,0.000000,4.000000,4.000000,4.000000,4.000000,4.000000,100.000000,,,,,,,,,,,,,,,,,,,,,,,,,,,,,,,,,,,,,,,,,,,,,,,,,,,,,,,,,,,,,,,
1656264871.741337,120.000000,0.000000,4251.794922,4221.025879,4108.717773,4069.230713,4207.692383,450.000000,4.000000,86.000000,,,,0.000000,4.000000,4.000000,4.000000,4.000000,4.000000,100.000000,,,,,,,,,,,,,,,,,,,,,,,,,,,,,,,,,,,,,,,,,,,,,,,,,,,,,,,,,,,,,,,
1656264871.749251,121.000000,0.000000,4255.384766,4228.717773,4112.307617,4088.718018,4208.717773,450.000000,4.000000,86.000000,,,,0.000000,4.000000,4.000000,4.000000,4.000000,4.000000,100.000000,,,,,,,,,,,,,,,,,,,,,,,,,,,,,,,,,,,,,,,,,,,,,,,,,,,,,,,,,,,,,,,
1656264871.757065,122.000000,0.000000,4265.128418,4249.230957,4112.307617,4105.128418,4226.666504,450.000000,4.000000,86.000000,,,,0.000000,4.000000,4.000000,4.000000,4.000000,4.000000,100.000000,,,,,,,,,,,,,,,,,,,,,,,,,,,,,,,,,,,,,,,,,,,,,,,,,,,,,,,,,,,,,,,
1656264871.764880,123.000000,0.000000,4271.282227,4245.128418,4121.538574,4087.692383,4228.205078,16167.000000,4.000000,86.000000,,,,0.000000,4.000000,4.000000,4.000000,4.000000,4.000000,100.000000,,,,,,,,,,,,,,,,,,,,,,,,,,,,,,,,,,,,,,,,,,,,,,,,,,,,,,,,,,,,,,,
1656264871.772594,124.000000,0.000000,4289.230957,4249.230957,4118.974121,4097.436035,4239.487305,450.000000,4.000000,86.000000,,,,0.000000,4.000000,4.000000,4.000000,4.000000,4.000000,100.000000,,,,,,,,,,,,,,,,,,,,,,,,,,,,,,,,,,,,,,,,,,,,,,,,,,,,,,,,,,,,,,,
1656264871.780509,125.000000,0.000000,4301.025879,4257.948730,4109.230957,4132.307617,4258.974121,450.000000,4.000000,86.000000,,,,0.000000,4.000000,4.000000,4.000000,4.000000,4.000000,100.000000,,,,,,,,,,,,,,,,,,,,,,,,,,,,,,,,,,,,,,,,,,,,,,,,,,,,,,,,,,,,,,,
1656264871.788323,126.000000,0.000000,4291.794922,4249.230957,4121.538574,4129.743652,4245.128418,450.000000,4.000000,86.000000,,,,0.000000,4.000000,4.000000,4.000000,4.000000,4.000000,100.000000,,,,,,,,,,,,,,,,,,,,,,,,,,,,,,,,,,,,,,,,,,,,,,,,,,,,,,,,,,,,,,,
1656264871.796037,127.000000,0.000000,4276.410156,4254.871582,4113.333496,4111.794922,4228.205078,241.000000,4.000000,86.000000,,,,0.000000,4.000000,4.000000,4.000000,4.000000,4.000000,100.000000,,,,,,,,,,,,,,,,,,,,,,,,,,,,,,,,,,,,,,,6.286811,4.454874,2.342060,1.790573,0.786643,2.073630,2.174017,2.581309,0.845596,1.318212,9.769137,3.216818,1.689284,1.964765,1.193691,2.344733,2.674395,1.341336,0.999393,0.710067,5.267116,3.550726,1.099050,2.062128,1.108005
1656264871.803852,0.000000,0.000000,4268.717773,4273.333496,4096.922852,4114.871582,4236.922852,450.000000,4.000000,86.000000,,,,0.000000,4.000000,4.000000,4.000000,4.000000,4.000000,100.000000,,,,,,,,,,,,,,,,,,,,,,,,,,,,,,,,,,,,,,,,,,,,,,,,,,,,,,,,,,,,,,,
1656264871.811766,1.000000,0.000000,4272.820313,4247.179688,4117.436035,4110.769043,4225.128418,450.000000,4.000000,86.000000,,,,0.000000,4.000000,4.000000,4.000000,4.000000,4.000000,100.000000,,,,,,,,,,,,,,,,,,,,,,,,,,,,,,,,,,,,,,,,,,,,,,,,,,,,,,,,,,,,,,,
1656264871.819581,2.000000,0.000000,4284.102539,4194.358887,4142.051270,4087.179443,4181.538574,16229.000000,4.000000,86.000000,,,,0.000000,4.000000,4.000000,4.000000,4.000000,4.000000,100.000000,,,,,,,,,,,,,,,,,,,,,,,,,,,,,,,,,,,,,,,,,,,,,,,,,,,,,,,,,,,,,,,
1656264871.827295,3.000000,0.000000,4281.538574,4215.384766,4141.538574,4080.000000,4183.077148,450.000000,4.000000,86.000000,,,,0.000000,4.000000,4.000000,4.000000,4.000000,4.000000,100.000000,,,,,,,,,,,,,,,,,,,,,,,,,,,,,,,,,,,,,,,,,,,,,,,,,,,,,,,,,,,,,,,
1656264871.835110,4.000000,0.000000,4258.974121,4261.025879,4128.205078,4096.410156,4224.615234,16182.000000,4.000000,86.000000,,,,0.000000,4.000000,4.000000,4.000000,4.000000,4.000000,100.000000,,,,,,,,,,,,,,,,,,,,,,,,,,,,,,,,,,,,,,,,,,,,,,,,,,,,,,,,,,,,,,,
1656264871.842824,5.000000,0.000000,4247.179688,4254.358887,4123.589844,4097.948730,4227.692383,450.000000,4.000000,86.000000,,,,0.000000,4.000000,4.000000,4.000000,4.000000,4.000000,100.000000,,,,,,,,,,,,,,,,,,,,,,,,,,,,,,,,,,,,,,,,,,,,,,,,,,,,,,,,,,,,,,,
1656264871.850638,6.000000,0.000000,4263.589844,4250.256348,4132.307617,4104.615234,4227.179688,16185.000000,4.000000,86.000000,,,,0.000000,4.000000,4.000000,4.000000,4.000000,4.000000,100.000000,,,,,,,,,,,,,,,,,,,,,,,,,,,,,,,,,,,,,,,,,,,,,,,,,,,,,,,,,,,,,,,
1656264871.858353,7.000000,0.000000,4277.436035,4262.563965,4131.282227,4124.615234,4253.846191,450.000000,4.000000,86.000000,,,,0.000000,4.000000,4.000000,4.000000,4.000000,4.000000,100.000000,,,,,,,,,,,,,,,,,,,,,,,,,,,,,,,,,,,,,,,,,,,,,,,,,,,,,,,,,,,,,,,
1656264871.866167,8.000000,0.000000,4277.436035,4264.102539,4123.077148,4124.102539,4258.974121,450.000000,4.000000,86.000000,,,,0.000000,4.000000,4.000000,4.000000,4.000000,4.000000,100.000000,,,,,,,,,,,,,,,,,,,,,,,,,,,,,,,,,,,,,,,,,,,,,,,,,,,,,,,,,,,,,,,
1656264871.873882,9.000000,0.000000,4278.974121,4248.205078,4142.563965,4109.230957,4228.205078,16187.000000,4.000000,86.000000,,,,0.000000,4.000000,4.000000,4.000000,4.000000,4.000000,100.000000,,,,,,,,,,,,,,,,,,,,,,,,,,,,,,,,,,,,,,,,,,,,,,,,,,,,,,,,,,,,,,,
1656264871.881696,10.000000,0.000000,4284.102539,4220.000000,4162.563965,4104.615234,4210.256348,450.000000,4.000000,86.000000,,,,0.000000,4.000000,4.000000,4.000000,4.000000,4.000000,100.000000,,,,,,,,,,,,,,,,,,,,,,,,,,,,,,,,,,,,,,,,,,,,,,,,,,,,,,,,,,,,,,,
1656264871.889411,11.000000,0.000000,4280.000000,4229.743652,4153.846191,4113.333496,4228.717773,16170.000000,4.000000,86.000000,,,,0.000000,4.000000,4.000000,4.000000,4.000000,4.000000,100.000000,,,,,,,,,,,,,,,,,,,,,,,,,,,,,,,,,,,,,,,,,,,,,,,,,,,,,,,,,,,,,,,
1656264871.897225,12.000000,0.000000,4258.974121,4282.051270,4136.410156,4113.333496,4248.205078,450.000000,4.000000,86.000000,,,,0.000000,4.000000,4.000000,4.000000,4.000000,4.000000,100.000000,,,,,,,,,,,,,,,,,,,,,,,,,,,,,,,,,,,,,,,,,,,,,,,,,,,,,,,,,,,,,,,
1656264871.904940,13.000000,0.000000,4241.538574,4279.487305,4137.436035,4089.230713,4235.384766,450.000000,4.000000,86.000000,,,,0.000000,4.000000,4.000000,4.000000,4.000000,4.000000,100.000000,,,,,,,,,,,,,,,,,,,,,,,,,,,,,,,,,,,,,,,,,,,,,,,,,,,,,,,,,,,,,,,
1656264871.912754,14.000000,0.000000,4243.589844,4234.358887,4155.384766,4070.256348,4210.256348,450.000000,4.000000,86.000000,,,,0.000000,4.000000,4.000000,4.000000,4.000000,4.000000,100.000000,,,,,,,,,,,,,,,,,,,,,,,,,,,,,,,,,,,,,,,,,,,,,,,,,,,,,,,,,,,,,,,
1656264871.920469,15.000000,0.000000,4247.692383,4238.974121,4145.128418,4084.102539,4223.589844,16170.000000,4.000000,86.000000,,,,0.000000,4.000000,4.000000,4.000000,4.000000,4.000000,100.000000,1.000000,100.000000,4.000000,4.000000,4.000000,4.000000,4.000000,,,,,,,,,,,,,,,,,,,,,,,,,,,,,,,,6.809499,5.015900,2.260451,1.676320,0.781443,2.161588,2.463779,2.850558,1.026420,1.381258,9.591027,3.770267,2.108396,1.921522,1.059415,2.108964,2.939106,1.271927,1.015720,0.757246,4.910789,4.000796,1.001429,1.896451,1.028488
1656264871.928383,16.000000,0.000000,4247.179688,4255.897461,4133.333496,4096.922852,4242.051270,0.000000,4.000000,86.000000,,,,0.000000,4.000000,4.000000,4.000000,4.000000,4.000000,100.000000,,,,,,,,,,,,,,,,,,,,,,,,,,,,,,,,,,,,,,,,,,,,,,,,,,,,,,,,,,,,,,,
1656264871.936197,17.000000,0.000000,4247.179688,4237.948730,4160.000000,4076.923096,4212.307617,0.000000,4.000000,86.000000,,,,0.000000,4.000000,4.000000,4.000000,4.000000,4.000000,100.000000,,,,,,,,,,,,,,,,,,,,,,,,,,,,,,,,,,,,,,,,,,,,,,,,,,,,,,,,,,,,,,,
1656264871.944112,18.000000,0.000000,4248.717773,4222.051270,4172.307617,4076.923096,4195.897461,0.000000,4.000000,86.000000,,,,0.000000,4.000000,4.000000,4.000000,4.000000,4.000000,100.000000,,,,,,,,,,,,,,,,,,,,,,,,,,,,,,,,,,,,,,,,,,,,,,,,,,,,,,,,,,,,,,,
1656264871.951926,19.000000,0.000000,4246.666504,4230.256348,4169.743652,4111.794922,4217.436035,0.000000,4.000000,86.000000,,,,0.000000,4.000000,4.000000,4.000000,4.000000,4.000000,100.000000,,,,,,,,,,,,,,,,,,,,,,,,,,,,,,,,,,,,,,,,,,,,,,,,,,,,,,,,,,,,,,,
1656264871.959840,20.000000,0.000000,4242.051270,4242.051270,4186.153809,4110.256348,4215.897461,0.000000,4.000000,86.000000,,,,0.000000,4.000000,4.000000,4.000000,4.000000,4.000000,100.000000,,,,,,,,,,,,,,,,,,,,,,,,,,,,,,,,,,,,,,,,,,,,,,,,,,,,,,,,,,,,,,,
1656264871.967655,21.000000,0.000000,4250.256348,4247.179688,4187.692383,4091.281982,4196.922852,0.000000,4.000000,86.000000,,,,0.000000,4.000000,4.000000,4.000000,4.000000,4.000000,100.000000,,,,,,,,,,,,,,,,,,,,,,,,,,,,,,,,,,,,,,,,,,,,,,,,,,,,,,,,,,,,,,,
1656264871.975569,22.000000,0.000000,4262.051270,4241.538574,4141.025879,4107.179688,4204.102539,0.000000,4.000000,86.000000,,,,0.000000,4.000000,4.000000,4.000000,4.000000,4.000000,100.000000,,,,,,,,,,,,,,,,,,,,,,,,,,,,,,,,,,,,,,,,,,,,,,,,,,,,,,,,,,,,,,,
1656264871.983383,23.000000,0.000000,4254.871582,4233.333496,4112.820313,4117.948730,4226.666504,0.000000,4.000000,86.000000,,,,0.000000,4.000000,4.000000,4.000000,4.000000,4.000000,100.000000,,,,,,,,,,,,,,,,,,,,,,,,,,,,,,,,,,,,,,,,,,,,,,,,,,,,,,,,,,,,,,,
1656264871.991298,24.000000,0.000000,4261.025879,4231.794922,4140.512695,4092.820557,4216.410156,0.000000,4.000000,86.000000,,,,0.000000,4.000000,4.000000,4.000000,4.000000,4.000000,100.000000,,,,,,,,,,,,,,,,,,,,,,,,,,,,,,,,,,,,,,,,,,,,,,,,,,,,,,,,,,,,,,,
1656264871.999112,25.000000,0.000000,4268.205078,4211.282227,4153.846191,4069.230713,4172.307617,0.000000,4.000000,86.000000,,,,0.000000,4.000000,4.000000,4.000000,4.000000,4.000000,100.000000,,,,,,,,,,,,,,,,,,,,,,,,,,,,,,,,,,,,,,,,,,,,,,,,,,,,,,,,,,,,,,,
1656264872.006827,26.000000,0.000000,4260.512695,4209.230957,4137.436035,4088.205078,4179.487305,0.000000,4.000000,86.000000,,,,0.000000,4.000000,4.000000,4.000000,4.000000,4.000000,100.000000,,,,,,,,,,,,,,,,,,,,,,,,,,,,,,,,,,,,,,,,,,,,,,,,,,,,,,,,,,,,,,,
1656264872.014641,27.000000,0.000000,4247.692383,4241.025879,4116.410156,4094.358887,4215.384766,0.000000,4.000000,86.000000,,,,0.000000,4.000000,4.000000,4.000000,4.000000,4.000000,100.000000,,,,,,,,,,,,,,,,,,,,,,,,,,,,,,,,,,,,,,,,,,,,,,,,,,,,,,,,,,,,,,,
1656264872.022356,28.000000,0.000000,4235.384766,4249.743652,4121.538574,4065.128174,4197.436035,0.000000,4.000000,86.000000,,,,0.000000,4.000000,4.000000,4.000000,4.000000,4.000000,100.000000,,,,,,,,,,,,,,,,,,,,,,,,,,,,,,,,,,,,,,,,,,,,,,,,,,,,,,,,,,,,,,,
1656264872.030170,29.000000,0.000000,4255.384766,4245.641113,4128.717773,4079.487061,4196.922852,0.000000,4.000000,86.000000,,,,0.000000,4.000000,4.000000,4.000000,4.000000,4.000000,100.000000,,,,,,,,,,,,,,,,,,,,,,,,,,,,,,,,,,,,,,,,,,,,,,,,,,,,,,,,,,,,,,,
1656264872.037885,30.000000,0.000000,4273.333496,4248.205078,4093.846191,4117.948730,4235.384766,0.000000,4.000000,86.000000,,,,0.000000,4.000000,4.000000,4.000000,4.000000,4.000000,100.000000,,,,,,,,,,,,,,,,,,,,,,,,,,,,,,,,,,,,,,,,,,,,,,,,,,,,,,,,,,,,,,,
1656264872.045699,31.000000,0.000000,4265.641113,4257.436035,4097.948730,4121.538574,4239.487305,0.000000,4.000000,86.000000,,,,0.000000,4.000000,4.000000,4.000000,4.000000,4.000000,100.000000,,,,,,,,,,,,,,,,,,,,,,,,,,,,,,,,,,,,,,,6.821865,5.643585,2.063275,1.585322,0.810393,2.155107,2.644982,2.923359,1.235191,1.533766,8.812657,4.223999,2.701576,1.837948,0.999979,1.793806,3.359443,1.168269,1.131149,0.828712,4.684876,4.605341,0.992399,1.733359,0.971597
1656264872.053413,32.000000,0.000000,4253.846191,4246.153809,4147.179688,4094.358887,4202.563965,0.000000,4.000000,86.000000,,,,0.000000,4.000000,4.000000,4.000000,4.000000,4.000000,100.000000,,,,,,,,,,,,,,,,,,,,,,,,,,,,,,,,,,,,,,,,,,,,,,,,,,,,,,,,,,,,,,,
1656264872.061228,33.000000,0.000000,4242.563965,4236.922852,4158.461426,4082.564209,4190.256348,0.000000,4.000000,86.000000,,,,0.000000,4.000000,4.000000,4.000000,4.000000,4.000000,100.000000,,,,,,,,,,,,,,,,,,,,,,,,,,,,,,,,,,,,,,,,,,,,,,,,,,,,,,,,,,,,,,,
1656264872.068942,34.000000,0.000000,4251.282227,4261.538574,4143.077148,4105.128418,4216.922852,0.000000,4.000000,86.000000,,,,0.000000,4.000000,4.000000,4.000000,4.000000,4.000000,100.000000,,,,,,,,,,,,,,,,,,,,,,,,,,,,,,,,,,,,,,,,,,,,,,,,,,,,,,,,,,,,,,,
1656264872.076857,35.000000,0.000000,4267.179688,4244.102539,4131.794922,4100.512695,4210.769043,0.000000,4.000000,86.000000,,,,0.000000,4.000000,4.000000,4.000000,4.000000,4.000000,100.000000,,,,,,,,,,,,,,,,,,,,,,,,,,,,,,,,,,,,,,,,,,,,,,,,,,,,,,,,,,,,,,,
1656264872.084671,36.000000,0.000000,4279.487305,4212.820313,4132.820313,4081.538574,4188.205078,0.000000,4.000000,86.000000,,,,0.000000,4.000000,4.000000,4.000000,4.000000,4.000000,100.000000,,,,,,,,,,,,,,,,,,,,,,,,,,,,,,,,,,,,,,,,,,,,,,,,,,,,,,,,,,,,,,,
1656264872.092585,37.000000,0.000000,4265.641113,4239.487305,4128.717773,4088.718018,4200.000000,0.000000,4.000000,86.000000,,,,0.000000,4.000000,4.000000,4.000000,4.000000,4.000000,100.000000,,,,,,,,,,,,,,,,,,,,,,,,,,,,,,,,,,,,,,,,,,,,,,,,,,,,,,,,,,,,,,,
1656264872.100400,38.000000,0.000000,4236.922852,4270.769043,4118.974121,4093.333252,4215.384766,0.000000,4.000000,86.000000,,,,0.000000,4.000000,4.000000,4.000000,4.000000,4.000000,100.000000,,,,,,,,,,,,,,,,,,,,,,,,,,,,,,,,,,,,,,,,,,,,,,,,,,,,,,,,,,,,,,,
1656264872.108314,39.000000,0.000000,4254.358887,4256.922852,4131.794922,4099.487305,4218.461426,0.000000,4.000000,86.000000,,,,0.000000,4.000000,4.000000,4.000000,4.000000,4.000000,100.000000,,,,,,,,,,,,,,,,,,,,,,,,,,,,,,,,,,,,,,,,,,,,,,,,,,,,,,,,,,,,,,,
1656264872.116128,40.000000,0.000000,4271.794922,4229.743652,4143.077148,4103.077148,4203.077148,0.000000,4.000000,86.000000,,,,0.000000,4.000000,4.000000,4.000000,4.000000,4.000000,100.000000,,,,,,,,,,,,,,,,,,,,,,,,,,,,,,,,,,,,,,,,,,,,,,,,,,,,,,,,,,,,,,,
1656264872.124043,41.000000,0.000000,4245.641113,4234.358887,4129.743652,4094.358887,4178.974121,0.000000,4.000000,86.000000,,,,0.000000,4.000000,4.000000,4.000000,4.000000,4.000000,100.000000,,,,,,,,,,,,,,,,,,,,,,,,,,,,,,,,,,,,,,,,,,,,,,,,,,,,,,,,,,,,,,,
1656264872.131857,42.000000,0.000000,4241.025879,4247.692383,4108.205078,4103.589844,4189.743652,0.000000,4.000000,86.000000,,,,0.000000,4.000000,4.000000,4.000000,4.000000,4.000000,100.000000,,,,,,,,,,,,,,,,,,,,,,,,,,,,,,,,,,,,,,,,,,,,,,,,,,,,,,,,,,,,,,,
1656264872.139772,43.000000,0.000000,4262.051270,4236.410156,4097.436035,4120.000000,4220.000000,0.000000,4.000000,86.000000,,,,0.000000,4.000000,4.000000,4.000000,4.000000,4.000000,100.000000,,,,,,,,,,,,,,,,,,,,,,,,,,,,,,,,,,,,,,,,,,,,,,,,,,,,,,,,,,,,,,,
1656264872.147586,44.000000,0.000000,4255.384766,4241.538574,4109.230957,4112.820313,4215.384766,0.000000,4.000000,86.000000,,,,0.000000,4.000000,4.000000,4.000000,4.000000,4.000000,100.000000,,,,,,,,,,,,,,,,,,,,,,,,,,,,,,,,,,,,,,,,,,,,,,,,,,,,,,,,,,,,,,,
1656264872.155500,45.000000,0.000000,4244.615234,4247.179688,4125.128418,4088.718018,4180.512695,0.000000,4.000000,86.000000,,,,0.000000,4.000000,4.000000,4.000000,4.000000,4.000000,100.000000,,,,,,,,,,,,,,,,,,,,,,,,,,,,,,,,,,,,,,,,,,,,,,,,,,,,,,,,,,,,,,,
1656264872.163315,46.000000,0.000000,4262.051270,4215.897461,4133.846191,4087.692383,4169.743652,0.000000,4.000000,86.000000,,,,0.000000,4.000000,4.000000,4.000000,4.000000,4.000000,100.000000,,,,,,,,,,,,,,,,,,,,,,,,,,,,,,,,,,,,,,,,,,,,,,,,,,,,,,,,,,,,,,,
1656264872.171229,47.000000,0.000000,4253.333496,4227.179688,4128.205078,4098.461426,4195.384766,0.000000,4.000000,86.000000,,,,0.000000,4.000000,4.000000,4.000000,4.000000,4.000000,100.000000,,,,,,,,,,,,,,,,,,,,,,,,,,,,,,,,,,,,,,,6.253348,6.269793,1.804538,1.546463,0.882482,2.033092,2.644427,2.899871,1.454048,1.730373,7.461665,4.396910,3.348117,1.749374,1.015406,1.435984,4.013093,1.100607,1.323615,0.935030,4.285689,5.305147,1.081031,1.608863,0.944785
1656264872.179043,48.000000,0.000000,4215.897461,4265.641113,4112.820313,4078.461426,4195.897461,0.000000,4.000000,86.000000,,,,0.000000,4.000000,4.000000,4.000000,4.000000,4.000000,100.000000,,,,,,,,,,,,,,,,,,,,,,,,,,,,,,,,,,,,,,,,,,,,,,,,,,,,,,,,,,,,,,,
1656264872.186758,49.000000,0.000000,4221.538574,4247.179688,4110.256348,4068.205078,4174.358887,0.000000,4.000000,86.000000,,,,0.000000,4.000000,4.000000,4.000000,4.000000,4.000000,100.000000,,,,,,,,,,,,,,,,,,,,,,,,,,,,,,,,,,,,,,,,,,,,,,,,,,,,,,,,,,,,,,,
1656264872.194572,50.000000,0.000000,4236.922852,4225.641113,4092.307617,4085.128174,4177.948730,0.000000,4.000000,86.000000,,,,0.000000,4.000000,4.000000,4.000000,4.000000,4.000000,100.000000,,,,,,,,,,,,,,,,,,,,,,,,,,,,,,,,,,,,,,,,,,,,,,,,,,,,,,,,,,,,,,,
1656264872.202287,51.000000,0.000000,4221.538574,4238.461426,4075.384521,4086.666748,4195.384766,0.000000,4.000000,86.000000,,,,0.000000,4.000000,4.000000,4.000000,4.000000,4.000000,100.000000,,,,,,,,,,,,,,,,,,,,,,,,,,,,,,,,,,,,,,,,,,,,,,,,,,,,,,,,,,,,,,,
1656264872.210201,52.000000,0.000000,4218.974121,4254.358887,4089.743652,4086.666748,4210.769043,0.000000,4.000000,86.000000,,,,0.000000,4.000000,4.000000,4.000000,4.000000,4.000000,100.000000,,,,,,,,,,,,,,,,,,,,,,,,,,,,,,,,,,,,,,,,,,,,,,,,,,,,,,,,,,,,,,,
1656264872.218015,53.000000,0.000000,4226.666504,4265.641113,4097.948730,4087.692383,4216.922852,0.000000,4.000000,86.000000,,,,0.000000,4.000000,4.000000,4.000000,4.000000,4.000000,100.000000,,,,,,,,,,,,,,,,,,,,,,,,,,,,,,,,,,,,,,,,,,,,,,,,,,,,,,,,,,,,,,,
1656264872.225830,54.000000,0.000000,4236.410156,4266.666504,4097.948730,4075.384521,4218.974121,0.000000,4.000000,86.000000,,,,0.000000,4.000000,4.000000,4.000000,4.000000,4.000000,100.000000,,,,,,,,,,,,,,,,,,,,,,,,,,,,,,,,,,,,,,,,,,,,,,,,,,,,,,,,,,,,,,,
1656264872.233544,55.000000,0.000000,4250.256348,4238.461426,4091.281982,4082.564209,4225.641113,0.000000,4.000000,86.000000,,,,0.000000,4.000000,4.000000,4.000000,4.000000,4.000000,100.000000,,,,,,,,,,,,,,,,,,,,,,,,,,,,,,,,,,,,,,,,,,,,,,,,,,,,,,,,,,,,,,,
1656264872.241459,56.000000,0.000000,4260.000000,4229.230957,4085.641113,4111.282227,4226.153809,0.000000,4.000000,86.000000,,,,0.000000,4.000000,4.000000,4.000000,4.000000,4.000000,100.000000,,,,,,,,,,,,,,,,,,,,,,,,,,,,,,,,,,,,,,,,,,,,,,,,,,,,,,,,,,,,,,,
1656264872.249273,57.000000,0.000000,4263.589844,4257.948730,4103.077148,4116.410156,4228.717773,0.000000,4.000000,86.000000,,,,0.000000,4.000000,4.000000,4.000000,4.000000,4.000000,100.000000,,,,,,,,,,,,,,,,,,,,,,,,,,,,,,,,,,,,,,,,,,,,,,,,,,,,,,,,,,,,,,,
1656264872.257088,58.000000,0.000000,4250.256348,4254.358887,4105.128418,4107.179688,4230.256348,0.000000,4.000000,86.000000,,,,0.000000,4.000000,4.000000,4.000000,4.000000,4.000000,100.000000,,,,,,,,,,,,,,,,,,,,,,,,,,,,,,,,,,,,,,,,,,,,,,,,,,,,,,,,,,,,,,,
1656264872.264802,59.000000,0.000000,4245.641113,4248.717773,4094.358887,4121.025879,4227.179688,0.000000,4.000000,86.000000,,,,0.000000,4.000000,4.000000,4.000000,4.000000,4.000000,100.000000,,,,,,,,,,,,,,,,,,,,,,,,,,,,,,,,,,,,,,,,,,,,,,,,,,,,,,,,,,,,,,,
1656264872.272716,60.000000,0.000000,4263.077148,4254.358887,4124.615234,4122.051270,4214.871582,0.000000,4.000000,86.000000,,,,0.000000,4.000000,4.000000,4.000000,4.000000,4.000000,100.000000,,,,,,,,,,,,,,,,,,,,,,,,,,,,,,,,,,,,,,,,,,,,,,,,,,,,,,,,,,,,,,,
1656264872.280531,61.000000,0.000000,4257.436035,4226.666504,4157.948730,4088.205078,4191.282227,0.000000,4.000000,86.000000,,,,0.000000,4.000000,4.000000,4.000000,4.000000,4.000000,100.000000,,,,,,,,,,,,,,,,,,,,,,,,,,,,,,,,,,,,,,,,,,,,,,,,,,,,,,,,,,,,,,,
1656264872.288445,62.000000,0.000000,4238.461426,4217.436035,4147.179688,4083.076904,4192.820313,0.000000,4.000000,86.000000,,,,0.000000,4.000000,4.000000,4.000000,4.000000,4.000000,100.000000,,,,,,,,,,,,,,,,,,,,,,,,,,,,,,,,,,,,,,,,,,,,,,,,,,,,,,,,,,,,,,,
1656264872.296259,63.000000,0.000000,4237.948730,4243.077148,4121.025879,4106.666504,4213.846191,0.000000,4.000000,86.000000,,,,0.000000,4.000000,4.000000,4.000000,4.000000,4.000000,100.000000,,,,,,,,,,,,,,,,,,,,,,,,,,,,,,,,,,,,,,,5.284066,6.776342,1.572976,1.579067,0.984805,1.838768,2.449751,2.924564,1.674245,1.930805,5.849985,4.249011,3.866195,1.707853,1.088006,1.102265,4.927146,1.122783,1.534042,1.082213,3.652220,5.972629,1.265781,1.551617,0.965215
1656264872.304174,64.000000,0.000000,4248.717773,4254.871582,4106.666504,4114.871582,4224.615234,450.000000,4.000000,86.000000,,,,0.000000,4.000000,4.000000,4.000000,4.000000,4.000000,100.000000,,,,,,,,,,,,,,,,,,,,,,,,,,,,,,,,,,,,,,,,,,,,,,,,,,,,,,,,,,,,,,,
1656264872.311988,65.000000,0.000000,4255.897461,4238.974121,4120.000000,4106.153809,4211.282227,450.000000,4.000000,86.000000,,,,0.000000,4.000000,4.000000,4.000000,4.000000,4.000000,100.000000,,,,,,,,,,,,,,,,,,,,,,,,,,,,,,,,,,,,,,,,,,,,,,,,,,,,,,,,,,,,,,,
1656264872.319902,66.000000,0.000000,4254.358887,4212.820313,4140.000000,4078.461426,4183.589844,16274.000000,4.000000,86.000000,,,,0.000000,4.000000,4.000000,4.000000,4.000000,4.000000,100.000000,,,,,,,,,,,,,,,,,,,,,,,,,,,,,,,,,,,,,,,,,,,,,,,,,,,,,,,,,,,,,,,
1656264872.327717,67.000000,0.000000,4252.820313,4217.436035,4134.871582,4075.384521,4189.743652,450.000000,4.000000,86.000000,,,,0.000000,4.000000,4.000000,4.000000,4.000000,4.000000,100.000000,,,,,,,,,,,,,,,,,,,,,,,,,,,,,,,,,,,,,,,,,,,,,,,,,,,,,,,,,,,,,,,
1656264872.335631,68.000000,0.000000,4246.153809,4253.846191,4117.948730,4102.563965,4217.948730,16234.000000,4.000000,86.000000,,,,0.000000,4.000000,4.000000,4.000000,4.000000,4.000000,100.000000,,,,,,,,,,,,,,,,,,,,,,,,,,,,,,,,,,,,,,,,,,,,,,,,,,,,,,,,,,,,,,,
1656264872.343446,69.000000,0.000000,4245.128418,4261.025879,4112.820313,4111.282227,4234.871582,450.000000,4.000000,86.000000,,,,0.000000,4.000000,4.000000,4.000000,4.000000,4.000000,100.000000,,,,,,,,,,,,,,,,,,,,,,,,,,,,,,,,,,,,,,,,,,,,,,,,,,,,,,,,,,,,,,,
1656264872.351360,70.000000,0.000000,4260.512695,4241.025879,4132.820313,4102.563965,4227.179688,16158.000000,4.000000,86.000000,,,,0.000000,4.000000,4.000000,4.000000,4.000000,4.000000,100.000000,,,,,,,,,,,,,,,,,,,,,,,,,,,,,,,,,,,,,,,,,,,,,,,,,,,,,,,,,,,,,,,
1656264872.359174,71.000000,0.000000,4252.820313,4231.794922,4139.487305,4083.076904,4192.307617,450.000000,4.000000,86.000000,,,,0.000000,4.000000,4.000000,4.000000,4.000000,4.000000,100.000000,,,,,,,,,,,,,,,,,,,,,,,,,,,,,,,,,,,,,,,,,,,,,,,,,,,,,,,,,,,,,,,
1656264872.366989,72.000000,0.000000,4233.333496,4222.051270,4121.025879,4078.974365,4175.384766,450.000000,4.000000,86.000000,,,,0.000000,4.000000,4.000000,4.000000,4.000000,4.000000,100.000000,,,,,,,,,,,,,,,,,,,,,,,,,,,,,,,,,,,,,,,,,,,,,,,,,,,,,,,,,,,,,,,
1656264872.374803,73.000000,0.000000,4236.922852,4220.512695,4107.179688,4096.410156,4188.205078,16198.000000,4.000000,86.000000,,,,0.000000,4.000000,4.000000,4.000000,4.000000,4.000000,100.000000,,,,,,,,,,,,,,,,,,,,,,,,,,,,,,,,,,,,,,,,,,,,,,,,,,,,,,,,,,,,,,,
1656264872.382518,74.000000,0.000000,4236.922852,4229.230957,4115.384766,4093.846191,4190.256348,450.000000,4.000000,86.000000,,,,0.000000,4.000000,4.000000,4.000000,4.000000,4.000000,100.000000,,,,,,,,,,,,,,,,,,,,,,,,,,,,,,,,,,,,,,,,,,,,,,,,,,,,,,,,,,,,,,,
1656264872.390332,75.000000,0.000000,4236.410156,4241.538574,4120.000000,4093.333252,4194.871582,16175.000000,4.000000,86.000000,,,,0.000000,4.000000,4.000000,4.000000,4.000000,4.000000,100.000000,,,,,,,,,,,,,,,,,,,,,,,,,,,,,,,,,,,,,,,,,,,,,,,,,,,,,,,,,,,,,,,
1656264872.398047,76.000000,0.000000,4251.794922,4264.102539,4099.487305,4112.307617,4220.512695,450.000000,4.000000,86.000000,,,,0.000000,4.000000,4.000000,4.000000,4.000000,4.000000,100.000000,,,,,,,,,,,,,,,,,,,,,,,,,,,,,,,,,,,,,,,,,,,,,,,,,,,,,,,,,,,,,,,
1656264872.405861,77.000000,0.000000,4262.563965,4277.436035,4103.589844,4107.692383,4234.358887,450.000000,4.000000,86.000000,,,,0.000000,4.000000,4.000000,4.000000,4.000000,4.000000,100.000000,,,,,,,,,,,,,,,,,,,,,,,,,,,,,,,,,,,,,,,,,,,,,,,,,,,,,,,,,,,,,,,
1656264872.413575,78.000000,0.000000,4278.974121,4247.692383,4120.512695,4106.153809,4234.358887,450.000000,4.000000,86.000000,,,,0.000000,4.000000,4.000000,4.000000,4.000000,4.000000,100.000000,,,,,,,,,,,,,,,,,,,,,,,,,,,,,,,,,,,,,,,,,,,,,,,,,,,,,,,,,,,,,,,
1656264872.421490,79.000000,0.000000,4297.436035,4208.205078,4105.641113,4125.128418,4236.922852,16175.000000,4.000000,86.000000,,,,0.000000,4.000000,4.000000,4.000000,4.000000,4.000000,100.000000,1.000000,100.000000,4.000000,4.000000,4.000000,4.000000,4.000000,,,,,,,,,,,,,,,,,,,,,,,,,,,,,,,,4.269173,6.999851,1.436227,1.673611,1.092865,1.659515,2.109835,3.084733,1.889025,2.113209,4.386756,3.887806,4.070197,1.771904,1.192444,0.871084,6.014122,1.245173,1.679938,1.263899,2.991507,6.454605,1.505156,1.579636,1.060796
1656264872.429304,80.000000,0.000000,4271.282227,4230.256348,4094.871826,4115.897461,4224.615234,450.000000,4.000000,86.000000,,,,0.000000,4.000000,4.000000,4.000000,4.000000,4.000000,100.000000,,,,,,,,,,,,,,,,,,,,,,,,,,,,,,,,,,,,,,,,,,,,,,,,,,,,,,,,,,,,,,,
1656264872.437218,81.000000,0.000000,4226.666504,4268.717773,4091.794922,4080.000000,4201.025879,450.000000,4.000000,86.000000,,,,0.000000,4.000000,4.000000,4.000000,4.000000,4.000000,100.000000,,,,,,,,,,,,,,,,,,,,,,,,,,,,,,,,,,,,,,,,,,,,,,,,,,,,,,,,,,,,,,,
1656264872.445033,82.000000,0.000000,4228.717773,4261.025879,4077.948730,4072.820557,4199.487305,450.000000,4.000000,86.000000,,,,0.000000,4.000000,4.000000,4.000000,4.000000,4.000000,100.000000,,,,,,,,,,,,,,,,,,,,,,,,,,,,,,,,,,,,,,,,,,,,,,,,,,,,,,,,,,,,,,,
1656264872.452847,83.000000,0.000000,4265.128418,4225.128418,4083.589844,4090.256348,4211.282227,16175.000000,4.000000,86.000000,,,,0.000000,4.000000,4.000000,4.000000,4.000000,4.000000,100.000000,,,,,,,,,,,,,,,,,,,,,,,,,,,,,,,,,,,,,,,,,,,,,,,,,,,,,,,,,,,,,,,
1656264872.460562,84.000000,0.000000,4270.256348,4203.077148,4106.153809,4087.692383,4193.846191,450.000000,4.000000,86.000000,,,,0.000000,4.000000,4.000000,4.000000,4.000000,4.000000,100.000000,,,,,,,,,,,,,,,,,,,,,,,,,,,,,,,,,,,,,,,,,,,,,,,,,,,,,,,,,,,,,,,
1656264872.468476,85.000000,0.000000,4262.051270,4211.794922,4105.641113,4080.000000,4182.051270,450.000000,4.000000,86.000000,,,,0.000000,4.000000,4.000000,4.000000,4.000000,4.000000,100.000000,,,,,,,,,,,,,,,,,,,,,,,,,,,,,,,,,,,,,,,,,,,,,,,,,,,,,,,,,,,,,,,
1656264872.476291,86.000000,0.000000,4263.589844,4211.282227,4090.769287,4084.615479,4189.743652,450.000000,4.000000,86.000000,,,,0.000000,4.000000,4.000000,4.000000,4.000000,4.000000,100.000000,,,,,,,,,,,,,,,,,,,,,,,,,,,,,,,,,,,,,,,,,,,,,,,,,,,,,,,,,,,,,,,
1656264872.484205,87.000000,0.000000,4253.333496,4205.641113,4095.897461,4099.487305,4184.102539,16175.000000,4.000000,86.000000,,,,0.000000,4.000000,4.000000,4.000000,4.000000,4.000000,100.000000,,,,,,,,,,,,,,,,,,,,,,,,,,,,,,,,,,,,,,,,,,,,,,,,,,,,,,,,,,,,,,,
1656264872.492019,88.000000,0.000000,4238.974121,4228.717773,4107.692383,4100.000000,4181.025879,450.000000,4.000000,86.000000,,,,0.000000,4.000000,4.000000,4.000000,4.000000,4.000000,100.000000,,,,,,,,,,,,,,,,,,,,,,,,,,,,,,,,,,,,,,,,,,,,,,,,,,,,,,,,,,,,,,,
1656264872.499934,89.000000,0.000000,4222.051270,4248.717773,4098.974121,4065.641113,4184.102539,450.000000,4.000000,86.000000,,,,0.000000,4.000000,4.000000,4.000000,4.000000,4.000000,100.000000,,,,,,,,,,,,,,,,,,,,,,,,,,,,,,,,,,,,,,,,,,,,,,,,,,,,,,,,,,,,,,,
1656264872.507748,90.000000,0.000000,4233.333496,4247.179688,4099.487305,4060.512939,4200.000000,450.000000,4.000000,86.000000,,,,0.000000,4.000000,4.000000,4.000000,4.000000,4.000000,100.000000,,,,,,,,,,,,,,,,,,,,,,,,,,,,,,,,,,,,,,,,,,,,,,,,,,,,,,,,,,,,,,,
1656264872.515662,91.000000,0.000000,4282.563965,4221.025879,4110.769043,4101.538574,4222.563965,16175.000000,4.000000,86.000000,,,,0.000000,4.000000,4.000000,4.000000,4.000000,4.000000,100.000000,,,,,,,,,,,,,,,,,,,,,,,,,,,,,,,,,,,,,,,,,,,,,,,,,,,,,,,,,,,,,,,
1656264872.523477,92.000000,0.000000,4307.692383,4209.743652,4114.871582,4121.538574,4215.384766,450.000000,4.000000,86.000000,,,,0.000000,4.000000,4.000000,4.000000,4.000000,4.000000,100.000000,,,,,,,,,,,,,,,,,,,,,,,,,,,,,,,,,,,,,,,,,,,,,,,,,,,,,,,,,,,,,,,
1656264872.531291,93.000000,0.000000,4285.641113,4246.153809,4111.282227,4110.256348,4201.538574,450.000000,4.000000,86.000000,,,,0.000000,4.000000,4.000000,4.000000,4.000000,4.000000,100.000000,,,,,,,,,,,,,,,,,,,,,,,,,,,,,,,,,,,,,,,,,,,,,,,,,,,,,,,,,,,,,,,
1656264872.539006,94.000000,0.000000,4255.384766,4262.563965,4095.897461,4097.436035,4212.820313,450.000000,4.000000,86.000000,,,,0.000000,4.000000,4.000000,4.000000,4.000000,4.000000,100.000000,,,,,,,,,,,,,,,,,,,,,,,,,,,,,,,,,,,,,,,,,,,,,,,,,,,,,,,,,,,,,,,
1656264872.546720,95.000000,0.000000,4276.922852,4247.692383,4095.897461,4106.153809,4231.794922,16175.000000,4.000000,86.000000,,,,0.000000,4.000000,4.000000,4.000000,4.000000,4.000000,100.000000,,,,,,,,,,,,,,,,,,,,,,,,,,,,,,,,,,,,,,,3.497422,6.840314,1.377356,1.782560,1.181000,1.567475,1.705610,3.338729,2.095575,2.264804,3.552924,3.497101,3.859177,1.978762,1.305665,0.821670,7.047100,1.405537,1.703952,1.456537,2.524168,6.645786,1.744223,1.689012,1.247319
1656264872.554534,96.000000,0.000000,4299.487305,4240.512695,4102.051270,4104.615234,4214.358887,450.000000,4.000000,86.000000,,,,0.000000,4.000000,4.000000,4.000000,4.000000,4.000000,100.000000,,,,,,,,,,,,,,,,,,,,,,,,,,,,,,,,,,,,,,,,,,,,,,,,,,,,,,,,,,,,,,,
1656264872.562249,97.000000,0.000000,4273.846191,4236.922852,4108.717773,4086.153809,4197.436035,450.000000,4.000000,86.000000,,,,0.000000,4.000000,4.000000,4.000000,4.000000,4.000000,100.000000,,,,,,,,,,,,,,,,,,,,,,,,,,,,,,,,,,,,,,,,,,,,,,,,,,,,,,,,,,,,,,,
1656264872.570163,98.000000,0.000000,4273.846191,4237.948730,4118.461426,4102.051270,4229.230957,450.000000,4.000000,86.000000,,,,0.000000,4.000000,4.000000,4.000000,4.000000,4.000000,100.000000,,,,,,,,,,,,,,,,,,,,,,,,,,,,,,,,,,,,,,,,,,,,,,,,,,,,,,,,,,,,,,,
1656264872.577978,99.000000,0.000000,4300.000000,4222.051270,4108.717773,4116.410156,4232.820313,16175.000000,4.000000,86.000000,,,,0.000000,4.000000,4.000000,4.000000,4.000000,4.000000,100.000000,,,,,,,,,,,,,,,,,,,,,,,,,,,,,,,,,,,,,,,,,,,,,,,,,,,,,,,,,,,,,,,
1656264872.585892,100.000000,0.000000,4295.384766,4213.333496,4111.794922,4102.563965,4204.615234,450.000000,4.000000,86.000000,,,,0.000000,4.000000,4.000000,4.000000,4.000000,4.000000,100.000000,,,,,,,,,,,,,,,,,,,,,,,,,,,,,,,,,,,,,,,,,,,,,,,,,,,,,,,,,,,,,,,
1656264872.593706,101.000000,0.000000,4261.025879,4237.436035,4113.333496,4086.666748,4203.589844,450.000000,4.000000,86.000000,,,,0.000000,4.000000,4.000000,4.000000,4.000000,4.000000,100.000000,,,,,,,,,,,,,,,,,,,,,,,,,,,,,,,,,,,,,,,,,,,,,,,,,,,,,,,,,,,,,,,
1656264872.601521,102.000000,0.000000,4247.692383,4255.384766,4091.281982,4086.666748,4216.922852,450.000000,4.000000,86.000000,,,,0.000000,4.000000,4.000000,4.000000,4.000000,4.000000,100.000000,,,,,,,,,,,,,,,,,,,,,,,,,,,,,,,,,,,,,,,,,,,,,,,,,,,,,,,,,,,,,,,
1656264872.609235,103.000000,0.000000,4266.153809,4252.307617,4103.077148,4101.538574,4223.589844,16175.000000,4.000000,86.000000,,,,0.000000,4.000000,4.000000,4.000000,4.000000,4.000000,100.000000,,,,,,,,,,,,,,,,,,,,,,,,,,,,,,,,,,,,,,,,,,,,,,,,,,,,,,,,,,,,,,,
1656264872.617050,104.000000,0.000000,4248.205078,4241.538574,4119.487305,4081.538574,4209.230957,450.000000,4.000000,86.000000,,,,0.000000,4.000000,4.000000,4.000000,4.000000,4.000000,100.000000,,,,,,,,,,,,,,,,,,,,,,,,,,,,,,,,,,,,,,,,,,,,,,,,,,,,,,,,,,,,,,,
1656264872.624764,105.000000,0.000000,4241.025879,4250.256348,4106.153809,4067.179443,4211.794922,450.000000,4.000000,86.000000,,,,0.000000,4.000000,4.000000,4.000000,4.000000,4.000000,100.000000,,,,,,,,,,,,,,,,,,,,,,,,,,,,,,,,,,,,,,,,,,,,,,,,,,,,,,,,,,,,,,,
1656264872.632579,106.000000,0.000000,4277.436035,4243.589844,4108.205078,4097.948730,4218.974121,450.000000,4.000000,86.000000,,,,0.000000,4.000000,4.000000,4.000000,4.000000,4.000000,100.000000,,,,,,,,,,,,,,,,,,,,,,,,,,,,,,,,,,,,,,,,,,,,,,,,,,,,,,,,,,,,,,,
1656264872.640293,107.000000,0.000000,4269.743652,4206.666504,4122.051270,4096.922852,4193.846191,16175.000000,4.000000,86.000000,,,,0.000000,4.000000,4.000000,4.000000,4.000000,4.000000,100.000000,,,,,,,,,,,,,,,,,,,,,,,,,,,,,,,,,,,,,,,,,,,,,,,,,,,,,,,,,,,,,,,
1656264872.648207,108.000000,0.000000,4246.153809,4205.128418,4123.077148,4084.102539,4195.897461,450.000000,4.000000,86.000000,,,,0.000000,4.000000,4.000000,4.000000,4.000000,4.000000,100.000000,,,,,,,,,,,,,,,,,,,,,,,,,,,,,,,,,,,,,,,,,,,,,,,,,,,,,,,,,,,,,,,
1656264872.656022,109.000000,0.000000,4263.589844,4215.897461,4105.128418,4104.615234,4216.922852,450.000000,4.000000,86.000000,,,,0.000000,4.000000,4.000000,4.000000,4.000000,4.000000,100.000000,,,,,,,,,,,,,,,,,,,,,,,,,,,,,,,,,,,,,,,,,,,,,,,,,,,,,,,,,,,,,,,
1656264872.663936,110.000000,0.000000,4271.282227,4212.307617,4089.230713,4101.025879,4205.128418,450.000000,4.000000,86.000000,,,,0.000000,4.000000,4.000000,4.000000,4.000000,4.000000,100.000000,,,,,,,,,,,,,,,,,,,,,,,,,,,,,,,,,,,,,,,,,,,,,,,,,,,,,,,,,,,,,,,
1656264872.671751,111.000000,0.000000,4260.000000,4206.666504,4093.333252,4075.897461,4191.794922,16175.000000,4.000000,86.000000,,,,0.000000,4.000000,4.000000,4.000000,4.000000,4.000000,100.000000,,,,,,,,,,,,,,,,,,,,,,,,,,,,,,,,,,,,,,,3.143284,6.288771,1.324559,1.864533,1.234602,1.607686,1.339759,3.541834,2.315073,2.373533,3.516025,3.248172,3.278728,2.307824,1.408933,1.006601,7.714828,1.513683,1.613937,1.628013,2.471120,6.524686,1.938694,1.861115,1.504788
1656264872.679565,112.000000,0.000000,4260.512695,4194.358887,4100.000000,4076.410156,4199.487305,450.000000,4.000000,86.000000,,,,0.000000,4.000000,4.000000,4.000000,4.000000,4.000000,100.000000,,,,,,,,,,,,,,,,,,,,,,,,,,,,,,,,,,,,,,,,,,,,,,,,,,,,,,,,,,,,,,,
1656264872.687280,113.000000,0.000000,4260.512695,4197.436035,4110.256348,4087.692383,4208.717773,450.000000,4.000000,86.000000,,,,0.000000,4.000000,4.000000,4.000000,4.000000,4.000000,100.000000,,,,,,,,,,,,,,,,,,,,,,,,,,,,,,,,,,,,,,,,,,,,,,,,,,,,,,,,,,,,,,,
1656264872.695194,114.000000,0.000000,4237.948730,4209.743652,4125.641113,4074.358887,4194.358887,450.000000,4.000000,86.000000,,,,0.000000,4.000000,4.000000,4.000000,4.000000,4.000000,100.000000,,,,,,,,,,,,,,,,,,,,,,,,,,,,,,,,,,,,,,,,,,,,,,,,,,,,,,,,,,,,,,,
1656264872.703008,115.000000,0.000000,4222.563965,4214.358887,4133.333496,4057.435791,4183.077148,16175.000000,4.000000,86.000000,,,,0.000000,4.000000,4.000000,4.000000,4.000000,4.000000,100.000000,,,,,,,,,,,,,,,,,,,,,,,,,,,,,,,,,,,,,,,,,,,,,,,,,,,,,,,,,,,,,,,
1656264872.710923,116.000000,0.000000,4240.000000,4212.307617,4124.615234,4073.333252,4198.461426,450.000000,4.000000,86.000000,,,,0.000000,4.000000,4.000000,4.000000,4.000000,4.000000,100.000000,,,,,,,,,,,,,,,,,,,,,,,,,,,,,,,,,,,,,,,,,,,,,,,,,,,,,,,,,,,,,,,
1656264872.718737,117.000000,0.000000,4258.974121,4201.025879,4094.358887,4092.820557,4200.000000,450.000000,4.000000,86.000000,,,,0.000000,4.000000,4.000000,4.000000,4.000000,4.000000,100.000000,,,,,,,,,,,,,,,,,,,,,,,,,,,,,,,,,,,,,,,,,,,,,,,,,,,,,,,,,,,,,,,
1656264872.726451,118.000000,0.000000,4255.897461,4196.410156,4080.512939,4092.307617,4189.743652,450.000000,4.000000,86.000000,,,,0.000000,4.000000,4.000000,4.000000,4.000000,4.000000,100.000000,,,,,,,,,,,,,,,,,,,,,,,,,,,,,,,,,,,,,,,,,,,,,,,,,,,,,,,,,,,,,,,
1656264872.734266,119.000000,0.000000,4228.205078,4215.897461,4105.128418,4080.512939,4199.487305,16175.000000,4.000000,86.000000,,,,0.000000,4.000000,4.000000,4.000000,4.000000,4.000000,100.000000,,,,,,,,,,,,,,,,,,,,,,,,,,,,,,,,,,,,,,,,,,,,,,,,,,,,,,,,,,,,,,,
1656264872.741980,120.000000,0.000000,4213.846191,4226.153809,4131.794922,4077.948730,4214.358887,450.000000,4.000000,86.000000,,,,0.000000,4.000000,4.000000,4.000000,4.000000,4.000000,100.000000,,,,,,,,,,,,,,,,,,,,,,,,,,,,,,,,,,,,,,,,,,,,,,,,,,,,,,,,,,,,,,,
1656264872.749795,121.000000,0.000000,4224.102539,4226.153809,4131.794922,4087.179443,4209.230957,450.000000,4.000000,86.000000,,,,0.000000,4.000000,4.000000,4.000000,4.000000,4.000000,100.000000,,,,,,,,,,,,,,,,,,,,,,,,,,,,,,,,,,,,,,,,,,,,,,,,,,,,,,,,,,,,,,,
1656264872.757509,122.000000,0.000000,4218.461426,4238.974121,4099.487305,4090.256348,4211.282227,450.000000,4.000000,86.000000,,,,0.000000,4.000000,4.000000,4.000000,4.000000,4.000000,100.000000,,,,,,,,,,,,,,,,,,,,,,,,,,,,,,,,,,,,,,,,,,,,,,,,,,,,,,,,,,,,,,,
1656264872.765324,123.000000,0.000000,4217.948730,4240.512695,4085.128174,4093.333252,4232.307617,16175.000000,4.000000,86.000000,,,,0.000000,4.000000,4.000000,4.000000,4.000000,4.000000,100.000000,,,,,,,,,,,,,,,,,,,,,,,,,,,,,,,,,,,,,,,,,,,,,,,,,,,,,,,,,,,,,,,
1656264872.773038,124.000000,0.000000,4235.384766,4231.794922,4112.307617,4086.666748,4221.538574,450.000000,4.000000,86.000000,,,,0.000000,4.000000,4.000000,4.000000,4.000000,4.000000,100.000000,,,,,,,,,,,,,,,,,,,,,,,,,,,,,,,,,,,,,,,,,,,,,,,,,,,,,,,,,,,,,,,
1656264872.780853,125.000000,0.000000,4234.358887,4223.077148,4128.205078,4064.615479,4186.666504,450.000000,4.000000,86.000000,,,,0.000000,4.000000,4.000000,4.000000,4.000000,4.000000,100.000000,,,,,,,,,,,,,,,,,,,,,,,,,,,,,,,,,,,,,,,,,,,,,,,,,,,,,,,,,,,,,,,
1656264872.788567,126.000000,0.000000,4223.589844,4224.615234,4114.871582,4057.948730,4189.743652,450.000000,4.000000,86.000000,,,,0.000000,4.000000,4.000000,4.000000,4.000000,4.000000,100.000000,,,,,,,,,,,,,,,,,,,,,,,,,,,,,,,,,,,,,,,,,,,,,,,,,,,,,,,,,,,,,,,
1656264872.796382,127.000000,0.000000,4218.461426,4231.794922,4089.743652,4063.589844,4211.282227,241.000000,4.000000,86.000000,,,,0.000000,4.000000,4.000000,4.000000,4.000000,4.000000,100.000000,,,,,,,,,,,,,,,,,,,,,,,,,,,,,,,,,,,,,,,3.211291,5.435360,1.236184,1.933331,1.262931,1.790071,1.122326,3.555739,2.592268,2.433702,4.137473,3.192855,2.496742,2.673055,1.484361,1.443211,7.764417,1.500394,1.469846,1.751157,2.882637,6.184930,2.041441,2.066781,1.776338
1656264872.804096,0.000000,0.000000,4228.717773,4233.846191,4097.948730,4077.435791,4212.820313,450.000000,4.000000,86.000000,,,,0.000000,4.000000,4.000000,4.000000,4.000000,4.000000,100.000000,,,,,,,,,,,,,,,,,,,,,,,,,,,,,,,,,,,,,,,,,,,,,,,,,,,,,,,,,,,,,,,
1656264872.811910,1.000000,0.000000,4249.743652,4235.897461,4102.563965,4111.282227,4218.461426,450.000000,4.000000,86.000000,,,,0.000000,4.000000,4.000000,4.000000,4.000000,4.000000,100.000000,,,,,,,,,,,,,,,,,,,,,,,,,,,,,,,,,,,,,,,,,,,,,,,,,,,,,,,,,,,,,,,
1656264872.819625,2.000000,0.000000,4248.717773,4222.563965,4074.871826,4121.538574,4227.179688,16226.000000,4.000000,86.000000,,,,0.000000,4.000000,4.000000,4.000000,4.000000,4.000000,100.000000,,,,,,,,,,,,,,,,,,,,,,,,,,,,,,,,,,,,,,,,,,,,,,,,,,,,,,,,,,,,,,,
1656264872.827439,3.000000,0.000000,4251.282227,4229.230957,4082.564209,4116.410156,4242.563965,450.000000,4.000000,86.000000,,,,0.000000,4.000000,4.000000,4.000000,4.000000,4.000000,100.000000,,,,,,,,,,,,,,,,,,,,,,,,,,,,,,,,,,,,,,,,,,,,,,,,,,,,,,,,,,,,,,,
1656264872.835154,4.000000,0.000000,4264.615234,4242.563965,4094.358887,4116.410156,4244.102539,16205.000000,4.000000,86.000000,,,,0.000000,4.000000,4.000000,4.000000,4.000000,4.000000,100.000000,,,,,,,,,,,,,,,,,,,,,,,,,,,,,,,,,,,,,,,,,,,,,,,,,,,,,,,,,,,,,,,
1656264872.842968,5.000000,0.000000,4265.641113,4234.358887,4084.615479,4109.743652,4232.820313,450.000000,4.000000,86.000000,,,,0.000000,4.000000,4.000000,4.000000,4.000000,4.000000,100.000000,,,,,,,,,,,,,,,,,,,,,,,,,,,,,,,,,,,,,,,,,,,,,,,,,,,,,,,,,,,,,,,
1656264872.850683,6.000000,0.000000,4275.384766,4220.000000,4097.948730,4102.563965,4224.615234,16158.000000,4.000000,86.000000,,,,0.000000,4.000000,4.000000,4.000000,4.000000,4.000000,100.000000,,,,,,,,,,,,,,,,,,,,,,,,,,,,,,,,,,,,,,,,,,,,,,,,,,,,,,,,,,,,,,,
1656264872.858497,7.000000,0.000000,4271.794922,4192.820313,4112.820313,4087.179443,4196.922852,450.000000,4.000000,86.000000,,,,0.000000,4.000000,4.000000,4.000000,4.000000,4.000000,100.000000,,,,,,,,,,,,,,,,,,,,,,,,,,,,,,,,,,,,,,,,,,,,,,,,,,,,,,,,,,,,,,,
1656264872.866212,8.000000,0.000000,4260.000000,4209.230957,4112.820313,4090.769287,4196.922852,450.000000,4.000000,86.000000,,,,0.000000,4.000000,4.000000,4.000000,4.000000,4.000000,100.000000,,,,,,,,,,,,,,,,,,,,,,,,,,,,,,,,,,,,,,,,,,,,,,,,,,,,,,,,,,,,,,,
1656264872.874126,9.000000,0.000000,4244.615234,4231.282227,4109.743652,4084.615479,4201.025879,16179.000000,4.000000,86.000000,,,,0.000000,4.000000,4.000000,4.000000,4.000000,4.000000,100.000000,,,,,,,,,,,,,,,,,,,,,,,,,,,,,,,,,,,,,,,,,,,,,,,,,,,,,,,,,,,,,,,
1656264872.881940,10.000000,0.000000,4236.922852,4215.384766,4120.000000,4070.256348,4182.563965,450.000000,4.000000,86.000000,,,,0.000000,4.000000,4.000000,4.000000,4.000000,4.000000,100.000000,,,,,,,,,,,,,,,,,,,,,,,,,,,,,,,,,,,,,,,,,,,,,,,,,,,,,,,,,,,,,,,
1656264872.889855,11.000000,0.000000,4256.922852,4233.846191,4108.717773,4094.871826,4210.769043,16222.000000,4.000000,86.000000,,,,0.000000,4.000000,4.000000,4.000000,4.000000,4.000000,100.000000,,,,,,,,,,,,,,,,,,,,,,,,,,,,,,,,,,,,,,,,,,,,,,,,,,,,,,,,,,,,,,,
1656264872.897669,12.000000,0.000000,4247.692383,4257.948730,4063.076904,4096.922852,4239.487305,450.000000,4.000000,86.000000,,,,0.000000,4.000000,4.000000,4.000000,4.000000,4.000000,100.000000,,,,,,,,,,,,,,,,,,,,,,,,,,,,,,,,,,,,,,,,,,,,,,,,,,,,,,,,,,,,,,,
1656264872.905583,13.000000,0.000000,4244.102539,4255.897461,4077.948730,4094.871826,4231.282227,450.000000,4.000000,86.000000,,,,0.000000,4.000000,4.000000,4.000000,4.000000,4.000000,100.000000,,,,,,,,,,,,,,,,,,,,,,,,,,,,,,,,,,,,,,,,,,,,,,,,,,,,,,,,,,,,,,,
1656264872.913398,14.000000,0.000000,4260.000000,4231.282227,4113.333496,4100.000000,4210.256348,450.000000,4.000000,86.000000,,,,0.000000,4.000000,4.000000,4.000000,4.000000,4.000000,100.000000,,,,,,,,,,,,,,,,,,,,,,,,,,,,,,,,,,,,,,,,,,,,,,,,,,,,,,,,,,,,,,,
1656264872.921312,15.000000,0.000000,4257.948730,4208.717773,4106.153809,4090.256348,4199.487305,16222.000000,4.000000,86.000000,,,,0.000000,4.000000,4.000000,4.000000,4.000000,4.000000,100.000000,1.000000,100.000000,4.000000,4.000000,4.000000,4.000000,4.000000,,,,,,,,,,,,,,,,,,,,,,,,,,,,,,,,3.554164,4.477724,1.141864,2.050996,1.294732,2.126163,1.117195,3.293561,2.944815,2.441621,5.040787,3.230129,1.735985,2.960058,1.513995,2.089824,7.136475,1.360114,1.351141,1.814346,3.664031,5.790302,2.016217,2.258422,1.988696
1656264872.929127,16.000000,0.000000,4274.871582,4220.000000,4128.205078,4102.563965,4215.384766,0.000000,4.000000,86.000000,,,,0.000000,4.000000,4.000000,4.000000,4.000000,4.000000,100.000000,,,,,,,,,,,,,,,,,,,,,,,,,,,,,,,,,,,,,,,,,,,,,,,,,,,,,,,,,,,,,,,
1656264872.936841,17.000000,0.000000,4270.256348,4210.769043,4143.589844,4085.128174,4199.487305,0.000000,4.000000,86.000000,,,,0.000000,4.000000,4.000000,4.000000,4.000000,4.000000,100.000000,,,,,,,,,,,,,,,,,,,,,,,,,,,,,,,,,,,,,,,,,,,,,,,,,,,,,,,,,,,,,,,
1656264872.944655,18.000000,0.000000,4265.641113,4206.666504,4131.282227,4066.666748,4194.358887,0.000000,4.000000,86.000000,,,,0.000000,4.000000,4.000000,4.000000,4.000000,4.000000,100.000000,,,,,,,,,,,,,,,,,,,,,,,,,,,,,,,,,,,,,,,,,,,,,,,,,,,,,,,,,,,,,,,
1656264872.952370,19.000000,0.000000,4276.922852,4242.563965,4120.000000,4086.666748,4236.922852,0.000000,4.000000,86.000000,,,,0.000000,4.000000,4.000000,4.000000,4.000000,4.000000,100.000000,,,,,,,,,,,,,,,,,,,,,,,,,,,,,,,,,,,,,,,,,,,,,,,,,,,,,,,,,,,,,,,
1656264872.960184,20.000000,0.000000,4247.692383,4249.743652,4121.538574,4078.974365,4234.358887,0.000000,4.000000,86.000000,,,,0.000000,4.000000,4.000000,4.000000,4.000000,4.000000,100.000000,,,,,,,,,,,,,,,,,,,,,,,,,,,,,,,,,,,,,,,,,,,,,,,,,,,,,,,,,,,,,,,
1656264872.967899,21.000000,0.000000,4241.538574,4252.820313,4136.410156,4083.589844,4220.512695,0.000000,4.000000,86.000000,,,,0.000000,4.000000,4.000000,4.000000,4.000000,4.000000,100.000000,,,,,,,,,,,,,,,,,,,,,,,,,,,,,,,,,,,,,,,,,,,,,,,,,,,,,,,,,,,,,,,
1656264872.975713,22.000000,0.000000,4256.922852,4261.025879,4116.410156,4109.743652,4230.769043,0.000000,4.000000,86.000000,,,,0.000000,4.000000,4.000000,4.000000,4.000000,4.000000,100.000000,,,,,,,,,,,,,,,,,,,,,,,,,,,,,,,,,,,,,,,,,,,,,,,,,,,,,,,,,,,,,,,
1656264872.983428,23.000000,0.000000,4257.948730,4247.179688,4117.948730,4109.743652,4235.384766,0.000000,4.000000,86.000000,,,,0.000000,4.000000,4.000000,4.000000,4.000000,4.000000,100.000000,,,,,,,,,,,,,,,,,,,,,,,,,,,,,,,,,,,,,,,,,,,,,,,,,,,,,,,,,,,,,,,
1656264872.991242,24.000000,0.000000,4267.179688,4237.436035,4136.922852,4112.307617,4238.974121,0.000000,4.000000,86.000000,,,,0.000000,4.000000,4.000000,4.000000,4.000000,4.000000,100.000000,,,,,,,,,,,,,,,,,,,,,,,,,,,,,,,,,,,,,,,,,,,,,,,,,,,,,,,,,,,,,,,
1656264872.998957,25.000000,0.000000,4265.641113,4245.641113,4098.974121,4116.410156,4245.128418,0.000000,4.000000,86.000000,,,,0.000000,4.000000,4.000000,4.000000,4.000000,4.000000,100.000000,,,,,,,,,,,,,,,,,,,,,,,,,,,,,,,,,,,,,,,,,,,,,,,,,,,,,,,,,,,,,,,
1656264873.006771,26.000000,0.000000,4263.589844,4247.692383,4089.230713,4107.179688,4244.615234,0.000000,4.000000,86.000000,,,,0.000000,4.000000,4.000000,4.000000,4.000000,4.000000,100.000000,,,,,,,,,,,,,,,,,,,,,,,,,,,,,,,,,,,,,,,,,,,,,,,,,,,,,,,,,,,,,,,
1656264873.014486,27.000000,0.000000,4258.461426,4207.692383,4121.538574,4082.051270,4210.769043,0.000000,4.000000,86.000000,,,,0.000000,4.000000,4.000000,4.000000,4.000000,4.000000,100.000000,,,,,,,,,,,,,,,,,,,,,,,,,,,,,,,,,,,,,,,,,,,,,,,,,,,,,,,,,,,,,,,
1656264873.022300,28.000000,0.000000,4244.615234,4203.077148,4125.128418,4070.256348,4197.948730,0.000000,4.000000,86.000000,,,,0.000000,4.000000,4.000000,4.000000,4.000000,4.000000,100.000000,,,,,,,,,,,,,,,,,,,,,,,,,,,,,,,,,,,,,,,,,,,,,,,,,,,,,,,,,,,,,,,
1656264873.030015,29.000000,0.000000,4240.512695,4225.641113,4106.666504,4074.358887,4206.666504,0.000000,4.000000,86.000000,,,,0.000000,4.000000,4.000000,4.000000,4.000000,4.000000,100.000000,,,,,,,,,,,,,,,,,,,,,,,,,,,,,,,,,,,,,,,,,,,,,,,,,,,,,,,,,,,,,,,
1656264873.037929,30.000000,0.000000,4243.077148,4186.666504,4094.871826,4058.974365,4177.436035,0.000000,4.000000,86.000000,,,,0.000000,4.000000,4.000000,4.000000,4.000000,4.000000,100.000000,,,,,,,,,,,,,,,,,,,,,,,,,,,,,,,,,,,,,,,,,,,,,,,,,,,,,,,,,,,,,,,
1656264873.045743,31.000000,0.000000,4260.512695,4190.256348,4102.051270,4068.205078,4188.717773,0.000000,4.000000,86.000000,,,,0.000000,4.000000,4.000000,4.000000,4.000000,4.000000,100.000000,,,,,,,,,,,,,,,,,,,,,,,,,,,,,,,,,,,,,,,3.982025,3.648687,1.121587,2.277537,1.354348,2.618400,1.319318,2.812211,3.336391,2.391308,5.771088,3.196206,1.178067,3.102629,1.491485,2.793006,6.008310,1.186074,1.319784,1.819413,4.555362,5.456258,1.909313,2.384540,2.083827
1656264873.053658,32.000000,0.000000,4260.000000,4228.717773,4102.563965,4088.205078,4217.948730,0.000000,4.000000,86.000000,,,,0.000000,4.000000,4.000000,4.000000,4.000000,4.000000,100.000000,,,,,,,,,,,,,,,,,,,,,,,,,,,,,,,,,,,,,,,,,,,,,,,,,,,,,,,,,,,,,,,
1656264873.061472,33.000000,0.000000,4255.897461,4209.230957,4111.794922,4079.487061,4198.974121,0.000000,4.000000,86.000000,,,,0.000000,4.000000,4.000000,4.000000,4.000000,4.000000,100.000000,,,,,,,,,,,,,,,,,,,,,,,,,,,,,,,,,,,,,,,,,,,,,,,,,,,,,,,,,,,,,,,
1656264873.069386,34.000000,0.000000,4275.897461,4213.846191,4124.102539,4087.179443,4214.358887,0.000000,4.000000,86.000000,,,,0.000000,4.000000,4.000000,4.000000,4.000000,4.000000,100.000000,,,,,,,,,,,,,,,,,,,,,,,,,,,,,,,,,,,,,,,,,,,,,,,,,,,,,,,,,,,,,,,
1656264873.077201,35.000000,0.000000,4249.230957,4257.948730,4094.871826,4094.358887,4246.666504,0.000000,4.000000,86.000000,,,,0.000000,4.000000,4.000000,4.000000,4.000000,4.000000,100.000000,,,,,,,,,,,,,,,,,,,,,,,,,,,,,,,,,,,,,,,,,,,,,,,,,,,,,,,,,,,,,,,
1656264873.085115,36.000000,0.000000,4230.769043,4264.102539,4087.179443,4097.948730,4240.000000,0.000000,4.000000,86.000000,,,,0.000000,4.000000,4.000000,4.000000,4.000000,4.000000,100.000000,,,,,,,,,,,,,,,,,,,,,,,,,,,,,,,,,,,,,,,,,,,,,,,,,,,,,,,,,,,,,,,
1656264873.092929,37.000000,0.000000,4243.589844,4245.641113,4111.282227,4096.410156,4225.128418,0.000000,4.000000,86.000000,,,,0.000000,4.000000,4.000000,4.000000,4.000000,4.000000,100.000000,,,,,,,,,,,,,,,,,,,,,,,,,,,,,,,,,,,,,,,,,,,,,,,,,,,,,,,,,,,,,,,
1656264873.100844,38.000000,0.000000,4233.333496,4241.025879,4113.846191,4078.974365,4216.922852,0.000000,4.000000,86.000000,,,,0.000000,4.000000,4.000000,4.000000,4.000000,4.000000,100.000000,,,,,,,,,,,,,,,,,,,,,,,,,,,,,,,,,,,,,,,,,,,,,,,,,,,,,,,,,,,,,,,
1656264873.108658,39.000000,0.000000,4232.820313,4257.948730,4105.128418,4084.615479,4220.000000,0.000000,4.000000,86.000000,,,,0.000000,4.000000,4.000000,4.000000,4.000000,4.000000,100.000000,,,,,,,,,,,,,,,,,,,,,,,,,,,,,,,,,,,,,,,,,,,,,,,,,,,,,,,,,,,,,,,
1656264873.116572,40.000000,0.000000,4235.897461,4263.589844,4086.153809,4082.051270,4226.666504,0.000000,4.000000,86.000000,,,,0.000000,4.000000,4.000000,4.000000,4.000000,4.000000,100.000000,,,,,,,,,,,,,,,,,,,,,,,,,,,,,,,,,,,,,,,,,,,,,,,,,,,,,,,,,,,,,,,
1656264873.124387,41.000000,0.000000,4254.358887,4256.410156,4090.256348,4082.564209,4243.077148,0.000000,4.000000,86.000000,,,,0.000000,4.000000,4.000000,4.000000,4.000000,4.000000,100.000000,,,,,,,,,,,,,,,,,,,,,,,,,,,,,,,,,,,,,,,,,,,,,,,,,,,,,,,,,,,,,,,
1656264873.132101,42.000000,0.000000,4272.820313,4261.025879,4106.153809,4103.589844,4253.333496,0.000000,4.000000,86.000000,,,,0.000000,4.000000,4.000000,4.000000,4.000000,4.000000,100.000000,,,,,,,,,,,,,,,,,,,,,,,,,,,,,,,,,,,,,,,,,,,,,,,,,,,,,,,,,,,,,,,
1656264873.139916,43.000000,0.000000,4255.897461,4258.974121,4093.333252,4102.563965,4241.538574,0.000000,4.000000,86.000000,,,,0.000000,4.000000,4.000000,4.000000,4.000000,4.000000,100.000000,,,,,,,,,,,,,,,,,,,,,,,,,,,,,,,,,,,,,,,,,,,,,,,,,,,,,,,,,,,,,,,
1656264873.147630,44.000000,0.000000,4263.589844,4264.102539,4099.487305,4103.077148,4243.077148,0.000000,4.000000,86.000000,,,,0.000000,4.000000,4.000000,4.000000,4.000000,4.000000,100.000000,,,,,,,,,,,,,,,,,,,,,,,,,,,,,,,,,,,,,,,,,,,,,,,,,,,,,,,,,,,,,,,
1656264873.155445,45.000000,0.000000,4270.769043,4252.307617,4116.410156,4091.794922,4223.077148,0.000000,4.000000,86.000000,,,,0.000000,4.000000,4.000000,4.000000,4.000000,4.000000,100.000000,,,,,,,,,,,,,,,,,,,,,,,,,,,,,,,,,,,,,,,,,,,,,,,,,,,,,,,,,,,,,,,
1656264873.163159,46.000000,0.000000,4263.077148,4239.487305,4125.641113,4080.512939,4212.820313,0.000000,4.000000,86.000000,,,,0.000000,4.000000,4.000000,4.000000,4.000000,4.000000,100.000000,,,,,,,,,,,,,,,,,,,,,,,,,,,,,,,,,,,,,,,,,,,,,,,,,,,,,,,,,,,,,,,
1656264873.170974,47.000000,0.000000,4284.615234,4265.128418,4113.333496,4115.384766,4254.358887,0.000000,4.000000,86.000000,,,,0.000000,4.000000,4.000000,4.000000,4.000000,4.000000,100.000000,,,,,,,,,,,,,,,,,,,,,,,,,,,,,,,,,,,,,,,4.433237,3.060051,1.223334,2.609276,1.440006,3.225312,1.659684,2.309452,3.659145,2.276709,5.966003,3.002008,0.907706,3.096315,1.426975,3.383841,4.750433,1.131325,1.390219,1.772966,5.300557,5.173544,1.857791,2.388694,2.040742
1656264873.178688,48.000000,0.000000,4286.666504,4265.641113,4087.692383,4128.717773,4262.051270,0.000000,4.000000,86.000000,,,,0.000000,4.000000,4.000000,4.000000,4.000000,4.000000,100.000000,,,,,,,,,,,,,,,,,,,,,,,,,,,,,,,,,,,,,,,,,,,,,,,,,,,,,,,,,,,,,,,
1656264873.186503,49.000000,0.000000,4276.410156,4264.615234,4120.000000,4120.000000,4247.179688,0.000000,4.000000,86.000000,,,,0.000000,4.000000,4.000000,4.000000,4.000000,4.000000,100.000000,,,,,,,,,,,,,,,,,,,,,,,,,,,,,,,,,,,,,,,,,,,,,,,,,,,,,,,,,,,,,,,
1656264873.194217,50.000000,0.000000,4284.615234,4265.641113,4138.974121,4113.333496,4243.589844,0.000000,4.000000,86.000000,,,,0.000000,4.000000,4.000000,4.000000,4.000000,4.000000,100.000000,,,,,,,,,,,,,,,,,,,,,,,,,,,,,,,,,,,,,,,,,,,,,,,,,,,,,,,,,,,,,,,
1656264873.202031,51.000000,0.000000,4304.615234,4262.051270,4117.948730,4114.871582,4260.000000,0.000000,4.000000,86.000000,,,,0.000000,4.000000,4.000000,4.000000,4.000000,4.000000,100.000000,,,,,,,,,,,,,,,,,,,,,,,,,,,,,,,,,,,,,,,,,,,,,,,,,,,,,,,,,,,,,,,
1656264873.209746,52.000000,0.000000,4303.589844,4277.948730,4114.358887,4122.563965,4269.743652,0.000000,4.000000,86.000000,,,,0.000000,4.000000,4.000000,4.000000,4.000000,4.000000,100.000000,,,,,,,,,,,,,,,,,,,,,,,,,,,,,,,,,,,,,,,,,,,,,,,,,,,,,,,,,,,,,,,
1656264873.217560,53.000000,0.000000,4255.384766,4255.897461,4102.051270,4082.051270,4220.512695,0.000000,4.000000,86.000000,,,,0.000000,4.000000,4.000000,4.000000,4.000000,4.000000,100.000000,,,,,,,,,,,,,,,,,,,,,,,,,,,,,,,,,,,,,,,,,,,,,,,,,,,,,,,,,,,,,,,
1656264873.225275,54.000000,0.000000,4272.307617,4252.307617,4116.410156,4080.512939,4224.615234,0.000000,4.000000,86.000000,,,,0.000000,4.000000,4.000000,4.000000,4.000000,4.000000,100.000000,,,,,,,,,,,,,,,,,,,,,,,,,,,,,,,,,,,,,,,,,,,,,,,,,,,,,,,,,,,,,,,
1656264873.233189,55.000000,0.000000,4298.974121,4267.179688,4113.333496,4098.461426,4247.179688,0.000000,4.000000,86.000000,,,,0.000000,4.000000,4.000000,4.000000,4.000000,4.000000,100.000000,,,,,,,,,,,,,,,,,,,,,,,,,,,,,,,,,,,,,,,,,,,,,,,,,,,,,,,,,,,,,,,
1656264873.241004,56.000000,0.000000,4267.692383,4256.922852,4086.666748,4081.538574,4219.487305,0.000000,4.000000,86.000000,,,,0.000000,4.000000,4.000000,4.000000,4.000000,4.000000,100.000000,,,,,,,,,,,,,,,,,,,,,,,,,,,,,,,,,,,,,,,,,,,,,,,,,,,,,,,,,,,,,,,
1656264873.248918,57.000000,0.000000,4285.128418,4273.846191,4101.025879,4109.230957,4241.025879,0.000000,4.000000,86.000000,,,,0.000000,4.000000,4.000000,4.000000,4.000000,4.000000,100.000000,,,,,,,,,,,,,,,,,,,,,,,,,,,,,,,,,,,,,,,,,,,,,,,,,,,,,,,,,,,,,,,
1656264873.256732,58.000000,0.000000,4273.846191,4260.000000,4103.589844,4089.743652,4236.410156,0.000000,4.000000,86.000000,,,,0.000000,4.000000,4.000000,4.000000,4.000000,4.000000,100.000000,,,,,,,,,,,,,,,,,,,,,,,,,,,,,,,,,,,,,,,,,,,,,,,,,,,,,,,,,,,,,,,
1656264873.264647,59.000000,0.000000,4280.512695,4271.794922,4135.384766,4080.512939,4233.333496,0.000000,4.000000,86.000000,,,,0.000000,4.000000,4.000000,4.000000,4.000000,4.000000,100.000000,,,,,,,,,,,,,,,,,,,,,,,,,,,,,,,,,,,,,,,,,,,,,,,,,,,,,,,,,,,,,,,
1656264873.272461,60.000000,0.000000,4311.794922,4289.743652,4125.128418,4117.436035,4258.974121,0.000000,4.000000,86.000000,,,,0.000000,4.000000,4.000000,4.000000,4.000000,4.000000,100.000000,,,,,,,,,,,,,,,,,,,,,,,,,,,,,,,,,,,,,,,,,,,,,,,,,,,,,,,,,,,,,,,
1656264873.280375,61.000000,0.000000,4271.794922,4266.666504,4073.846191,4092.820557,4249.230957,0.000000,4.000000,86.000000,,,,0.000000,4.000000,4.000000,4.000000,4.000000,4.000000,100.000000,,,,,,,,,,,,,,,,,,,,,,,,,,,,,,,,,,,,,,,,,,,,,,,,,,,,,,,,,,,,,,,
1656264873.288190,62.000000,0.000000,4304.102539,4283.077148,4125.641113,4110.769043,4263.077148,0.000000,4.000000,86.000000,,,,0.000000,4.000000,4.000000,4.000000,4.000000,4.000000,100.000000,,,,,,,,,,,,,,,,,,,,,,,,,,,,,,,,,,,,,,,,,,,,,,,,,,,,,,,,,,,,,,,
1656264873.296104,63.000000,0.000000,4331.282227,4218.974121,4125.128418,4112.307617,4218.461426,0.000000,4.000000,86.000000,,,,0.000000,4.000000,4.000000,4.000000,4.000000,4.000000,100.000000,,,,,,,,,,,,,,,,,,,,,,,,,,,,,,,,,,,,,,,4.758358,2.716739,1.452593,2.955041,1.519699,3.891899,2.114329,2.019874,3.788687,2.103281,5.550405,2.665561,0.909316,2.994184,1.350562,3.706019,3.796153,1.344628,1.518067,1.680126,5.734886,4.902385,2.034103,2.254279,1.889035
1656264873.303918,64.000000,0.000000,4312.820313,4195.384766,4097.948730,4092.307617,4201.538574,450.000000,4.000000,86.000000,,,,0.000000,4.000000,4.000000,4.000000,4.000000,4.000000,100.000000,,,,,,,,,,,,,,,,,,,,,,,,,,,,,,,,,,,,,,,,,,,,,,,,,,,,,,,,,,,,,,,
1656264873.311633,65.000000,0.000000,4317.948730,4256.922852,4109.230957,4107.692383,4247.179688,450.000000,4.000000,86.000000,,,,0.000000,4.000000,4.000000,4.000000,4.000000,4.000000,100.000000,,,,,,,,,,,,,,,,,,,,,,,,,,,,,,,,,,,,,,,,,,,,,,,,,,,,,,,,,,,,,,,
1656264873.319447,66.000000,0.000000,4292.820313,4218.974121,4079.487061,4086.666748,4207.692383,16194.000000,4.000000,86.000000,,,,0.000000,4.000000,4.000000,4.000000,4.000000,4.000000,100.000000,,,,,,,,,,,,,,,,,,,,,,,,,,,,,,,,,,,,,,,,,,,,,,,,,,,,,,,,,,,,,,,
1656264873.327162,67.000000,0.000000,4324.615234,4238.461426,4100.000000,4118.974121,4226.666504,450.000000,4.000000,86.000000,,,,0.000000,4.000000,4.000000,4.000000,4.000000,4.000000,100.000000,,,,,,,,,,,,,,,,,,,,,,,,,,,,,,,,,,,,,,,,,,,,,,,,,,,,,,,,,,,,,,,
1656264873.334976,68.000000,0.000000,4313.333496,4267.179688,4102.051270,4104.615234,4243.589844,16189.000000,4.000000,86.000000,,,,0.000000,4.000000,4.000000,4.000000,4.000000,4.000000,100.000000,,,,,,,,,,,,,,,,,,,,,,,,,,,,,,,,,,,,,,,,,,,,,,,,,,,,,,,,,,,,,,,
1656264873.342691,69.000000,0.000000,4286.666504,4246.666504,4105.128418,4063.589844,4221.538574,450.000000,4.000000,86.000000,,,,0.000000,4.000000,4.000000,4.000000,4.000000,4.000000,100.000000,,,,,,,,,,,,,,,,,,,,,,,,,,,,,,,,,,,,,,,,,,,,,,,,,,,,,,,,,,,,,,,
1656264873.350505,70.000000,0.000000,4338.461426,4250.769043,4125.641113,4116.922852,4246.666504,16165.000000,4.000000,86.000000,,,,0.000000,4.000000,4.000000,4.000000,4.000000,4.000000,100.000000,,,,,,,,,,,,,,,,,,,,,,,,,,,,,,,,,,,,,,,,,,,,,,,,,,,,,,,,,,,,,,,
1656264873.358220,71.000000,0.000000,4313.846191,4208.205078,4080.000000,4110.769043,4223.589844,450.000000,4.000000,86.000000,,,,0.000000,4.000000,4.000000,4.000000,4.000000,4.000000,100.000000,,,,,,,,,,,,,,,,,,,,,,,,,,,,,,,,,,,,,,,,,,,,,,,,,,,,,,,,,,,,,,,
1656264873.366134,72.000000,0.000000,4305.641113,4227.692383,4085.641113,4118.974121,4240.000000,450.000000,4.000000,86.000000,,,,0.000000,4.000000,4.000000,4.000000,4.000000,4.000000,100.000000,,,,,,,,,,,,,,,,,,,,,,,,,,,,,,,,,,,,,,,,,,,,,,,,,,,,,,,,,,,,,,,
1656264873.373948,73.000000,0.000000,4290.769043,4247.179688,4088.205078,4110.769043,4247.179688,16196.000000,4.000000,86.000000,,,,0.000000,4.000000,4.000000,4.000000,4.000000,4.000000,100.000000,,,,,,,,,,,,,,,,,,,,,,,,,,,,,,,,,,,,,,,,,,,,,,,,,,,,,,,,,,,,,,,
1656264873.381863,74.000000,0.000000,4254.358887,4216.922852,4092.307617,4056.923096,4218.461426,450.000000,4.000000,86.000000,,,,0.000000,4.000000,4.000000,4.000000,4.000000,4.000000,100.000000,,,,,,,,,,,,,,,,,,,,,,,,,,,,,,,,,,,,,,,,,,,,,,,,,,,,,,,,,,,,,,,
1656264873.389677,75.000000,0.000000,4309.743652,4249.743652,4122.563965,4109.230957,4266.666504,16229.000000,4.000000,86.000000,,,,0.000000,4.000000,4.000000,4.000000,4.000000,4.000000,100.000000,,,,,,,,,,,,,,,,,,,,,,,,,,,,,,,,,,,,,,,,,,,,,,,,,,,,,,,,,,,,,,,
1656264873.397591,76.000000,0.000000,4311.794922,4249.743652,4083.076904,4130.256348,4273.333496,450.000000,4.000000,86.000000,,,,0.000000,4.000000,4.000000,4.000000,4.000000,4.000000,100.000000,,,,,,,,,,,,,,,,,,,,,,,,,,,,,,,,,,,,,,,,,,,,,,,,,,,,,,,,,,,,,,,
1656264873.405406,77.000000,0.000000,4305.641113,4251.794922,4118.974121,4111.794922,4258.461426,450.000000,4.000000,86.000000,,,,0.000000,4.000000,4.000000,4.000000,4.000000,4.000000,100.000000,,,,,,,,,,,,,,,,,,,,,,,,,,,,,,,,,,,,,,,,,,,,,,,,,,,,,,,,,,,,,,,
1656264873.413320,78.000000,0.000000,4327.692383,4244.615234,4159.487305,4112.307617,4238.974121,450.000000,4.000000,86.000000,,,,0.000000,4.000000,4.000000,4.000000,4.000000,4.000000,100.000000,,,,,,,,,,,,,,,,,,,,,,,,,,,,,,,,,,,,,,,,,,,,,,,,,,,,,,,,,,,,,,,
1656264873.421135,79.000000,0.000000,4311.282227,4205.641113,4117.436035,4098.461426,4207.692383,16229.000000,4.000000,86.000000,,,,0.000000,4.000000,4.000000,4.000000,4.000000,4.000000,100.000000,1.000000,100.000000,4.000000,4.000000,4.000000,4.000000,4.000000,,,,,,,,,,,,,,,,,,,,,,,,,,,,,,,,4.897386,2.579235,1.755367,3.173253,1.548959,4.589880,2.727129,2.062752,3.651344,1.894405,4.701279,2.302162,1.109876,2.866887,1.297328,3.715825,3.456822,1.856505,1.626055,1.544348,5.828306,4.668255,2.520640,2.030721,1.690792
1656264873.429049,80.000000,0.000000,4325.641113,4242.051270,4110.769043,4122.563965,4245.128418,450.000000,4.000000,86.000000,,,,0.000000,4.000000,4.000000,4.000000,4.000000,4.000000,100.000000,,,,,,,,,,,,,,,,,,,,,,,,,,,,,,,,,,,,,,,,,,,,,,,,,,,,,,,,,,,,,,,
1656264873.436863,81.000000,0.000000,4318.974121,4250.256348,4100.000000,4110.769043,4245.128418,450.000000,4.000000,86.000000,,,,0.000000,4.000000,4.000000,4.000000,4.000000,4.000000,100.000000,,,,,,,,,,,,,,,,,,,,,,,,,,,,,,,,,,,,,,,,,,,,,,,,,,,,,,,,,,,,,,,
1656264873.444778,82.000000,0.000000,4304.615234,4238.974121,4099.487305,4083.589844,4222.051270,450.000000,4.000000,86.000000,,,,0.000000,4.000000,4.000000,4.000000,4.000000,4.000000,100.000000,,,,,,,,,,,,,,,,,,,,,,,,,,,,,,,,,,,,,,,,,,,,,,,,,,,,,,,,,,,,,,,
1656264873.452592,83.000000,0.000000,4307.179688,4265.641113,4097.948730,4098.461426,4240.512695,16229.000000,4.000000,86.000000,,,,0.000000,4.000000,4.000000,4.000000,4.000000,4.000000,100.000000,,,,,,,,,,,,,,,,,,,,,,,,,,,,,,,,,,,,,,,,,,,,,,,,,,,,,,,,,,,,,,,
1656264873.460506,84.000000,0.000000,4307.692383,4257.948730,4073.846191,4116.410156,4256.922852,450.000000,4.000000,86.000000,,,,0.000000,4.000000,4.000000,4.000000,4.000000,4.000000,100.000000,,,,,,,,,,,,,,,,,,,,,,,,,,,,,,,,,,,,,,,,,,,,,,,,,,,,,,,,,,,,,,,
1656264873.468321,85.000000,0.000000,4300.512695,4255.384766,4097.436035,4122.051270,4259.487305,450.000000,4.000000,86.000000,,,,0.000000,4.000000,4.000000,4.000000,4.000000,4.000000,100.000000,,,,,,,,,,,,,,,,,,,,,,,,,,,,,,,,,,,,,,,,,,,,,,,,,,,,,,,,,,,,,,,
1656264873.476135,86.000000,0.000000,4243.077148,4250.256348,4118.461426,4078.974365,4214.871582,450.000000,4.000000,86.000000,,,,0.000000,4.000000,4.000000,4.000000,4.000000,4.000000,100.000000,,,,,,,,,,,,,,,,,,,,,,,,,,,,,,,,,,,,,,,,,,,,,,,,,,,,,,,,,,,,,,,
1656264873.483949,87.000000,0.000000,4242.563965,4241.538574,4110.769043,4081.538574,4213.333496,16229.000000,4.000000,86.000000,,,,0.000000,4.000000,4.000000,4.000000,4.000000,4.000000,100.000000,,,,,,,,,,,,,,,,,,,,,,,,,,,,,,,,,,,,,,,,,,,,,,,,,,,,,,,,,,,,,,,
1656264873.491764,88.000000,0.000000,4282.051270,4246.153809,4102.051270,4117.948730,4248.717773,450.000000,4.000000,86.000000,,,,0.000000,4.000000,4.000000,4.000000,4.000000,4.000000,100.000000,,,,,,,,,,,,,,,,,,,,,,,,,,,,,,,,,,,,,,,,,,,,,,,,,,,,,,,,,,,,,,,
1656264873.499478,89.000000,0.000000,4257.948730,4231.794922,4107.179688,4086.153809,4226.153809,450.000000,4.000000,86.000000,,,,0.000000,4.000000,4.000000,4.000000,4.000000,4.000000,100.000000,,,,,,,,,,,,,,,,,,,,,,,,,,,,,,,,,,,,,,,,,,,,,,,,,,,,,,,,,,,,,,,
1656264873.507393,90.000000,0.000000,4269.230957,4246.666504,4115.897461,4090.256348,4235.897461,450.000000,4.000000,86.000000,,,,0.000000,4.000000,4.000000,4.000000,4.000000,4.000000,100.000000,,,,,,,,,,,,,,,,,,,,,,,,,,,,,,,,,,,,,,,,,,,,,,,,,,,,,,,,,,,,,,,
1656264873.515207,91.000000,0.000000,4274.871582,4265.641113,4070.256348,4111.282227,4263.589844,16229.000000,4.000000,86.000000,,,,0.000000,4.000000,4.000000,4.000000,4.000000,4.000000,100.000000,,,,,,,,,,,,,,,,,,,,,,,,,,,,,,,,,,,,,,,,,,,,,,,,,,,,,,,,,,,,,,,
1656264873.523022,92.000000,0.000000,4252.307617,4272.820313,4054.871826,4101.538574,4265.641113,450.000000,4.000000,86.000000,,,,0.000000,4.000000,4.000000,4.000000,4.000000,4.000000,100.000000,,,,,,,,,,,,,,,,,,,,,,,,,,,,,,,,,,,,,,,,,,,,,,,,,,,,,,,,,,,,,,,
1656264873.530936,93.000000,0.000000,4282.563965,4251.282227,4099.487305,4123.589844,4257.948730,450.000000,4.000000,86.000000,,,,0.000000,4.000000,4.000000,4.000000,4.000000,4.000000,100.000000,,,,,,,,,,,,,,,,,,,,,,,,,,,,,,,,,,,,,,,,,,,,,,,,,,,,,,,,,,,,,,,
1656264873.538750,94.000000,0.000000,4288.205078,4198.461426,4086.666748,4141.025879,4227.692383,450.000000,4.000000,86.000000,,,,0.000000,4.000000,4.000000,4.000000,4.000000,4.000000,100.000000,,,,,,,,,,,,,,,,,,,,,,,,,,,,,,,,,,,,,,,,,,,,,,,,,,,,,,,,,,,,,,,
1656264873.546565,95.000000,0.000000,4257.436035,4222.563965,4077.948730,4133.333496,4227.692383,16229.000000,4.000000,86.000000,,,,0.000000,4.000000,4.000000,4.000000,4.000000,4.000000,100.000000,,,,,,,,,,,,,,,,,,,,,,,,,,,,,,,,,,,,,,,4.911713,2.608271,2.046167,3.143115,1.501883,5.267401,3.487128,2.418549,3.266775,1.687688,3.712564,2.039341,1.427119,2.755849,1.298352,3.490501,3.757223,2.548521,1.649284,1.375726,5.679739,4.489602,3.264428,1.806274,1.516337
1656264873.554279,96.000000,0.000000,4222.051270,4240.512695,4100.512695,4081.025635,4202.563965,450.000000,4.000000,86.000000,,,,0.000000,4.000000,4.000000,4.000000,4.000000,4.000000,100.000000,,,,,,,,,,,,,,,,,,,,,,,,,,,,,,,,,,,,,,,,,,,,,,,,,,,,,,,,,,,,,,,
1656264873.562094,97.000000,0.000000,4223.589844,4207.692383,4119.487305,4054.358887,4170.256348,450.000000,4.000000,86.000000,,,,0.000000,4.000000,4.000000,4.000000,4.000000,4.000000,100.000000,,,,,,,,,,,,,,,,,,,,,,,,,,,,,,,,,,,,,,,,,,,,,,,,,,,,,,,,,,,,,,,
1656264873.569808,98.000000,0.000000,4272.820313,4239.487305,4112.307617,4122.051270,4225.641113,450.000000,4.000000,86.000000,,,,0.000000,4.000000,4.000000,4.000000,4.000000,4.000000,100.000000,,,,,,,,,,,,,,,,,,,,,,,,,,,,,,,,,,,,,,,,,,,,,,,,,,,,,,,,,,,,,,,
1656264873.577622,99.000000,0.000000,4256.410156,4263.589844,4067.179443,4131.282227,4250.256348,16229.000000,4.000000,86.000000,,,,0.000000,4.000000,4.000000,4.000000,4.000000,4.000000,100.000000,,,,,,,,,,,,,,,,,,,,,,,,,,,,,,,,,,,,,,,,,,,,,,,,,,,,,,,,,,,,,,,
1656264873.585337,100.000000,0.000000,4247.179688,4249.743652,4080.000000,4107.692383,4235.897461,450.000000,4.000000,86.000000,,,,0.000000,4.000000,4.000000,4.000000,4.000000,4.000000,100.000000,,,,,,,,,,,,,,,,,,,,,,,,,,,,,,,,,,,,,,,,,,,,,,,,,,,,,,,,,,,,,,,
1656264873.593151,101.000000,0.000000,4276.922852,4238.461426,4092.820557,4135.384766,4248.205078,450.000000,4.000000,86.000000,,,,0.000000,4.000000,4.000000,4.000000,4.000000,4.000000,100.000000,,,,,,,,,,,,,,,,,,,,,,,,,,,,,,,,,,,,,,,,,,,,,,,,,,,,,,,,,,,,,,,
1656264873.600866,102.000000,0.000000,4266.153809,4240.512695,4070.769287,4136.922852,4251.794922,450.000000,4.000000,86.000000,,,,0.000000,4.000000,4.000000,4.000000,4.000000,4.000000,100.000000,,,,,,,,,,,,,,,,,,,,,,,,,,,,,,,,,,,,,,,,,,,,,,,,,,,,,,,,,,,,,,,
1656264873.608780,103.000000,0.000000,4265.641113,4256.410156,4084.102539,4122.051270,4240.000000,16229.000000,4.000000,86.000000,,,,0.000000,4.000000,4.000000,4.000000,4.000000,4.000000,100.000000,,,,,,,,,,,,,,,,,,,,,,,,,,,,,,,,,,,,,,,,,,,,,,,,,,,,,,,,,,,,,,,
1656264873.616595,104.000000,0.000000,4268.205078,4241.025879,4068.718018,4109.230957,4215.897461,450.000000,4.000000,86.000000,,,,0.000000,4.000000,4.000000,4.000000,4.000000,4.000000,100.000000,,,,,,,,,,,,,,,,,,,,,,,,,,,,,,,,,,,,,,,,,,,,,,,,,,,,,,,,,,,,,,,
1656264873.624509,105.000000,0.000000,4269.743652,4248.205078,4074.358887,4109.230957,4223.077148,450.000000,4.000000,86.000000,,,,0.000000,4.000000,4.000000,4.000000,4.000000,4.000000,100.000000,,,,,,,,,,,,,,,,,,,,,,,,,,,,,,,,,,,,,,,,,,,,,,,,,,,,,,,,,,,,,,,
1656264873.632323,106.000000,1.000000,4265.448730,4247.884766,4076.346191,4105.897461,4221.410156,450.000000,4.000000,86.000000,,,,0.000000,4.000000,4.000000,4.000000,4.000000,4.000000,100.000000,,,,,,,,,,,,,,,,,,,,,,,,,,,,,,,,,,,,,,,,,,,,,,,,,,,,,,,,,,,,,,,
1656264873.640138,107.000000,1.000000,4261.153809,4247.563965,4078.333252,4102.563965,4219.743652,450.000000,4.000000,86.000000,,,,0.000000,4.000000,4.000000,4.000000,4.000000,4.000000,100.000000,,,,,,,,,,,,,,,,,,,,,,,,,,,,,,,,,,,,,,,,,,,,,,,,,,,,,,,,,,,,,,,
1656264873.647952,108.000000,1.000000,4256.858887,4247.243652,4080.320557,4099.230957,4218.077148,450.000000,4.000000,86.000000,,,,0.000000,4.000000,4.000000,4.000000,4.000000,4.000000,100.000000,,,,,,,,,,,,,,,,,,,,,,,,,,,,,,,,,,,,,,,,,,,,,,,,,,,,,,,,,,,,,,,
1656264873.655767,109.000000,1.000000,4252.563965,4246.922852,4082.307617,4095.897461,4216.410156,450.000000,4.000000,86.000000,,,,0.000000,4.000000,4.000000,4.000000,4.000000,4.000000,100.000000,,,,,,,,,,,,,,,,,,,,,,,,,,,,,,,,,,,,,,,,,,,,,,,,,,,,,,,,,,,,,,,
1656264873.663581,110.000000,1.000000,4248.269043,4246.602539,4084.294922,4092.564209,4214.743652,450.000000,4.000000,86.000000,,,,0.000000,4.000000,4.000000,4.000000,4.000000,4.000000,100.000000,,,,,,,,,,,,,,,,,,,,,,,,,,,,,,,,,,,,,,,,,,,,,,,,,,,,,,,,,,,,,,,
1656264873.671395,111.000000,1.000000,4243.974121,4246.282227,4086.281982,4089.230713,4213.077148,450.000000,4.000000,86.000000,,,,0.000000,4.000000,4.000000,4.000000,4.000000,4.000000,100.000000,,,,,,,,,,,,,,,,,,,,,,,,,,,,,,,,,,,,,,,4.815166,2.761551,2.259682,2.836674,1.391528,5.839085,4.285962,2.956475,2.748355,1.522936,2.894100,1.935829,1.792643,2.650640,1.370591,3.159468,4.417268,3.186661,1.577630,1.205293,5.405661,4.348355,4.106586,1.663181,1.414207
1656264873.679210,112.000000,1.000000,4239.679688,4245.961426,4088.269287,4085.897461,4211.410156,450.000000,4.000000,86.000000,,,,0.000000,4.000000,4.000000,4.000000,4.000000,4.000000,100.000000,,,,,,,,,,,,,,,,,,,,,,,,,,,,,,,,,,,,,,,,,,,,,,,,,,,,,,,,,,,,,,,
1656264873.687024,113.000000,0.000000,4235.384766,4245.641113,4090.256348,4082.564209,4209.743652,450.000000,4.000000,86.000000,,,,0.000000,4.000000,4.000000,4.000000,4.000000,4.000000,100.000000,,,,,,,,,,,,,,,,,,,,,,,,,,,,,,,,,,,,,,,,,,,,,,,,,,,,,,,,,,,,,,,
1656264873.694739,114.000000,0.000000,4254.358887,4272.820313,4097.436035,4091.794922,4235.384766,450.000000,4.000000,86.000000,,,,0.000000,4.000000,4.000000,4.000000,4.000000,4.000000,100.000000,,,,,,,,,,,,,,,,,,,,,,,,,,,,,,,,,,,,,,,,,,,,,,,,,,,,,,,,,,,,,,,
1656264873.702453,115.000000,0.000000,4258.974121,4257.948730,4091.794922,4062.051270,4230.256348,16229.000000,4.000000,86.000000,,,,0.000000,4.000000,4.000000,4.000000,4.000000,4.000000,100.000000,,,,,,,,,,,,,,,,,,,,,,,,,,,,,,,,,,,,,,,,,,,,,,,,,,,,,,,,,,,,,,,
1656264873.710268,116.000000,0.000000,4294.358887,4265.641113,4107.179688,4079.487061,4243.077148,450.000000,4.000000,86.000000,,,,0.000000,4.000000,4.000000,4.000000,4.000000,4.000000,100.000000,,,,,,,,,,,,,,,,,,,,,,,,,,,,,,,,,,,,,,,,,,,,,,,,,,,,,,,,,,,,,,,
1656264873.718082,117.000000,0.000000,4273.333496,4248.717773,4098.974121,4074.358887,4213.333496,450.000000,4.000000,86.000000,,,,0.000000,4.000000,4.000000,4.000000,4.000000,4.000000,100.000000,,,,,,,,,,,,,,,,,,,,,,,,,,,,,,,,,,,,,,,,,,,,,,,,,,,,,,,,,,,,,,,
1656264873.725896,118.000000,0.000000,4266.153809,4251.794922,4091.794922,4092.307617,4218.974121,450.000000,4.000000,86.000000,,,,0.000000,4.000000,4.000000,4.000000,4.000000,4.000000,100.000000,,,,,,,,,,,,,,,,,,,,,,,,,,,,,,,,,,,,,,,,,,,,,,,,,,,,,,,,,,,,,,,
1656264873.733611,119.000000,0.000000,4276.922852,4284.615234,4057.948730,4136.922852,4264.102539,16229.000000,4.000000,86.000000,,,,0.000000,4.000000,4.000000,4.000000,4.000000,4.000000,100.000000,,,,,,,,,,,,,,,,,,,,,,,,,,,,,,,,,,,,,,,,,,,,,,,,,,,,,,,,,,,,,,,
1656264873.741425,120.000000,0.000000,4263.077148,4284.615234,4066.153809,4141.538574,4257.948730,450.000000,4.000000,86.000000,,,,0.000000,4.000000,4.000000,4.000000,4.000000,4.000000,100.000000,,,,,,,,,,,,,,,,,,,,,,,,,,,,,,,,,,,,,,,,,,,,,,,,,,,,,,,,,,,,,,,
1656264873.749140,121.000000,0.000000,4267.179688,4276.410156,4103.077148,4146.666504,4250.256348,450.000000,4.000000,86.000000,,,,0.000000,4.000000,4.000000,4.000000,4.000000,4.000000,100.000000,,,,,,,,,,,,,,,,,,,,,,,,,,,,,,,,,,,,,,,,,,,,,,,,,,,,,,,,,,,,,,,
1656264873.756954,122.000000,0.000000,4272.307617,4265.641113,4078.974365,4155.384766,4268.717773,450.000000,4.000000,86.000000,,,,0.000000,4.000000,4.000000,4.000000,4.000000,4.000000,100.000000,,,,,,,,,,,,,,,,,,,,,,,,,,,,,,,,,,,,,,,,,,,,,,,,,,,,,,,,,,,,,,,
1656264873.764669,123.000000,0.000000,4269.743652,4259.487305,4079.487061,4142.563965,4270.256348,16229.000000,4.000000,86.000000,,,,0.000000,4.000000,4.000000,4.000000,4.000000,4.000000,100.000000,,,,,,,,,,,,,,,,,,,,,,,,,,,,,,,,,,,,,,,,,,,,,,,,,,,,,,,,,,,,,,,
1656264873.772483,124.000000,0.000000,4262.563965,4268.717773,4106.666504,4108.717773,4245.128418,450.000000,4.000000,86.000000,,,,0.000000,4.000000,4.000000,4.000000,4.000000,4.000000,100.000000,,,,,,,,,,,,,,,,,,,,,,,,,,,,,,,,,,,,,,,,,,,,,,,,,,,,,,,,,,,,,,,
1656264873.780198,125.000000,0.000000,4258.974121,4275.897461,4086.666748,4091.281982,4238.974121,450.000000,4.000000,86.000000,,,,0.000000,4.000000,4.000000,4.000000,4.000000,4.000000,100.000000,,,,,,,,,,,,,,,,,,,,,,,,,,,,,,,,,,,,,,,,,,,,,,,,,,,,,,,,,,,,,,,
1656264873.787912,126.000000,0.000000,4263.589844,4260.512695,4078.461426,4090.256348,4237.948730,450.000000,4.000000,86.000000,,,,0.000000,4.000000,4.000000,4.000000,4.000000,4.000000,100.000000,,,,,,,,,,,,,,,,,,,,,,,,,,,,,,,,,,,,,,,,,,,,,,,,,,,,,,,,,,,,,,,
1656264873.795727,127.000000,0.000000,4262.051270,4230.769043,4107.179688,4072.820557,4206.666504,241.000000,4.000000,86.000000,,,,0.000000,4.000000,4.000000,4.000000,4.000000,4.000000,100.000000,,,,,,,,,,,,,,,,,,,,,,,,,,,,,,,,,,,,,,,4.701161,3.013223,2.386079,2.353534,1.274012,6.219233,4.947761,3.501297,2.276594,1.425907,2.430876,1.955618,2.175205,2.500951,1.506821,2.875475,5.039564,3.566418,1.459068,1.089968,5.097248,4.225813,4.868048,1.639535,1.397355
1656264873.803441,0.000000,0.000000,4246.666504,4234.871582,4098.461426,4080.000000,4201.025879,450.000000,4.000000,86.000000,,,,0.000000,4.000000,4.000000,4.000000,4.000000,4.000000,100.000000,,,,,,,,,,,,,,,,,,,,,,,,,,,,,,,,,,,,,,,,,,,,,,,,,,,,,,,,,,,,,,,
1656264873.811256,1.000000,0.000000,4226.666504,4255.897461,4059.487061,4111.794922,4226.153809,450.000000,4.000000,86.000000,,,,0.000000,4.000000,4.000000,4.000000,4.000000,4.000000,100.000000,,,,,,,,,,,,,,,,,,,,,,,,,,,,,,,,,,,,,,,,,,,,,,,,,,,,,,,,,,,,,,,
1656264873.818970,2.000000,0.000000,4236.922852,4248.717773,4060.512939,4113.846191,4227.179688,16203.000000,4.000000,86.000000,,,,0.000000,4.000000,4.000000,4.000000,4.000000,4.000000,100.000000,,,,,,,,,,,,,,,,,,,,,,,,,,,,,,,,,,,,,,,,,,,,,,,,,,,,,,,,,,,,,,,
1656264873.826784,3.000000,0.000000,4256.922852,4247.179688,4081.025635,4104.102539,4222.563965,450.000000,4.000000,86.000000,,,,0.000000,4.000000,4.000000,4.000000,4.000000,4.000000,100.000000,,,,,,,,,,,,,,,,,,,,,,,,,,,,,,,,,,,,,,,,,,,,,,,,,,,,,,,,,,,,,,,
1656264873.834499,4.000000,0.000000,4246.153809,4266.666504,4074.358887,4105.641113,4227.179688,16150.000000,4.000000,86.000000,,,,0.000000,4.000000,4.000000,4.000000,4.000000,4.000000,100.000000,,,,,,,,,,,,,,,,,,,,,,,,,,,,,,,,,,,,,,,,,,,,,,,,,,,,,,,,,,,,,,,
1656264873.842313,5.000000,0.000000,4248.205078,4264.615234,4061.538574,4097.436035,4223.589844,450.000000,4.000000,86.000000,,,,0.000000,4.000000,4.000000,4.000000,4.000000,4.000000,100.000000,,,,,,,,,,,,,,,,,,,,,,,,,,,,,,,,,,,,,,,,,,,,,,,,,,,,,,,,,,,,,,,
1656264873.850028,6.000000,0.000000,4271.794922,4252.307617,4046.153809,4089.230713,4229.743652,16196.000000,4.000000,86.000000,,,,0.000000,4.000000,4.000000,4.000000,4.000000,4.000000,100.000000,,,,,,,,,,,,,,,,,,,,,,,,,,,,,,,,,,,,,,,,,,,,,,,,,,,,,,,,,,,,,,,
1656264873.857842,7.000000,0.000000,4269.230957,4260.512695,4043.589844,4094.358887,4243.077148,450.000000,4.000000,86.000000,,,,0.000000,4.000000,4.000000,4.000000,4.000000,4.000000,100.000000,,,,,,,,,,,,,,,,,,,,,,,,,,,,,,,,,,,,,,,,,,,,,,,,,,,,,,,,,,,,,,,
1656264873.865557,8.000000,0.000000,4269.230957,4269.743652,4060.512939,4103.589844,4244.615234,450.000000,4.000000,86.000000,,,,0.000000,4.000000,4.000000,4.000000,4.000000,4.000000,100.000000,,,,,,,,,,,,,,,,,,,,,,,,,,,,,,,,,,,,,,,,,,,,,,,,,,,,,,,,,,,,,,,
1656264873.873371,9.000000,0.000000,4277.436035,4267.692383,4058.974365,4101.538574,4239.487305,16189.000000,4.000000,86.000000,,,,0.000000,4.000000,4.000000,4.000000,4.000000,4.000000,100.000000,,,,,,,,,,,,,,,,,,,,,,,,,,,,,,,,,,,,,,,,,,,,,,,,,,,,,,,,,,,,,,,
1656264873.881086,10.000000,0.000000,4272.307617,4269.743652,4062.051270,4090.256348,4239.487305,450.000000,4.000000,86.000000,,,,0.000000,4.000000,4.000000,4.000000,4.000000,4.000000,100.000000,,,,,,,,,,,,,,,,,,,,,,,,,,,,,,,,,,,,,,,,,,,,,,,,,,,,,,,,,,,,,,,
1656264873.888900,11.000000,0.000000,4282.051270,4274.358887,4075.897461,4106.153809,4253.333496,16218.000000,4.000000,86.000000,,,,0.000000,4.000000,4.000000,4.000000,4.000000,4.000000,100.000000,,,,,,,,,,,,,,,,,,,,,,,,,,,,,,,,,,,,,,,,,,,,,,,,,,,,,,,,,,,,,,,
1656264873.896615,12.000000,0.000000,4284.102539,4276.922852,4072.307617,4117.436035,4255.384766,450.000000,4.000000,86.000000,,,,0.000000,4.000000,4.000000,4.000000,4.000000,4.000000,100.000000,,,,,,,,,,,,,,,,,,,,,,,,,,,,,,,,,,,,,,,,,,,,,,,,,,,,,,,,,,,,,,,
1656264873.904429,13.000000,0.000000,4277.948730,4258.461426,4071.794922,4109.230957,4236.410156,450.000000,4.000000,86.000000,,,,0.000000,4.000000,4.000000,4.000000,4.000000,4.000000,100.000000,,,,,,,,,,,,,,,,,,,,,,,,,,,,,,,,,,,,,,,,,,,,,,,,,,,,,,,,,,,,,,,
1656264873.912144,14.000000,0.000000,4287.179688,4230.769043,4074.358887,4119.487305,4236.922852,450.000000,4.000000,86.000000,,,,0.000000,4.000000,4.000000,4.000000,4.000000,4.000000,100.000000,,,,,,,,,,,,,,,,,,,,,,,,,,,,,,,,,,,,,,,,,,,,,,,,,,,,,,,,,,,,,,,
1656264873.919858,15.000000,0.000000,4282.051270,4243.589844,4066.666748,4129.743652,4246.153809,16218.000000,4.000000,86.000000,,,,0.000000,4.000000,4.000000,4.000000,4.000000,4.000000,100.000000,0.972656,100.000000,4.000000,4.000000,4.000000,4.000000,4.000000,,,,,,,,,,,,,,,,,,,,,,,,,,,,,,,,4.603499,3.345091,2.421974,1.865764,1.213399,6.337899,5.305805,3.930141,2.002336,1.394797,2.333260,2.025630,2.593765,2.258112,1.675713,2.730359,5.347089,3.675823,1.367161,1.088494,4.755068,4.179434,5.480818,1.724330,1.447974
1656264873.927672,16.000000,0.000000,4261.025879,4265.128418,4071.281982,4123.077148,4229.230957,0.000000,4.000000,86.000000,,,,0.000000,4.000000,4.000000,4.000000,4.000000,4.000000,100.000000,,,,,,,,,,,,,,,,,,,,,,,,,,,,,,,,,,,,,,,,,,,,,,,,,,,,,,,,,,,,,,,
1656264873.935487,17.000000,0.000000,4254.871582,4249.743652,4081.025635,4114.358887,4216.922852,0.000000,4.000000,86.000000,,,,0.000000,4.000000,4.000000,4.000000,4.000000,4.000000,100.000000,,,,,,,,,,,,,,,,,,,,,,,,,,,,,,,,,,,,,,,,,,,,,,,,,,,,,,,,,,,,,,,
1656264873.943201,18.000000,0.000000,4264.615234,4225.128418,4084.615479,4106.153809,4223.589844,0.000000,4.000000,86.000000,,,,0.000000,4.000000,4.000000,4.000000,4.000000,4.000000,100.000000,,,,,,,,,,,,,,,,,,,,,,,,,,,,,,,,,,,,,,,,,,,,,,,,,,,,,,,,,,,,,,,
1656264873.950916,19.000000,0.000000,4264.102539,4226.153809,4077.435791,4099.487305,4215.384766,0.000000,4.000000,86.000000,,,,0.000000,4.000000,4.000000,4.000000,4.000000,4.000000,100.000000,,,,,,,,,,,,,,,,,,,,,,,,,,,,,,,,,,,,,,,,,,,,,,,,,,,,,,,,,,,,,,,
1656264873.958730,20.000000,0.000000,4248.717773,4261.025879,4053.846191,4100.512695,4214.871582,0.000000,4.000000,86.000000,,,,0.000000,4.000000,4.000000,4.000000,4.000000,4.000000,100.000000,,,,,,,,,,,,,,,,,,,,,,,,,,,,,,,,,,,,,,,,,,,,,,,,,,,,,,,,,,,,,,,
1656264873.966445,21.000000,0.000000,4254.358887,4257.948730,4059.487061,4096.922852,4215.897461,0.000000,4.000000,86.000000,,,,0.000000,4.000000,4.000000,4.000000,4.000000,4.000000,100.000000,,,,,,,,,,,,,,,,,,,,,,,,,,,,,,,,,,,,,,,,,,,,,,,,,,,,,,,,,,,,,,,
1656264873.974259,22.000000,0.000000,4280.512695,4203.077148,4083.589844,4094.871826,4198.461426,0.000000,4.000000,86.000000,,,,0.000000,4.000000,4.000000,4.000000,4.000000,4.000000,100.000000,,,,,,,,,,,,,,,,,,,,,,,,,,,,,,,,,,,,,,,,,,,,,,,,,,,,,,,,,,,,,,,
1656264873.981974,23.000000,0.000000,4283.077148,4206.666504,4079.487061,4109.743652,4212.820313,0.000000,4.000000,86.000000,,,,0.000000,4.000000,4.000000,4.000000,4.000000,4.000000,100.000000,,,,,,,,,,,,,,,,,,,,,,,,,,,,,,,,,,,,,,,,,,,,,,,,,,,,,,,,,,,,,,,
1656264873.989788,24.000000,0.000000,4263.077148,4258.461426,4083.589844,4098.974121,4238.974121,0.000000,4.000000,86.000000,,,,0.000000,4.000000,4.000000,4.000000,4.000000,4.000000,100.000000,,,,,,,,,,,,,,,,,,,,,,,,,,,,,,,,,,,,,,,,,,,,,,,,,,,,,,,,,,,,,,,
1656264873.997503,25.000000,0.000000,4258.974121,4268.205078,4103.589844,4071.281982,4235.384766,0.000000,4.000000,86.000000,,,,0.000000,4.000000,4.000000,4.000000,4.000000,4.000000,100.000000,,,,,,,,,,,,,,,,,,,,,,,,,,,,,,,,,,,,,,,,,,,,,,,,,,,,,,,,,,,,,,,
1656264874.005317,26.000000,0.000000,4285.641113,4242.563965,4113.846191,4083.589844,4230.769043,0.000000,4.000000,86.000000,,,,0.000000,4.000000,4.000000,4.000000,4.000000,4.000000,100.000000,,,,,,,,,,,,,,,,,,,,,,,,,,,,,,,,,,,,,,,,,,,,,,,,,,,,,,,,,,,,,,,
1656264874.013032,27.000000,0.000000,4306.153809,4218.974121,4114.871582,4115.384766,4234.358887,0.000000,4.000000,86.000000,,,,0.000000,4.000000,4.000000,4.000000,4.000000,4.000000,100.000000,,,,,,,,,,,,,,,,,,,,,,,,,,,,,,,,,,,,,,,,,,,,,,,,,,,,,,,,,,,,,,,
1656264874.020846,28.000000,0.000000,4295.897461,4228.717773,4112.820313,4126.666504,4243.077148,0.000000,4.000000,86.000000,,,,0.000000,4.000000,4.000000,4.000000,4.000000,4.000000,100.000000,,,,,,,,,,,,,,,,,,,,,,,,,,,,,,,,,,,,,,,,,,,,,,,,,,,,,,,,,,,,,,,
1656264874.028560,29.000000,0.000000,4294.358887,4257.436035,4109.230957,4130.769043,4261.538574,0.000000,4.000000,86.000000,,,,0.000000,4.000000,4.000000,4.000000,4.000000,4.000000,100.000000,,,,,,,,,,,,,,,,,,,,,,,,,,,,,,,,,,,,,,,,,,,,,,,,,,,,,,,,,,,,,,,
1656264874.036375,30.000000,0.000000,4305.641113,4249.230957,4106.666504,4134.358887,4265.128418,0.000000,4.000000,86.000000,,,,0.000000,4.000000,4.000000,4.000000,4.000000,4.000000,100.000000,,,,,,,,,,,,,,,,,,,,,,,,,,,,,,,,,,,,,,,,,,,,,,,,,,,,,,,,,,,,,,,
1656264874.044089,31.000000,0.000000,4294.358887,4248.717773,4090.256348,4125.128418,4261.538574,0.000000,4.000000,86.000000,,,,0.000000,4.000000,4.000000,4.000000,4.000000,4.000000,100.000000,,,,,,,,,,,,,,,,,,,,,,,,,,,,,,,,,,,,,,,4.577703,3.737592,2.375817,1.521492,1.239830,6.198776,5.255372,4.179440,1.989740,1.405384,2.499560,2.084778,3.056761,1.914374,1.836996,2.844253,5.303511,3.681099,1.359595,1.221108,4.438560,4.250473,5.968731,1.876671,1.534037
1656264874.051904,32.000000,0.000000,4281.025879,4286.666504,4057.435791,4116.922852,4268.205078,0.000000,4.000000,86.000000,,,,0.000000,4.000000,4.000000,4.000000,4.000000,4.000000,100.000000,,,,,,,,,,,,,,,,,,,,,,,,,,,,,,,,,,,,,,,,,,,,,,,,,,,,,,,,,,,,,,,
1656264874.059618,33.000000,0.000000,4287.179688,4289.230957,4065.128174,4122.051270,4260.512695,0.000000,4.000000,86.000000,,,,0.000000,4.000000,4.000000,4.000000,4.000000,4.000000,100.000000,,,,,,,,,,,,,,,,,,,,,,,,,,,,,,,,,,,,,,,,,,,,,,,,,,,,,,,,,,,,,,,
1656264874.067433,34.000000,0.000000,4278.461426,4270.256348,4113.333496,4105.641113,4235.384766,0.000000,4.000000,86.000000,,,,0.000000,4.000000,4.000000,4.000000,4.000000,4.000000,100.000000,,,,,,,,,,,,,,,,,,,,,,,,,,,,,,,,,,,,,,,,,,,,,,,,,,,,,,,,,,,,,,,
1656264874.075147,35.000000,0.000000,4281.025879,4275.897461,4135.384766,4081.538574,4227.179688,0.000000,4.000000,86.000000,,,,0.000000,4.000000,4.000000,4.000000,4.000000,4.000000,100.000000,,,,,,,,,,,,,,,,,,,,,,,,,,,,,,,,,,,,,,,,,,,,,,,,,,,,,,,,,,,,,,,
1656264874.082962,36.000000,0.000000,4308.205078,4290.769043,4115.897461,4097.948730,4250.256348,0.000000,4.000000,86.000000,,,,0.000000,4.000000,4.000000,4.000000,4.000000,4.000000,100.000000,,,,,,,,,,,,,,,,,,,,,,,,,,,,,,,,,,,,,,,,,,,,,,,,,,,,,,,,,,,,,,,
1656264874.090676,37.000000,0.000000,4296.410156,4296.922852,4093.333252,4108.717773,4266.153809,0.000000,4.000000,86.000000,,,,0.000000,4.000000,4.000000,4.000000,4.000000,4.000000,100.000000,,,,,,,,,,,,,,,,,,,,,,,,,,,,,,,,,,,,,,,,,,,,,,,,,,,,,,,,,,,,,,,
1656264874.098491,38.000000,0.000000,4283.589844,4286.153809,4102.051270,4096.922852,4260.512695,0.000000,4.000000,86.000000,,,,0.000000,4.000000,4.000000,4.000000,4.000000,4.000000,100.000000,,,,,,,,,,,,,,,,,,,,,,,,,,,,,,,,,,,,,,,,,,,,,,,,,,,,,,,,,,,,,,,
1656264874.106205,39.000000,0.000000,4312.820313,4276.922852,4101.025879,4111.794922,4263.589844,0.000000,4.000000,86.000000,,,,0.000000,4.000000,4.000000,4.000000,4.000000,4.000000,100.000000,,,,,,,,,,,,,,,,,,,,,,,,,,,,,,,,,,,,,,,,,,,,,,,,,,,,,,,,,,,,,,,
1656264874.114019,40.000000,0.000000,4317.436035,4289.230957,4066.666748,4130.769043,4275.384766,0.000000,4.000000,86.000000,,,,0.000000,4.000000,4.000000,4.000000,4.000000,4.000000,100.000000,,,,,,,,,,,,,,,,,,,,,,,,,,,,,,,,,,,,,,,,,,,,,,,,,,,,,,,,,,,,,,,
1656264874.121734,41.000000,0.000000,4296.922852,4284.615234,4071.281982,4111.794922,4257.436035,0.000000,4.000000,86.000000,,,,0.000000,4.000000,4.000000,4.000000,4.000000,4.000000,100.000000,,,,,,,,,,,,,,,,,,,,,,,,,,,,,,,,,,,,,,,,,,,,,,,,,,,,,,,,,,,,,,,
1656264874.129548,42.000000,0.000000,4305.128418,4241.538574,4135.897461,4082.051270,4217.948730,0.000000,4.000000,86.000000,,,,0.000000,4.000000,4.000000,4.000000,4.000000,4.000000,100.000000,,,,,,,,,,,,,,,,,,,,,,,,,,,,,,,,,,,,,,,,,,,,,,,,,,,,,,,,,,,,,,,
1656264874.137263,43.000000,0.000000,4322.563965,4230.256348,4150.256348,4088.718018,4222.051270,0.000000,4.000000,86.000000,,,,0.000000,4.000000,4.000000,4.000000,4.000000,4.000000,100.000000,,,,,,,,,,,,,,,,,,,,,,,,,,,,,,,,,,,,,,,,,,,,,,,,,,,,,,,,,,,,,,,
1656264874.145077,44.000000,0.000000,4310.769043,4268.717773,4089.743652,4109.743652,4252.820313,0.000000,4.000000,86.000000,,,,0.000000,4.000000,4.000000,4.000000,4.000000,4.000000,100.000000,,,,,,,,,,,,,,,,,,,,,,,,,,,,,,,,,,,,,,,,,,,,,,,,,,,,,,,,,,,,,,,
1656264874.152792,45.000000,0.000000,4286.666504,4298.974121,4067.179443,4107.692383,4260.000000,0.000000,4.000000,86.000000,,,,0.000000,4.000000,4.000000,4.000000,4.000000,4.000000,100.000000,,,,,,,,,,,,,,,,,,,,,,,,,,,,,,,,,,,,,,,,,,,,,,,,,,,,,,,,,,,,,,,
1656264874.160506,46.000000,0.000000,4269.230957,4274.871582,4095.384521,4083.589844,4235.897461,0.000000,4.000000,86.000000,,,,0.000000,4.000000,4.000000,4.000000,4.000000,4.000000,100.000000,,,,,,,,,,,,,,,,,,,,,,,,,,,,,,,,,,,,,,,,,,,,,,,,,,,,,,,,,,,,,,,
1656264874.168321,47.000000,0.000000,4297.436035,4227.692383,4138.461426,4090.256348,4218.461426,0.000000,4.000000,86.000000,,,,0.000000,4.000000,4.000000,4.000000,4.000000,4.000000,100.000000,,,,,,,,,,,,,,,,,,,,,,,,,,,,,,,,,,,,,,,4.666116,4.131290,2.265394,1.369982,1.332960,5.861562,4.799928,4.201516,2.174891,1.431564,2.648408,2.156036,3.514927,1.524714,1.957712,3.358497,5.016622,3.800146,1.446992,1.448522,4.283233,4.374605,6.334435,2.029382,1.620734
1656264874.176135,48.000000,0.000000,4340.512695,4223.077148,4160.512695,4125.128418,4231.794922,0.000000,4.000000,86.000000,,,,0.000000,4.000000,4.000000,4.000000,4.000000,4.000000,100.000000,,,,,,,,,,,,,,,,,,,,,,,,,,,,,,,,,,,,,,,,,,,,,,,,,,,,,,,,,,,,,,,
1656264874.183850,49.000000,0.000000,4299.487305,4244.615234,4108.717773,4111.282227,4242.051270,0.000000,4.000000,86.000000,,,,0.000000,4.000000,4.000000,4.000000,4.000000,4.000000,100.000000,,,,,,,,,,,,,,,,,,,,,,,,,,,,,,,,,,,,,,,,,,,,,,,,,,,,,,,,,,,,,,,
1656264874.191564,50.000000,0.000000,4280.512695,4291.794922,4088.718018,4115.384766,4272.820313,0.000000,4.000000,86.000000,,,,0.000000,4.000000,4.000000,4.000000,4.000000,4.000000,100.000000,,,,,,,,,,,,,,,,,,,,,,,,,,,,,,,,,,,,,,,,,,,,,,,,,,,,,,,,,,,,,,,
1656264874.199379,51.000000,0.000000,4295.897461,4286.153809,4100.512695,4125.128418,4259.487305,0.000000,4.000000,86.000000,,,,0.000000,4.000000,4.000000,4.000000,4.000000,4.000000,100.000000,,,,,,,,,,,,,,,,,,,,,,,,,,,,,,,,,,,,,,,,,,,,,,,,,,,,,,,,,,,,,,,
1656264874.207093,52.000000,0.000000,4269.230957,4244.615234,4085.641113,4091.794922,4216.410156,0.000000,4.000000,86.000000,,,,0.000000,4.000000,4.000000,4.000000,4.000000,4.000000,100.000000,,,,,,,,,,,,,,,,,,,,,,,,,,,,,,,,,,,,,,,,,,,,,,,,,,,,,,,,,,,,,,,
1656264874.214907,53.000000,0.000000,4284.102539,4294.871582,4091.794922,4112.820313,4262.563965,0.000000,4.000000,86.000000,,,,0.000000,4.000000,4.000000,4.000000,4.000000,4.000000,100.000000,,,,,,,,,,,,,,,,,,,,,,,,,,,,,,,,,,,,,,,,,,,,,,,,,,,,,,,,,,,,,,,
1656264874.222622,54.000000,0.000000,4287.179688,4276.410156,4074.358887,4110.769043,4255.384766,0.000000,4.000000,86.000000,,,,0.000000,4.000000,4.000000,4.000000,4.000000,4.000000,100.000000,,,,,,,,,,,,,,,,,,,,,,,,,,,,,,,,,,,,,,,,,,,,,,,,,,,,,,,,,,,,,,,
1656264874.230436,55.000000,0.000000,4324.102539,4219.487305,4096.922852,4130.256348,4244.615234,0.000000,4.000000,86.000000,,,,0.000000,4.000000,4.000000,4.000000,4.000000,4.000000,100.000000,,,,,,,,,,,,,,,,,,,,,,,,,,,,,,,,,,,,,,,,,,,,,,,,,,,,,,,,,,,,,,,
1656264874.238151,56.000000,0.000000,4356.922852,4242.051270,4110.769043,4169.743652,4283.589844,0.000000,4.000000,86.000000,,,,0.000000,4.000000,4.000000,4.000000,4.000000,4.000000,100.000000,,,,,,,,,,,,,,,,,,,,,,,,,,,,,,,,,,,,,,,,,,,,,,,,,,,,,,,,,,,,,,,
1656264874.245965,57.000000,0.000000,4283.589844,4230.769043,4086.666748,4096.922852,4236.922852,0.000000,4.000000,86.000000,,,,0.000000,4.000000,4.000000,4.000000,4.000000,4.000000,100.000000,,,,,,,,,,,,,,,,,,,,,,,,,,,,,,,,,,,,,,,,,,,,,,,,,,,,,,,,,,,,,,,
1656264874.253680,58.000000,0.000000,4315.384766,4236.410156,4153.846191,4095.897461,4232.820313,0.000000,4.000000,86.000000,,,,0.000000,4.000000,4.000000,4.000000,4.000000,4.000000,100.000000,,,,,,,,,,,,,,,,,,,,,,,,,,,,,,,,,,,,,,,,,,,,,,,,,,,,,,,,,,,,,,,
1656264874.261494,59.000000,0.000000,4335.897461,4227.692383,4135.897461,4111.282227,4245.641113,0.000000,4.000000,86.000000,,,,0.000000,4.000000,4.000000,4.000000,4.000000,4.000000,100.000000,,,,,,,,,,,,,,,,,,,,,,,,,,,,,,,,,,,,,,,,,,,,,,,,,,,,,,,,,,,,,,,
1656264874.269209,60.000000,0.000000,4280.512695,4250.769043,4088.205078,4089.230713,4255.384766,0.000000,4.000000,86.000000,,,,0.000000,4.000000,4.000000,4.000000,4.000000,4.000000,100.000000,,,,,,,,,,,,,,,,,,,,,,,,,,,,,,,,,,,,,,,,,,,,,,,,,,,,,,,,,,,,,,,
1656264874.277023,61.000000,0.000000,4300.512695,4314.871582,4139.487305,4121.538574,4288.717773,0.000000,4.000000,86.000000,,,,0.000000,4.000000,4.000000,4.000000,4.000000,4.000000,100.000000,,,,,,,,,,,,,,,,,,,,,,,,,,,,,,,,,,,,,,,,,,,,,,,,,,,,,,,,,,,,,,,
1656264874.284738,62.000000,0.000000,4289.743652,4267.692383,4140.000000,4093.333252,4246.153809,0.000000,4.000000,86.000000,,,,0.000000,4.000000,4.000000,4.000000,4.000000,4.000000,100.000000,,,,,,,,,,,,,,,,,,,,,,,,,,,,,,,,,,,,,,,,,,,,,,,,,,,,,,,,,,,,,,,
1656264874.292552,63.000000,0.000000,4286.153809,4266.666504,4133.333496,4087.692383,4253.333496,0.000000,4.000000,86.000000,,,,0.000000,4.000000,4.000000,4.000000,4.000000,4.000000,100.000000,,,,,,,,,,,,,,,,,,,,,,,,,,,,,,,,,,,,,,,4.910342,4.429261,2.116587,1.356025,1.440122,5.430131,4.072814,3.996715,2.412972,1.473732,2.666854,2.324314,3.880244,1.189676,2.018038,4.342091,4.725561,4.176386,1.592590,1.680706,4.465007,4.472160,6.515387,2.112318,1.674814
1656264874.300267,64.000000,0.000000,4297.948730,4296.410156,4131.794922,4108.205078,4275.384766,450.000000,4.000000,86.000000,,,,0.000000,4.000000,4.000000,4.000000,4.000000,4.000000,100.000000,,,,,,,,,,,,,,,,,,,,,,,,,,,,,,,,,,,,,,,,,,,,,,,,,,,,,,,,,,,,,,,
1656264874.308081,65.000000,0.000000,4274.358887,4251.794922,4133.846191,4080.512939,4230.769043,450.000000,4.000000,86.000000,,,,0.000000,4.000000,4.000000,4.000000,4.000000,4.000000,100.000000,,,,,,,,,,,,,,,,,,,,,,,,,,,,,,,,,,,,,,,,,,,,,,,,,,,,,,,,,,,,,,,
1656264874.315795,66.000000,0.000000,4273.846191,4241.025879,4162.563965,4079.487061,4225.641113,16194.000000,4.000000,86.000000,,,,0.000000,4.000000,4.000000,4.000000,4.000000,4.000000,100.000000,,,,,,,,,,,,,,,,,,,,,,,,,,,,,,,,,,,,,,,,,,,,,,,,,,,,,,,,,,,,,,,
1656264874.323510,67.000000,0.000000,4290.256348,4246.153809,4160.000000,4106.666504,4245.128418,450.000000,4.000000,86.000000,,,,0.000000,4.000000,4.000000,4.000000,4.000000,4.000000,100.000000,,,,,,,,,,,,,,,,,,,,,,,,,,,,,,,,,,,,,,,,,,,,,,,,,,,,,,,,,,,,,,,
1656264874.331324,68.000000,0.000000,4310.256348,4245.641113,4135.384766,4141.025879,4262.051270,16166.000000,4.000000,86.000000,,,,0.000000,4.000000,4.000000,4.000000,4.000000,4.000000,100.000000,,,,,,,,,,,,,,,,,,,,,,,,,,,,,,,,,,,,,,,,,,,,,,,,,,,,,,,,,,,,,,,
1656264874.339039,69.000000,0.000000,4289.743652,4256.410156,4118.461426,4132.820313,4258.461426,450.000000,4.000000,86.000000,,,,0.000000,4.000000,4.000000,4.000000,4.000000,4.000000,100.000000,,,,,,,,,,,,,,,,,,,,,,,,,,,,,,,,,,,,,,,,,,,,,,,,,,,,,,,,,,,,,,,
1656264874.346853,70.000000,0.000000,4265.128418,4238.461426,4143.077148,4090.769287,4222.051270,16179.000000,4.000000,86.000000,,,,0.000000,4.000000,4.000000,4.000000,4.000000,4.000000,100.000000,,,,,,,,,,,,,,,,,,,,,,,,,,,,,,,,,,,,,,,,,,,,,,,,,,,,,,,,,,,,,,,
1656264874.354568,71.000000,0.000000,4284.102539,4207.692383,4152.820313,4085.641113,4207.179688,450.000000,4.000000,86.000000,,,,0.000000,4.000000,4.000000,4.000000,4.000000,4.000000,100.000000,,,,,,,,,,,,,,,,,,,,,,,,,,,,,,,,,,,,,,,,,,,,,,,,,,,,,,,,,,,,,,,
1656264874.362382,72.000000,0.000000,4273.333496,4221.538574,4120.000000,4086.666748,4218.974121,450.000000,4.000000,86.000000,,,,0.000000,4.000000,4.000000,4.000000,4.000000,4.000000,100.000000,,,,,,,,,,,,,,,,,,,,,,,,,,,,,,,,,,,,,,,,,,,,,,,,,,,,,,,,,,,,,,,
1656264874.370097,73.000000,0.000000,4241.538574,4230.256348,4128.717773,4064.615479,4204.615234,16198.000000,4.000000,86.000000,,,,0.000000,4.000000,4.000000,4.000000,4.000000,4.000000,100.000000,,,,,,,,,,,,,,,,,,,,,,,,,,,,,,,,,,,,,,,,,,,,,,,,,,,,,,,,,,,,,,,
1656264874.377911,74.000000,0.000000,4247.179688,4211.794922,4153.333496,4068.205078,4193.333496,450.000000,4.000000,86.000000,,,,0.000000,4.000000,4.000000,4.000000,4.000000,4.000000,100.000000,,,,,,,,,,,,,,,,,,,,,,,,,,,,,,,,,,,,,,,,,,,,,,,,,,,,,,,,,,,,,,,
1656264874.385726,75.000000,0.000000,4253.846191,4219.487305,4141.538574,4077.948730,4204.615234,16221.000000,4.000000,86.000000,,,,0.000000,4.000000,4.000000,4.000000,4.000000,4.000000,100.000000,,,,,,,,,,,,,,,,,,,,,,,,,,,,,,,,,,,,,,,,,,,,,,,,,,,,,,,,,,,,,,,
1656264874.393440,76.000000,0.000000,4237.948730,4226.666504,4134.358887,4065.641113,4202.051270,450.000000,4.000000,86.000000,,,,0.000000,4.000000,4.000000,4.000000,4.000000,4.000000,100.000000,,,,,,,,,,,,,,,,,,,,,,,,,,,,,,,,,,,,,,,,,,,,,,,,,,,,,,,,,,,,,,,
1656264874.401155,77.000000,0.000000,4241.538574,4214.358887,4138.461426,4084.102539,4205.128418,450.000000,4.000000,86.000000,,,,0.000000,4.000000,4.000000,4.000000,4.000000,4.000000,100.000000,,,,,,,,,,,,,,,,,,,,,,,,,,,,,,,,,,,,,,,,,,,,,,,,,,,,,,,,,,,,,,,
1656264874.408969,78.000000,0.000000,4248.205078,4225.128418,4126.153809,4101.538574,4218.974121,450.000000,4.000000,86.000000,,,,0.000000,4.000000,4.000000,4.000000,4.000000,4.000000,100.000000,,,,,,,,,,,,,,,,,,,,,,,,,,,,,,,,,,,,,,,,,,,,,,,,,,,,,,,,,,,,,,,
1656264874.416683,79.000000,0.000000,4240.512695,4231.794922,4129.743652,4071.281982,4213.333496,16221.000000,4.000000,86.000000,,,,0.000000,4.000000,4.000000,4.000000,4.000000,4.000000,100.000000,0.972656,75.000000,3.000000,4.000000,3.000000,3.000000,3.000000,,,,,,,,,,,,,,,,,,,,,,,,,,,,,,,,5.314893,4.553594,1.982157,1.378759,1.510233,5.063392,3.252872,3.589120,2.576542,1.567277,2.520631,2.659648,4.079726,1.034510,2.035519,5.688655,4.658969,4.797939,1.741419,1.821561,5.123861,4.455183,6.420735,2.111696,1.674285
1656264874.424498,80.000000,0.000000,4262.051270,4222.563965,4137.436035,4073.846191,4225.128418,450.000000,4.000000,86.000000,,,,0.000000,4.000000,4.000000,4.000000,4.000000,4.000000,100.000000,,,,,,,,,,,,,,,,,,,,,,,,,,,,,,,,,,,,,,,,,,,,,,,,,,,,,,,,,,,,,,,
1656264874.432212,81.000000,0.000000,4287.179688,4237.436035,4117.948730,4116.922852,4256.922852,450.000000,4.000000,86.000000,,,,0.000000,4.000000,4.000000,4.000000,4.000000,4.000000,100.000000,,,,,,,,,,,,,,,,,,,,,,,,,,,,,,,,,,,,,,,,,,,,,,,,,,,,,,,,,,,,,,,
1656264874.440027,82.000000,0.000000,4271.794922,4243.589844,4110.769043,4110.769043,4243.077148,450.000000,4.000000,86.000000,,,,0.000000,4.000000,4.000000,4.000000,4.000000,4.000000,100.000000,,,,,,,,,,,,,,,,,,,,,,,,,,,,,,,,,,,,,,,,,,,,,,,,,,,,,,,,,,,,,,,
1656264874.447741,83.000000,0.000000,4248.717773,4244.102539,4112.820313,4089.230713,4228.717773,16221.000000,4.000000,86.000000,,,,0.000000,4.000000,4.000000,4.000000,4.000000,4.000000,100.000000,,,,,,,,,,,,,,,,,,,,,,,,,,,,,,,,,,,,,,,,,,,,,,,,,,,,,,,,,,,,,,,
1656264874.455556,84.000000,0.000000,4248.717773,4253.846191,4111.282227,4092.820557,4235.897461,450.000000,4.000000,86.000000,,,,0.000000,4.000000,4.000000,4.000000,4.000000,4.000000,100.000000,,,,,,,,,,,,,,,,,,,,,,,,,,,,,,,,,,,,,,,,,,,,,,,,,,,,,,,,,,,,,,,
1656264874.463270,85.000000,0.000000,4264.102539,4246.153809,4115.384766,4098.461426,4234.358887,450.000000,4.000000,86.000000,,,,0.000000,4.000000,4.000000,4.000000,4.000000,4.000000,100.000000,,,,,,,,,,,,,,,,,,,,,,,,,,,,,,,,,,,,,,,,,,,,,,,,,,,,,,,,,,,,,,,
1656264874.471085,86.000000,0.000000,4261.538574,4235.384766,4111.282227,4098.974121,4233.846191,450.000000,4.000000,86.000000,,,,0.000000,4.000000,4.000000,4.000000,4.000000,4.000000,100.000000,,,,,,,,,,,,,,,,,,,,,,,,,,,,,,,,,,,,,,,,,,,,,,,,,,,,,,,,,,,,,,,
1656264874.478799,87.000000,0.000000,4249.743652,4233.846191,4119.487305,4100.000000,4225.641113,16221.000000,4.000000,86.000000,,,,0.000000,4.000000,4.000000,4.000000,4.000000,4.000000,100.000000,,,,,,,,,,,,,,,,,,,,,,,,,,,,,,,,,,,,,,,,,,,,,,,,,,,,,,,,,,,,,,,
1656264874.486514,88.000000,0.000000,4247.692383,4241.538574,4120.000000,4100.512695,4219.487305,450.000000,4.000000,86.000000,,,,0.000000,4.000000,4.000000,4.000000,4.000000,4.000000,100.000000,,,,,,,,,,,,,,,,,,,,,,,,,,,,,,,,,,,,,,,,,,,,,,,,,,,,,,,,,,,,,,,
1656264874.494328,89.000000,0.000000,4243.077148,4261.538574,4104.102539,4090.769287,4232.307617,450.000000,4.000000,86.000000,,,,0.000000,4.000000,4.000000,4.000000,4.000000,4.000000,100.000000,,,,,,,,,,,,,,,,,,,,,,,,,,,,,,,,,,,,,,,,,,,,,,,,,,,,,,,,,,,,,,,
1656264874.502043,90.000000,0.000000,4259.487305,4258.974121,4112.820313,4095.897461,4242.051270,450.000000,4.000000,86.000000,,,,0.000000,4.000000,4.000000,4.000000,4.000000,4.000000,100.000000,,,,,,,,,,,,,,,,,,,,,,,,,,,,,,,,,,,,,,,,,,,,,,,,,,,,,,,,,,,,,,,
1656264874.509857,91.000000,0.000000,4285.641113,4204.102539,4118.974121,4108.205078,4226.153809,16221.000000,4.000000,86.000000,,,,0.000000,4.000000,4.000000,4.000000,4.000000,4.000000,100.000000,,,,,,,,,,,,,,,,,,,,,,,,,,,,,,,,,,,,,,,,,,,,,,,,,,,,,,,,,,,,,,,
1656264874.517571,92.000000,0.000000,4300.000000,4202.563965,4125.128418,4116.922852,4235.897461,450.000000,4.000000,86.000000,,,,0.000000,4.000000,4.000000,4.000000,4.000000,4.000000,100.000000,,,,,,,,,,,,,,,,,,,,,,,,,,,,,,,,,,,,,,,,,,,,,,,,,,,,,,,,,,,,,,,
1656264874.525386,93.000000,0.000000,4285.128418,4266.153809,4136.410156,4105.641113,4265.128418,450.000000,4.000000,86.000000,,,,0.000000,4.000000,4.000000,4.000000,4.000000,4.000000,100.000000,,,,,,,,,,,,,,,,,,,,,,,,,,,,,,,,,,,,,,,,,,,,,,,,,,,,,,,,,,,,,,,
1656264874.533200,94.000000,0.000000,4244.102539,4274.871582,4126.666504,4064.615479,4250.256348,450.000000,4.000000,86.000000,,,,0.000000,4.000000,4.000000,4.000000,4.000000,4.000000,100.000000,,,,,,,,,,,,,,,,,,,,,,,,,,,,,,,,,,,,,,,,,,,,,,,,,,,,,,,,,,,,,,,
1656264874.540915,95.000000,0.000000,4254.871582,4249.230957,4133.846191,4063.589844,4235.897461,16221.000000,4.000000,86.000000,,,,0.000000,4.000000,4.000000,4.000000,4.000000,4.000000,100.000000,,,,,,,,,,,,,,,,,,,,,,,,,,,,,,,,,,,,,,,5.709021,4.486375,1.917293,1.377634,1.527758,4.956068,2.598851,3.069273,2.620126,1.760826,2.309847,3.153201,4.094360,1.155577,2.064082,7.075404,4.867973,5.484388,1.862784,1.821621,6.196456,4.285151,5.990664,2.069855,1.623713
1656264874.548729,96.000000,0.000000,4286.666504,4215.897461,4130.769043,4087.179443,4228.205078,450.000000,4.000000,86.000000,,,,0.000000,4.000000,4.000000,4.000000,4.000000,4.000000,100.000000,,,,,,,,,,,,,,,,,,,,,,,,,,,,,,,,,,,,,,,,,,,,,,,,,,,,,,,,,,,,,,,
1656264874.556444,97.000000,0.000000,4281.538574,4210.769043,4110.769043,4096.410156,4235.384766,450.000000,4.000000,86.000000,,,,0.000000,4.000000,4.000000,4.000000,4.000000,4.000000,100.000000,,,,,,,,,,,,,,,,,,,,,,,,,,,,,,,,,,,,,,,,,,,,,,,,,,,,,,,,,,,,,,,
1656264874.564158,98.000000,0.000000,4282.051270,4230.769043,4123.589844,4105.128418,4251.282227,450.000000,4.000000,86.000000,,,,0.000000,4.000000,4.000000,4.000000,4.000000,4.000000,100.000000,,,,,,,,,,,,,,,,,,,,,,,,,,,,,,,,,,,,,,,,,,,,,,,,,,,,,,,,,,,,,,,
1656264874.571973,99.000000,0.000000,4284.615234,4197.436035,4139.487305,4094.358887,4221.538574,16221.000000,4.000000,86.000000,,,,0.000000,4.000000,4.000000,4.000000,4.000000,4.000000,100.000000,,,,,,,,,,,,,,,,,,,,,,,,,,,,,,,,,,,,,,,,,,,,,,,,,,,,,,,,,,,,,,,
1656264874.579687,100.000000,0.000000,4275.897461,4207.179688,4135.384766,4101.025879,4225.641113,450.000000,4.000000,86.000000,,,,0.000000,4.000000,4.000000,4.000000,4.000000,4.000000,100.000000,,,,,,,,,,,,,,,,,,,,,,,,,,,,,,,,,,,,,,,,,,,,,,,,,,,,,,,,,,,,,,,
1656264874.587502,101.000000,0.000000,4251.794922,4283.077148,4117.948730,4114.358887,4272.307617,450.000000,4.000000,86.000000,,,,0.000000,4.000000,4.000000,4.000000,4.000000,4.000000,100.000000,,,,,,,,,,,,,,,,,,,,,,,,,,,,,,,,,,,,,,,,,,,,,,,,,,,,,,,,,,,,,,,
1656264874.595216,102.000000,0.000000,4250.769043,4276.922852,4110.769043,4099.487305,4266.666504,450.000000,4.000000,86.000000,,,,0.000000,4.000000,4.000000,4.000000,4.000000,4.000000,100.000000,,,,,,,,,,,,,,,,,,,,,,,,,,,,,,,,,,,,,,,,,,,,,,,,,,,,,,,,,,,,,,,
1656264874.603030,103.000000,0.000000,4281.538574,4240.000000,4115.897461,4098.974121,4253.846191,16221.000000,4.000000,86.000000,,,,0.000000,4.000000,4.000000,4.000000,4.000000,4.000000,100.000000,,,,,,,,,,,,,,,,,,,,,,,,,,,,,,,,,,,,,,,,,,,,,,,,,,,,,,,,,,,,,,,
1656264874.610745,104.000000,0.000000,4278.974121,4265.641113,4110.769043,4105.128418,4264.615234,450.000000,4.000000,86.000000,,,,0.000000,4.000000,4.000000,4.000000,4.000000,4.000000,100.000000,,,,,,,,,,,,,,,,,,,,,,,,,,,,,,,,,,,,,,,,,,,,,,,,,,,,,,,,,,,,,,,
1656264874.618559,105.000000,0.000000,4263.589844,4264.615234,4112.820313,4092.307617,4245.641113,450.000000,4.000000,86.000000,,,,0.000000,4.000000,4.000000,4.000000,4.000000,4.000000,100.000000,,,,,,,,,,,,,,,,,,,,,,,,,,,,,,,,,,,,,,,,,,,,,,,,,,,,,,,,,,,,,,,
1656264874.626274,106.000000,0.000000,4288.205078,4220.512695,4121.025879,4096.922852,4225.128418,450.000000,4.000000,86.000000,,,,0.000000,4.000000,4.000000,4.000000,4.000000,4.000000,100.000000,,,,,,,,,,,,,,,,,,,,,,,,,,,,,,,,,,,,,,,,,,,,,,,,,,,,,,,,,,,,,,,
1656264874.634088,107.000000,0.000000,4308.205078,4230.256348,4113.846191,4126.153809,4256.922852,16221.000000,4.000000,86.000000,,,,0.000000,4.000000,4.000000,4.000000,4.000000,4.000000,100.000000,,,,,,,,,,,,,,,,,,,,,,,,,,,,,,,,,,,,,,,,,,,,,,,,,,,,,,,,,,,,,,,
1656264874.641803,108.000000,0.000000,4278.461426,4248.205078,4125.641113,4100.512695,4253.333496,450.000000,4.000000,86.000000,,,,0.000000,4.000000,4.000000,4.000000,4.000000,4.000000,100.000000,,,,,,,,,,,,,,,,,,,,,,,,,,,,,,,,,,,,,,,,,,,,,,,,,,,,,,,,,,,,,,,
1656264874.649517,109.000000,0.000000,4273.333496,4220.000000,4170.769043,4063.076904,4206.666504,450.000000,4.000000,86.000000,,,,0.000000,4.000000,4.000000,4.000000,4.000000,4.000000,100.000000,,,,,,,,,,,,,,,,,,,,,,,,,,,,,,,,,,,,,,,,,,,,,,,,,,,,,,,,,,,,,,,
1656264874.657332,110.000000,0.000000,4290.256348,4208.205078,4155.384766,4083.589844,4215.897461,450.000000,4.000000,86.000000,,,,0.000000,4.000000,4.000000,4.000000,4.000000,4.000000,100.000000,,,,,,,,,,,,,,,,,,,,,,,,,,,,,,,,,,,,,,,,,,,,,,,,,,,,,,,,,,,,,,,
1656264874.665146,111.000000,0.000000,4270.769043,4230.769043,4130.256348,4095.897461,4244.615234,16221.000000,4.000000,86.000000,,,,0.000000,4.000000,4.000000,4.000000,4.000000,4.000000,100.000000,,,,,,,,,,,,,,,,,,,,,,,,,,,,,,,,,,,,,,,5.958210,4.299482,1.931478,1.354449,1.521083,5.346356,2.367296,2.611818,2.582980,2.074925,2.211508,3.700643,3.958897,1.559753,2.158171,8.091770,5.244995,5.945086,1.958535,1.700375,7.532979,4.005812,5.228854,2.044790,1.552415
1656264874.672861,112.000000,0.000000,4270.256348,4251.282227,4156.410156,4088.718018,4244.102539,450.000000,4.000000,86.000000,,,,0.000000,4.000000,4.000000,4.000000,4.000000,4.000000,100.000000,,,,,,,,,,,,,,,,,,,,,,,,,,,,,,,,,,,,,,,,,,,,,,,,,,,,,,,,,,,,,,,
1656264874.680675,113.000000,0.000000,4272.820313,4243.589844,4137.948730,4081.025635,4235.384766,450.000000,4.000000,86.000000,,,,0.000000,4.000000,4.000000,4.000000,4.000000,4.000000,100.000000,,,,,,,,,,,,,,,,,,,,,,,,,,,,,,,,,,,,,,,,,,,,,,,,,,,,,,,,,,,,,,,
1656264874.688390,114.000000,0.000000,4272.820313,4241.538574,4127.692383,4083.589844,4242.563965,450.000000,4.000000,86.000000,,,,0.000000,4.000000,4.000000,4.000000,4.000000,4.000000,100.000000,,,,,,,,,,,,,,,,,,,,,,,,,,,,,,,,,,,,,,,,,,,,,,,,,,,,,,,,,,,,,,,
1656264874.696204,115.000000,0.000000,4276.410156,4233.846191,4153.333496,4080.512939,4227.179688,16221.000000,4.000000,86.000000,,,,0.000000,4.000000,4.000000,4.000000,4.000000,4.000000,100.000000,,,,,,,,,,,,,,,,,,,,,,,,,,,,,,,,,,,,,,,,,,,,,,,,,,,,,,,,,,,,,,,
1656264874.703919,116.000000,0.000000,4260.512695,4230.769043,4128.717773,4082.564209,4225.128418,450.000000,4.000000,86.000000,,,,0.000000,4.000000,4.000000,4.000000,4.000000,4.000000,100.000000,,,,,,,,,,,,,,,,,,,,,,,,,,,,,,,,,,,,,,,,,,,,,,,,,,,,,,,,,,,,,,,
1656264874.711733,117.000000,0.000000,4268.717773,4264.102539,4098.461426,4110.256348,4270.256348,450.000000,4.000000,86.000000,,,,0.000000,4.000000,4.000000,4.000000,4.000000,4.000000,100.000000,,,,,,,,,,,,,,,,,,,,,,,,,,,,,,,,,,,,,,,,,,,,,,,,,,,,,,,,,,,,,,,
1656264874.719447,118.000000,0.000000,4280.000000,4251.282227,4104.615234,4101.025879,4255.897461,450.000000,4.000000,86.000000,,,,0.000000,4.000000,4.000000,4.000000,4.000000,4.000000,100.000000,,,,,,,,,,,,,,,,,,,,,,,,,,,,,,,,,,,,,,,,,,,,,,,,,,,,,,,,,,,,,,,
1656264874.727262,119.000000,0.000000,4272.820313,4232.820313,4122.563965,4091.794922,4229.743652,16221.000000,4.000000,86.000000,,,,0.000000,4.000000,4.000000,4.000000,4.000000,4.000000,100.000000,,,,,,,,,,,,,,,,,,,,,,,,,,,,,,,,,,,,,,,,,,,,,,,,,,,,,,,,,,,,,,,
1656264874.734976,120.000000,0.000000,4263.077148,4252.820313,4116.410156,4106.666504,4246.153809,450.000000,4.000000,86.000000,,,,0.000000,4.000000,4.000000,4.000000,4.000000,4.000000,100.000000,,,,,,,,,,,,,,,,,,,,,,,,,,,,,,,,,,,,,,,,,,,,,,,,,,,,,,,,,,,,,,,
1656264874.742791,121.000000,0.000000,4250.256348,4253.333496,4110.769043,4087.179443,4228.717773,450.000000,4.000000,86.000000,,,,0.000000,4.000000,4.000000,4.000000,4.000000,4.000000,100.000000,,,,,,,,,,,,,,,,,,,,,,,,,,,,,,,,,,,,,,,,,,,,,,,,,,,,,,,,,,,,,,,
1656264874.750505,122.000000,0.000000,4250.256348,4244.615234,4134.871582,4072.820557,4206.666504,450.000000,4.000000,86.000000,,,,0.000000,4.000000,4.000000,4.000000,4.000000,4.000000,100.000000,,,,,,,,,,,,,,,,,,,,,,,,,,,,,,,,,,,,,,,,,,,,,,,,,,,,,,,,,,,,,,,
1656264874.758220,123.000000,0.000000,4252.307617,4228.205078,4125.128418,4078.974365,4212.820313,16221.000000,4.000000,86.000000,,,,0.000000,4.000000,4.000000,4.000000,4.000000,4.000000,100.000000,,,,,,,,,,,,,,,,,,,,,,,,,,,,,,,,,,,,,,,,,,,,,,,,,,,,,,,,,,,,,,,
1656264874.766034,124.000000,0.000000,4266.666504,4222.051270,4094.358887,4093.846191,4233.846191,450.000000,4.000000,86.000000,,,,0.000000,4.000000,4.000000,4.000000,4.000000,4.000000,100.000000,,,,,,,,,,,,,,,,,,,,,,,,,,,,,,,,,,,,,,,,,,,,,,,,,,,,,,,,,,,,,,,
1656264874.773849,125.000000,0.000000,4276.410156,4250.769043,4092.820557,4110.769043,4251.282227,450.000000,4.000000,86.000000,,,,0.000000,4.000000,4.000000,4.000000,4.000000,4.000000,100.000000,,,,,,,,,,,,,,,,,,,,,,,,,,,,,,,,,,,,,,,,,,,,,,,,,,,,,,,,,,,,,,,
1656264874.781563,126.000000,0.000000,4255.384766,4253.333496,4114.871582,4095.897461,4227.692383,450.000000,4.000000,86.000000,,,,0.000000,4.000000,4.000000,4.000000,4.000000,4.000000,100.000000,,,,,,,,,,,,,,,,,,,,,,,,,,,,,,,,,,,,,,,,,,,,,,,,,,,,,,,,,,,,,,,
1656264874.789278,127.000000,0.000000,4246.666504,4225.128418,4132.307617,4076.923096,4203.077148,241.000000,4.000000,86.000000,,,,0.000000,4.000000,4.000000,4.000000,4.000000,4.000000,100.000000,,,,,,,,,,,,,,,,,,,,,,,,,,,,,,,,,,,,,,,5.937505,4.122486,1.995462,1.353309,1.537098,6.236110,2.600106,2.435882,2.544815,2.481276,2.345291,4.147382,3.745929,2.144599,2.330471,8.420392,5.572191,5.942303,2.054404,1.533555,8.802029,3.672796,4.257213,2.070278,1.499428
1656264874.797092,0.000000,0.000000,4264.102539,4227.692383,4128.205078,4093.846191,4227.179688,450.000000,4.000000,86.000000,,,,0.000000,4.000000,4.000000,4.000000,4.000000,4.000000,100.000000,,,,,,,,,,,,,,,,,,,,,,,,,,,,,,,,,,,,,,,,,,,,,,,,,,,,,,,,,,,,,,,
1656264874.804906,1.000000,0.000000,4283.589844,4233.333496,4126.153809,4109.230957,4239.487305,450.000000,4.000000,86.000000,,,,0.000000,4.000000,4.000000,4.000000,4.000000,4.000000,100.000000,,,,,,,,,,,,,,,,,,,,,,,,,,,,,,,,,,,,,,,,,,,,,,,,,,,,,,,,,,,,,,,
1656264874.812721,2.000000,0.000000,4285.128418,4207.179688,4130.256348,4095.897461,4216.922852,16209.000000,4.000000,86.000000,,,,0.000000,4.000000,4.000000,4.000000,4.000000,4.000000,100.000000,,,,,,,,,,,,,,,,,,,,,,,,,,,,,,,,,,,,,,,,,,,,,,,,,,,,,,,,,,,,,,,
1656264874.820435,3.000000,0.000000,4273.846191,4215.897461,4122.563965,4094.358887,4230.769043,450.000000,4.000000,86.000000,,,,0.000000,4.000000,4.000000,4.000000,4.000000,4.000000,100.000000,,,,,,,,,,,,,,,,,,,,,,,,,,,,,,,,,,,,,,,,,,,,,,,,,,,,,,,,,,,,,,,
1656264874.828250,4.000000,0.000000,4266.153809,4258.461426,4106.666504,4102.051270,4260.000000,16197.000000,4.000000,86.000000,,,,0.000000,4.000000,4.000000,4.000000,4.000000,4.000000,100.000000,,,,,,,,,,,,,,,,,,,,,,,,,,,,,,,,,,,,,,,,,,,,,,,,,,,,,,,,,,,,,,,
1656264874.835964,5.000000,0.000000,4265.641113,4251.794922,4117.436035,4092.820557,4243.589844,450.000000,4.000000,86.000000,,,,0.000000,4.000000,4.000000,4.000000,4.000000,4.000000,100.000000,,,,,,,,,,,,,,,,,,,,,,,,,,,,,,,,,,,,,,,,,,,,,,,,,,,,,,,,,,,,,,,
1656264874.843779,6.000000,0.000000,4271.794922,4238.461426,4127.179688,4097.948730,4238.974121,16162.000000,4.000000,86.000000,,,,0.000000,4.000000,4.000000,4.000000,4.000000,4.000000,100.000000,,,,,,,,,,,,,,,,,,,,,,,,,,,,,,,,,,,,,,,,,,,,,,,,,,,,,,,,,,,,,,,
1656264874.851493,7.000000,0.000000,4273.333496,4263.077148,4101.538574,4107.179688,4261.538574,450.000000,4.000000,86.000000,,,,0.000000,4.000000,4.000000,4.000000,4.000000,4.000000,100.000000,,,,,,,,,,,,,,,,,,,,,,,,,,,,,,,,,,,,,,,,,,,,,,,,,,,,,,,,,,,,,,,
1656264874.859308,8.000000,0.000000,4277.436035,4267.179688,4090.256348,4097.436035,4260.000000,450.000000,4.000000,86.000000,,,,0.000000,4.000000,4.000000,4.000000,4.000000,4.000000,100.000000,,,,,,,,,,,,,,,,,,,,,,,,,,,,,,,,,,,,,,,,,,,,,,,,,,,,,,,,,,,,,,,
1656264874.867022,9.000000,0.000000,4295.897461,4237.948730,4098.974121,4100.000000,4246.153809,16213.000000,4.000000,86.000000,,,,0.000000,4.000000,4.000000,4.000000,4.000000,4.000000,100.000000,,,,,,,,,,,,,,,,,,,,,,,,,,,,,,,,,,,,,,,,,,,,,,,,,,,,,,,,,,,,,,,
1656264874.874836,10.000000,0.000000,4309.230957,4231.794922,4092.307617,4115.897461,4249.743652,450.000000,4.000000,86.000000,,,,0.000000,4.000000,4.000000,4.000000,4.000000,4.000000,100.000000,,,,,,,,,,,,,,,,,,,,,,,,,,,,,,,,,,,,,,,,,,,,,,,,,,,,,,,,,,,,,,,
1656264874.882551,11.000000,0.000000,4295.897461,4258.461426,4077.948730,4110.769043,4261.538574,16181.000000,4.000000,86.000000,,,,0.000000,4.000000,4.000000,4.000000,4.000000,4.000000,100.000000,,,,,,,,,,,,,,,,,,,,,,,,,,,,,,,,,,,,,,,,,,,,,,,,,,,,,,,,,,,,,,,
1656264874.890365,12.000000,0.000000,4280.000000,4272.820313,4077.948730,4093.333252,4261.538574,450.000000,4.000000,86.000000,,,,0.000000,4.000000,4.000000,4.000000,4.000000,4.000000,100.000000,,,,,,,,,,,,,,,,,,,,,,,,,,,,,,,,,,,,,,,,,,,,,,,,,,,,,,,,,,,,,,,
1656264874.898080,13.000000,0.000000,4285.641113,4257.948730,4091.794922,4088.205078,4244.615234,450.000000,4.000000,86.000000,,,,0.000000,4.000000,4.000000,4.000000,4.000000,4.000000,100.000000,,,,,,,,,,,,,,,,,,,,,,,,,,,,,,,,,,,,,,,,,,,,,,,,,,,,,,,,,,,,,,,
1656264874.905894,14.000000,0.000000,4290.256348,4238.461426,4104.102539,4084.102539,4225.128418,450.000000,4.000000,86.000000,,,,0.000000,4.000000,4.000000,4.000000,4.000000,4.000000,100.000000,,,,,,,,,,,,,,,,,,,,,,,,,,,,,,,,,,,,,,,,,,,,,,,,,,,,,,,,,,,,,,,
1656264874.913609,15.000000,0.000000,4280.000000,4244.615234,4105.128418,4080.512939,4225.128418,16181.000000,4.000000,86.000000,,,,0.000000,4.000000,4.000000,4.000000,4.000000,4.000000,100.000000,0.972656,75.000000,3.000000,4.000000,4.000000,3.000000,3.000000,,,,,,,,,,,,,,,,,,,,,,,,,,,,,,,,5.589015,4.063945,2.064134,1.430066,1.600696,7.379502,3.134990,2.679342,2.572896,2.910238,2.734097,4.360891,3.516831,2.726569,2.537412,7.990548,5.634468,5.423707,2.179070,1.409673,9.633030,3.328030,3.275038,2.141862,1.497955
1656264874.921423,16.000000,0.000000,4272.820313,4248.205078,4108.205078,4076.923096,4220.512695,0.000000,4.000000,86.000000,,,,0.000000,4.000000,4.000000,4.000000,4.000000,4.000000,100.000000,,,,,,,,,,,,,,,,,,,,,,,,,,,,,,,,,,,,,,,,,,,,,,,,,,,,,,,,,,,,,,,
1656264874.929138,17.000000,0.000000,4264.615234,4218.974121,4104.102539,4070.256348,4192.820313,0.000000,4.000000,86.000000,,,,0.000000,4.000000,4.000000,4.000000,4.000000,4.000000,100.000000,,,,,,,,,,,,,,,,,,,,,,,,,,,,,,,,,,,,,,,,,,,,,,,,,,,,,,,,,,,,,,,
1656264874.936852,18.000000,0.000000,4252.307617,4207.179688,4086.666748,4078.461426,4185.128418,0.000000,4.000000,86.000000,,,,0.000000,4.000000,4.000000,4.000000,4.000000,4.000000,100.000000,,,,,,,,,,,,,,,,,,,,,,,,,,,,,,,,,,,,,,,,,,,,,,,,,,,,,,,,,,,,,,,
