title:david_g_Neutral, start timestamp:1650388368.072373, stop timestamp:1650388373.105111, headset type:INSIGHT, headset serial:A2D201AE, headset firmware:932, channels:84, sampling rate:eeg_128;pm_0.1;pow_8, samples:645       , version:2.1, 
Timestamp,OriginalTimestamp,EEG.Counter,EEG.Interpolated,EEG.AF3,EEG.T7,EEG.Pz,EEG.T8,EEG.AF4,EEG.RawCq,EEG.Battery,EEG.BatteryPercent,MarkerIndex,MarkerType,MarkerValueInt,EEG.MarkerHardware,CQ.AF3,CQ.T7,CQ.Pz,CQ.T8,CQ.AF4,CQ.Overall,EQ.SampleRateQuality,EQ.OVERALL,EQ.AF3,EQ.T7,EQ.Pz,EQ.T8,EQ.AF4,PM.Engagement.IsActive,PM.Engagement.Scaled,PM.Engagement.Raw,PM.Engagement.Min,PM.Engagement.Max,PM.Excitement.IsActive,PM.Excitement.Scaled,PM.Excitement.Raw,PM.Excitement.Min,PM.Excitement.Max,PM.LongTermExcitement,PM.Stress.IsActive,PM.Stress.Scaled,PM.Stress.Raw,PM.Stress.Min,PM.Stress.Max,PM.Relaxation.IsActive,PM.Relaxation.Scaled,PM.Relaxation.Raw,PM.Relaxation.Min,PM.Relaxation.Max,PM.Interest.IsActive,PM.Interest.Scaled,PM.Interest.Raw,PM.Interest.Min,PM.Interest.Max,PM.Focus.IsActive,PM.Focus.Scaled,PM.Focus.Raw,PM.Focus.Min,PM.Focus.Max,POW.AF3.Theta,POW.AF3.Alpha,POW.AF3.BetaL,POW.AF3.BetaH,POW.AF3.Gamma,POW.T7.Theta,POW.T7.Alpha,POW.T7.BetaL,POW.T7.BetaH,POW.T7.Gamma,POW.Pz.Theta,POW.Pz.Alpha,POW.Pz.BetaL,POW.Pz.BetaH,POW.Pz.Gamma,POW.T8.Theta,POW.T8.Alpha,POW.T8.BetaL,POW.T8.BetaH,POW.T8.Gamma,POW.AF4.Theta,POW.AF4.Alpha,POW.AF4.BetaL,POW.AF4.BetaH,POW.AF4.Gamma
1650388368.072373,1650388368.082517,35.000000,0.000000,4221.538574,4216.922852,4133.846191,4141.025879,4196.410156,0.000000,4.000000,91.000000,,,,0.000000,4.000000,4.000000,4.000000,4.000000,4.000000,100.000000,,,,,,,,,,,,,,,,,,,,,,,,,,,,,,,,,,,,,,,,,,,,,,,,,,,,,,,,,,,,,,,
1650388368.080187,1650388368.090431,36.000000,0.000000,4232.820313,4236.410156,4155.897461,4156.410156,4191.282227,0.000000,4.000000,91.000000,,,,0.000000,4.000000,4.000000,4.000000,4.000000,4.000000,100.000000,,,,,,,,,,,,,,,,,,,,,,,,,,,,,,,,,,,,,,,,,,,,,,,,,,,,,,,,,,,,,,,
1650388368.088002,1650388368.098246,37.000000,0.000000,4285.641113,4280.512695,4218.974121,4219.487305,4246.153809,0.000000,4.000000,91.000000,,,,0.000000,4.000000,4.000000,4.000000,4.000000,4.000000,100.000000,,,,,,,,,,,,,,,,,,,,,,,,,,,,,,,,,,,,,,,,,,,,,,,,,,,,,,,,,,,,,,,
1650388368.095817,1650388368.105961,38.000000,0.000000,4292.820313,4285.641113,4230.256348,4247.179688,4260.512695,0.000000,4.000000,91.000000,,,,0.000000,4.000000,4.000000,4.000000,4.000000,4.000000,100.000000,,,,,,,,,,,,,,,,,,,,,,,,,,,,,,,,,,,,,,,,,,,,,,,,,,,,,,,,,,,,,,,
1650388368.103632,1650388368.113876,39.000000,0.000000,4241.538574,4248.205078,4189.230957,4207.692383,4201.538574,0.000000,4.000000,91.000000,,,,0.000000,4.000000,4.000000,4.000000,4.000000,4.000000,100.000000,,,,,,,,,,,,,,,,,,,,,,,,,,,,,,,,,,,,,,,,,,,,,,,,,,,,,,,,,,,,,,,
1650388368.111447,1650388368.121691,40.000000,0.000000,4232.307617,4237.436035,4191.282227,4195.384766,4195.897461,0.000000,4.000000,91.000000,,,,0.000000,4.000000,4.000000,4.000000,4.000000,4.000000,100.000000,,,,,,,,,,,,,,,,,,,,,,,,,,,,,,,,,,,,,,,,,,,,,,,,,,,,,,,,,,,,,,,
1650388368.119262,1650388368.129607,41.000000,0.000000,4276.922852,4258.461426,4225.641113,4233.846191,4253.333496,0.000000,4.000000,91.000000,,,,0.000000,4.000000,4.000000,4.000000,4.000000,4.000000,100.000000,,,,,,,,,,,,,,,,,,,,,,,,,,,,,,,,,,,,,,,2.653283,2.681776,2.793871,3.403066,2.648900,1.183388,1.067292,1.747585,1.371659,1.029467,1.037409,2.168045,1.480751,1.804316,1.351280,3.542187,4.754638,2.691162,3.075365,1.221274,2.628928,3.197226,2.458026,2.891559,2.199317
1650388368.127077,1650388368.137422,42.000000,0.000000,4294.871582,4270.256348,4229.743652,4251.794922,4271.282227,0.000000,4.000000,91.000000,,,,0.000000,4.000000,4.000000,4.000000,4.000000,4.000000,100.000000,,,,,,,,,,,,,,,,,,,,,,,,,,,,,,,,,,,,,,,,,,,,,,,,,,,,,,,,,,,,,,,
1650388368.134891,1650388368.145337,43.000000,0.000000,4276.922852,4263.077148,4210.769043,4234.358887,4248.717773,0.000000,4.000000,91.000000,,,,0.000000,4.000000,4.000000,4.000000,4.000000,4.000000,100.000000,,,,,,,,,,,,,,,,,,,,,,,,,,,,,,,,,,,,,,,,,,,,,,,,,,,,,,,,,,,,,,,
1650388368.142706,1650388368.153152,44.000000,0.000000,4261.538574,4253.333496,4192.820313,4214.871582,4235.384766,0.000000,4.000000,91.000000,,,,0.000000,4.000000,4.000000,4.000000,4.000000,4.000000,100.000000,,,,,,,,,,,,,,,,,,,,,,,,,,,,,,,,,,,,,,,,,,,,,,,,,,,,,,,,,,,,,,,
1650388368.150521,1650388368.161067,45.000000,0.000000,4268.205078,4266.666504,4189.230957,4218.461426,4240.512695,0.000000,4.000000,91.000000,,,,0.000000,4.000000,4.000000,4.000000,4.000000,4.000000,100.000000,,,,,,,,,,,,,,,,,,,,,,,,,,,,,,,,,,,,,,,,,,,,,,,,,,,,,,,,,,,,,,,
1650388368.158336,1650388368.168983,46.000000,0.000000,4276.922852,4288.205078,4197.436035,4233.333496,4252.820313,0.000000,4.000000,91.000000,,,,0.000000,4.000000,4.000000,4.000000,4.000000,4.000000,100.000000,,,,,,,,,,,,,,,,,,,,,,,,,,,,,,,,,,,,,,,,,,,,,,,,,,,,,,,,,,,,,,,
1650388368.166150,1650388368.176799,47.000000,0.000000,4268.717773,4277.948730,4191.282227,4224.615234,4246.153809,0.000000,4.000000,91.000000,,,,0.000000,4.000000,4.000000,4.000000,4.000000,4.000000,100.000000,,,,,,,,,,,,,,,,,,,,,,,,,,,,,,,,,,,,,,,,,,,,,,,,,,,,,,,,,,,,,,,
1650388368.173965,1650388368.184614,48.000000,0.000000,4252.307617,4253.846191,4168.205078,4193.333496,4213.333496,0.000000,4.000000,91.000000,,,,0.000000,4.000000,4.000000,4.000000,4.000000,4.000000,100.000000,,,,,,,,,,,,,,,,,,,,,,,,,,,,,,,,,,,,,,,,,,,,,,,,,,,,,,,,,,,,,,,
1650388368.181780,1650388368.192529,49.000000,0.000000,4253.333496,4263.077148,4176.410156,4195.384766,4208.205078,0.000000,4.000000,91.000000,,,,0.000000,4.000000,4.000000,4.000000,4.000000,4.000000,100.000000,,,,,,,,,,,,,,,,,,,,,,,,,,,,,,,,,,,,,,,,,,,,,,,,,,,,,,,,,,,,,,,
1650388368.189595,1650388368.200345,50.000000,0.000000,4275.384766,4278.461426,4210.769043,4223.077148,4243.077148,0.000000,4.000000,91.000000,,,,0.000000,4.000000,4.000000,4.000000,4.000000,4.000000,100.000000,,,,,,,,,,,,,,,,,,,,,,,,,,,,,,,,,,,,,,,,,,,,,,,,,,,,,,,,,,,,,,,
1650388368.197410,1650388368.208259,51.000000,0.000000,4281.538574,4264.615234,4208.205078,4217.436035,4251.794922,0.000000,4.000000,91.000000,,,,0.000000,4.000000,4.000000,4.000000,4.000000,4.000000,100.000000,,,,,,,,,,,,,,,,,,,,,,,,,,,,,,,,,,,,,,,,,,,,,,,,,,,,,,,,,,,,,,,
1650388368.205224,1650388368.216074,52.000000,0.000000,4253.846191,4240.000000,4172.307617,4193.333496,4222.563965,0.000000,4.000000,91.000000,,,,0.000000,4.000000,4.000000,4.000000,4.000000,4.000000,100.000000,,,,,,,,,,,,,,,,,,,,,,,,,,,,,,,,,,,,,,,,,,,,,,,,,,,,,,,,,,,,,,,
1650388368.213039,1650388368.223989,53.000000,0.000000,4233.846191,4232.307617,4159.487305,4191.282227,4209.230957,0.000000,4.000000,91.000000,,,,0.000000,4.000000,4.000000,4.000000,4.000000,4.000000,100.000000,,,,,,,,,,,,,,,,,,,,,,,,,,,,,,,,,,,,,,,,,,,,,,,,,,,,,,,,,,,,,,,
1650388368.220854,1650388368.231804,54.000000,0.000000,4257.436035,4245.641113,4178.461426,4204.102539,4226.153809,0.000000,4.000000,91.000000,,,,0.000000,4.000000,4.000000,4.000000,4.000000,4.000000,100.000000,,,,,,,,,,,,,,,,,,,,,,,,,,,,,,,,,,,,,,,,,,,,,,,,,,,,,,,,,,,,,,,
1650388368.228669,1650388368.239719,55.000000,0.000000,4279.487305,4252.307617,4193.846191,4207.179688,4235.384766,0.000000,4.000000,91.000000,,,,0.000000,4.000000,4.000000,4.000000,4.000000,4.000000,100.000000,,,,,,,,,,,,,,,,,,,,,,,,,,,,,,,,,,,,,,,,,,,,,,,,,,,,,,,,,,,,,,,
1650388368.236484,1650388368.247534,56.000000,0.000000,4272.307617,4245.128418,4186.153809,4203.589844,4238.461426,0.000000,4.000000,91.000000,,,,0.000000,4.000000,4.000000,4.000000,4.000000,4.000000,100.000000,,,,,,,,,,,,,,,,,,,,,,,,,,,,,,,,,,,,,,,,,,,,,,,,,,,,,,,,,,,,,,,
1650388368.244299,1650388368.255348,57.000000,0.000000,4267.179688,4245.641113,4169.743652,4192.307617,4243.077148,0.000000,4.000000,91.000000,,,,0.000000,4.000000,4.000000,4.000000,4.000000,4.000000,100.000000,,,,,,,,,,,,,,,,,,,,,,,,,,,,,,,,,,,,,,,2.619263,3.447721,2.586459,3.088718,2.790474,1.269046,1.295439,1.488263,1.151421,1.080216,1.056100,2.977644,1.753017,1.546384,1.412265,3.700449,6.176138,2.828098,2.670465,1.351463,2.423463,4.139891,2.585031,2.526418,2.397379
1650388368.252113,1650388368.263163,58.000000,0.000000,4259.487305,4245.128418,4161.025879,4171.282227,4219.487305,0.000000,4.000000,91.000000,,,,0.000000,4.000000,4.000000,4.000000,4.000000,4.000000,100.000000,,,,,,,,,,,,,,,,,,,,,,,,,,,,,,,,,,,,,,,,,,,,,,,,,,,,,,,,,,,,,,,
1650388368.259928,1650388368.270878,59.000000,0.000000,4242.563965,4242.051270,4162.563965,4163.589844,4197.948730,0.000000,4.000000,91.000000,,,,0.000000,4.000000,4.000000,4.000000,4.000000,4.000000,100.000000,,,,,,,,,,,,,,,,,,,,,,,,,,,,,,,,,,,,,,,,,,,,,,,,,,,,,,,,,,,,,,,
1650388368.267743,1650388368.278693,60.000000,0.000000,4241.025879,4249.743652,4164.102539,4172.820313,4209.743652,0.000000,4.000000,91.000000,,,,0.000000,4.000000,4.000000,4.000000,4.000000,4.000000,100.000000,,,,,,,,,,,,,,,,,,,,,,,,,,,,,,,,,,,,,,,,,,,,,,,,,,,,,,,,,,,,,,,
1650388368.275558,1650388368.286408,61.000000,0.000000,4257.948730,4266.153809,4171.794922,4182.051270,4226.666504,0.000000,4.000000,91.000000,,,,0.000000,4.000000,4.000000,4.000000,4.000000,4.000000,100.000000,,,,,,,,,,,,,,,,,,,,,,,,,,,,,,,,,,,,,,,,,,,,,,,,,,,,,,,,,,,,,,,
1650388368.283373,1650388368.294222,62.000000,0.000000,4267.692383,4274.871582,4175.384766,4183.589844,4231.794922,0.000000,4.000000,91.000000,,,,0.000000,4.000000,4.000000,4.000000,4.000000,4.000000,100.000000,,,,,,,,,,,,,,,,,,,,,,,,,,,,,,,,,,,,,,,,,,,,,,,,,,,,,,,,,,,,,,,
1650388368.291187,1650388368.301937,63.000000,0.000000,4266.153809,4266.666504,4161.025879,4183.077148,4226.153809,0.000000,4.000000,91.000000,,,,0.000000,4.000000,4.000000,4.000000,4.000000,4.000000,100.000000,,,,,,,,,,,,,,,,,,,,,,,,,,,,,,,,,,,,,,,,,,,,,,,,,,,,,,,,,,,,,,,
1650388368.299002,1650388368.309852,64.000000,0.000000,4265.641113,4250.256348,4157.948730,4183.589844,4208.717773,450.000000,4.000000,91.000000,,,,0.000000,4.000000,4.000000,4.000000,4.000000,4.000000,100.000000,,,,,,,,,,,,,,,,,,,,,,,,,,,,,,,,,,,,,,,,,,,,,,,,,,,,,,,,,,,,,,,
1650388368.306817,1650388368.317668,65.000000,0.000000,4260.000000,4245.128418,4165.128418,4186.153809,4200.000000,450.000000,4.000000,91.000000,,,,0.000000,4.000000,4.000000,4.000000,4.000000,4.000000,100.000000,,,,,,,,,,,,,,,,,,,,,,,,,,,,,,,,,,,,,,,,,,,,,,,,,,,,,,,,,,,,,,,
1650388368.314632,1650388368.325583,66.000000,0.000000,4255.897461,4254.871582,4156.410156,4195.897461,4218.974121,16224.000000,4.000000,91.000000,,,,0.000000,4.000000,4.000000,4.000000,4.000000,4.000000,100.000000,,,,,,,,,,,,,,,,,,,,,,,,,,,,,,,,,,,,,,,,,,,,,,,,,,,,,,,,,,,,,,,
1650388368.322447,1650388368.333498,67.000000,0.000000,4272.820313,4260.000000,4150.256348,4198.461426,4237.948730,450.000000,4.000000,91.000000,,,,0.000000,4.000000,4.000000,4.000000,4.000000,4.000000,100.000000,,,,,,,,,,,,,,,,,,,,,,,,,,,,,,,,,,,,,,,,,,,,,,,,,,,,,,,,,,,,,,,
1650388368.330262,1650388368.341314,68.000000,0.000000,4287.179688,4261.025879,4161.538574,4191.282227,4227.692383,16182.000000,4.000000,91.000000,,,,0.000000,4.000000,4.000000,4.000000,4.000000,4.000000,100.000000,,,,,,,,,,,,,,,,,,,,,,,,,,,,,,,,,,,,,,,,,,,,,,,,,,,,,,,,,,,,,,,
1650388368.338076,1650388368.349230,69.000000,0.000000,4269.230957,4264.102539,4168.205078,4187.179688,4212.307617,450.000000,4.000000,91.000000,,,,0.000000,4.000000,4.000000,4.000000,4.000000,4.000000,100.000000,,,,,,,,,,,,,,,,,,,,,,,,,,,,,,,,,,,,,,,,,,,,,,,,,,,,,,,,,,,,,,,
1650388368.345891,1650388368.357046,70.000000,0.000000,4246.666504,4257.948730,4166.153809,4176.410156,4217.948730,16151.000000,4.000000,91.000000,,,,0.000000,4.000000,4.000000,4.000000,4.000000,4.000000,100.000000,,,,,,,,,,,,,,,,,,,,,,,,,,,,,,,,,,,,,,,,,,,,,,,,,,,,,,,,,,,,,,,
1650388368.353706,1650388368.364961,71.000000,0.000000,4245.128418,4245.128418,4163.077148,4154.871582,4215.384766,450.000000,4.000000,91.000000,,,,0.000000,4.000000,4.000000,4.000000,4.000000,4.000000,100.000000,,,,,,,,,,,,,,,,,,,,,,,,,,,,,,,,,,,,,,,,,,,,,,,,,,,,,,,,,,,,,,,
1650388368.361521,1650388368.372777,72.000000,0.000000,4255.897461,4237.948730,4162.051270,4145.128418,4208.717773,450.000000,4.000000,91.000000,,,,0.000000,4.000000,4.000000,4.000000,4.000000,4.000000,100.000000,,,,,,,,,,,,,,,,,,,,,,,,,,,,,,,,,,,,,,,,,,,,,,,,,,,,,,,,,,,,,,,
1650388368.369336,1650388368.380693,73.000000,0.000000,4266.666504,4248.205078,4166.666504,4158.461426,4229.743652,16171.000000,4.000000,91.000000,,,,0.000000,4.000000,4.000000,4.000000,4.000000,4.000000,100.000000,,,,,,,,,,,,,,,,,,,,,,,,,,,,,,,,,,,,,,,2.809688,4.740370,2.291305,2.815347,2.853861,1.415960,1.664584,1.233161,1.009639,1.162417,1.183460,3.766480,1.937510,1.404460,1.471774,3.639512,7.484096,2.849582,2.274914,1.526155,2.373150,5.522604,2.688709,2.318703,2.582493
1650388368.377150,1650388368.388508,74.000000,0.000000,4264.102539,4249.743652,4162.563965,4158.461426,4223.077148,450.000000,4.000000,91.000000,,,,0.000000,4.000000,4.000000,4.000000,4.000000,4.000000,100.000000,,,,,,,,,,,,,,,,,,,,,,,,,,,,,,,,,,,,,,,,,,,,,,,,,,,,,,,,,,,,,,,
1650388368.384965,1650388368.396424,75.000000,0.000000,4258.974121,4238.461426,4160.000000,4152.307617,4195.897461,16201.000000,4.000000,91.000000,,,,0.000000,4.000000,4.000000,4.000000,4.000000,4.000000,100.000000,,,,,,,,,,,,,,,,,,,,,,,,,,,,,,,,,,,,,,,,,,,,,,,,,,,,,,,,,,,,,,,
1650388368.392780,1650388368.404239,76.000000,0.000000,4265.641113,4236.922852,4170.256348,4168.205078,4217.948730,450.000000,4.000000,91.000000,,,,0.000000,4.000000,4.000000,4.000000,4.000000,4.000000,100.000000,,,,,,,,,,,,,,,,,,,,,,,,,,,,,,,,,,,,,,,,,,,,,,,,,,,,,,,,,,,,,,,
1650388368.400595,1650388368.412155,77.000000,0.000000,4272.307617,4249.230957,4169.230957,4187.179688,4245.128418,450.000000,4.000000,91.000000,,,,0.000000,4.000000,4.000000,4.000000,4.000000,4.000000,100.000000,,,,,,,,,,,,,,,,,,,,,,,,,,,,,,,,,,,,,,,,,,,,,,,,,,,,,,,,,,,,,,,
1650388368.408409,1650388368.419971,78.000000,0.000000,4283.589844,4267.179688,4163.589844,4199.487305,4234.358887,450.000000,4.000000,91.000000,,,,0.000000,4.000000,4.000000,4.000000,4.000000,4.000000,100.000000,,,,,,,,,,,,,,,,,,,,,,,,,,,,,,,,,,,,,,,,,,,,,,,,,,,,,,,,,,,,,,,
1650388368.416224,1650388368.427886,79.000000,0.000000,4295.897461,4268.205078,4165.641113,4207.692383,4232.820313,16201.000000,4.000000,91.000000,,,,0.000000,4.000000,4.000000,4.000000,4.000000,4.000000,100.000000,,,,,,,,,,,,,,,,,,,,,,,,,,,,,,,,,,,,,,,,,,,,,,,,,,,,,,,,,,,,,,,
1650388368.424039,1650388368.435702,80.000000,0.000000,4278.974121,4250.256348,4160.512695,4200.000000,4242.563965,450.000000,4.000000,91.000000,,,,0.000000,4.000000,4.000000,4.000000,4.000000,4.000000,100.000000,,,,,,,,,,,,,,,,,,,,,,,,,,,,,,,,,,,,,,,,,,,,,,,,,,,,,,,,,,,,,,,
1650388368.431854,1650388368.443617,81.000000,0.000000,4250.256348,4238.974121,4147.692383,4183.589844,4222.563965,450.000000,4.000000,91.000000,,,,0.000000,4.000000,4.000000,4.000000,4.000000,4.000000,100.000000,,,,,,,,,,,,,,,,,,,,,,,,,,,,,,,,,,,,,,,,,,,,,,,,,,,,,,,,,,,,,,,
1650388368.439669,1650388368.451432,82.000000,0.000000,4249.743652,4243.589844,4144.615234,4177.436035,4201.538574,450.000000,4.000000,91.000000,,,,0.000000,4.000000,4.000000,4.000000,4.000000,4.000000,100.000000,,,,,,,,,,,,,,,,,,,,,,,,,,,,,,,,,,,,,,,,,,,,,,,,,,,,,,,,,,,,,,,
1650388368.447484,1650388368.459348,83.000000,0.000000,4287.179688,4260.000000,4157.436035,4181.538574,4228.205078,16201.000000,4.000000,91.000000,,,,0.000000,4.000000,4.000000,4.000000,4.000000,4.000000,100.000000,,,,,,,,,,,,,,,,,,,,,,,,,,,,,,,,,,,,,,,,,,,,,,,,,,,,,,,,,,,,,,,
1650388368.455299,1650388368.467264,84.000000,0.000000,4319.487305,4280.000000,4181.538574,4194.871582,4268.205078,450.000000,4.000000,91.000000,,,,0.000000,4.000000,4.000000,4.000000,4.000000,4.000000,100.000000,,,,,,,,,,,,,,,,,,,,,,,,,,,,,,,,,,,,,,,,,,,,,,,,,,,,,,,,,,,,,,,
1650388368.463113,1650388368.475080,85.000000,0.000000,4288.205078,4276.410156,4180.512695,4200.000000,4251.282227,450.000000,4.000000,91.000000,,,,0.000000,4.000000,4.000000,4.000000,4.000000,4.000000,100.000000,,,,,,,,,,,,,,,,,,,,,,,,,,,,,,,,,,,,,,,,,,,,,,,,,,,,,,,,,,,,,,,
1650388368.470928,1650388368.482996,86.000000,0.000000,4242.563965,4246.666504,4156.922852,4181.538574,4216.410156,450.000000,4.000000,91.000000,,,,0.000000,4.000000,4.000000,4.000000,4.000000,4.000000,100.000000,,,,,,,,,,,,,,,,,,,,,,,,,,,,,,,,,,,,,,,,,,,,,,,,,,,,,,,,,,,,,,,
1650388368.478743,1650388368.490812,87.000000,0.000000,4253.846191,4235.897461,4152.307617,4170.256348,4225.128418,16201.000000,4.000000,91.000000,,,,0.000000,4.000000,4.000000,4.000000,4.000000,4.000000,100.000000,,,,,,,,,,,,,,,,,,,,,,,,,,,,,,,,,,,,,,,,,,,,,,,,,,,,,,,,,,,,,,,
1650388368.486558,1650388368.498727,88.000000,0.000000,4282.563965,4254.358887,4169.230957,4188.717773,4237.948730,450.000000,4.000000,91.000000,,,,0.000000,4.000000,4.000000,4.000000,4.000000,4.000000,100.000000,,,,,,,,,,,,,,,,,,,,,,,,,,,,,,,,,,,,,,,,,,,,,,,,,,,,,,,,,,,,,,,
1650388368.494372,1650388368.506543,89.000000,0.000000,4282.051270,4264.615234,4185.641113,4211.282227,4235.897461,450.000000,4.000000,91.000000,,,,0.000000,4.000000,4.000000,4.000000,4.000000,4.000000,100.000000,1.000000,100.000000,4.000000,4.000000,4.000000,4.000000,4.000000,,,,,,,,,,,,,,,,,,,,,,,,,,,,,,,,3.077094,6.229220,2.008822,2.608759,2.851127,1.655078,2.049943,1.056423,0.984578,1.256107,1.417500,4.408505,1.996090,1.393621,1.523210,3.400631,8.353435,2.719893,1.969443,1.707152,2.412759,7.010442,2.742892,2.246693,2.739155
1650388368.502187,1650388368.514459,90.000000,0.000000,4275.384766,4263.589844,4186.666504,4222.563965,4246.153809,450.000000,4.000000,91.000000,,,,0.000000,4.000000,4.000000,4.000000,4.000000,4.000000,100.000000,,,,,,,,,,,,,,,,,,,,,,,,,,,,,,,,,,,,,,,,,,,,,,,,,,,,,,,,,,,,,,,
1650388368.510002,1650388368.522275,91.000000,0.000000,4284.102539,4267.179688,4170.769043,4220.000000,4245.641113,16201.000000,4.000000,91.000000,,,,0.000000,4.000000,4.000000,4.000000,4.000000,4.000000,100.000000,,,,,,,,,,,,,,,,,,,,,,,,,,,,,,,,,,,,,,,,,,,,,,,,,,,,,,,,,,,,,,,
1650388368.517817,1650388368.530191,92.000000,0.000000,4292.307617,4262.051270,4150.769043,4208.205078,4233.846191,450.000000,4.000000,91.000000,,,,0.000000,4.000000,4.000000,4.000000,4.000000,4.000000,100.000000,,,,,,,,,,,,,,,,,,,,,,,,,,,,,,,,,,,,,,,,,,,,,,,,,,,,,,,,,,,,,,,
1650388368.525632,1650388368.538107,93.000000,0.000000,4284.102539,4249.230957,4144.102539,4203.589844,4233.846191,450.000000,4.000000,91.000000,,,,0.000000,4.000000,4.000000,4.000000,4.000000,4.000000,100.000000,,,,,,,,,,,,,,,,,,,,,,,,,,,,,,,,,,,,,,,,,,,,,,,,,,,,,,,,,,,,,,,
1650388368.533447,1650388368.545924,94.000000,0.000000,4264.615234,4252.820313,4146.153809,4206.666504,4225.641113,450.000000,4.000000,91.000000,,,,0.000000,4.000000,4.000000,4.000000,4.000000,4.000000,100.000000,,,,,,,,,,,,,,,,,,,,,,,,,,,,,,,,,,,,,,,,,,,,,,,,,,,,,,,,,,,,,,,
1650388368.541261,1650388368.553840,95.000000,0.000000,4255.897461,4261.538574,4153.333496,4205.128418,4213.846191,16201.000000,4.000000,91.000000,,,,0.000000,4.000000,4.000000,4.000000,4.000000,4.000000,100.000000,,,,,,,,,,,,,,,,,,,,,,,,,,,,,,,,,,,,,,,,,,,,,,,,,,,,,,,,,,,,,,,
1650388368.549076,1650388368.561757,96.000000,0.000000,4251.282227,4241.025879,4151.794922,4179.487305,4211.794922,450.000000,4.000000,91.000000,,,,0.000000,4.000000,4.000000,4.000000,4.000000,4.000000,100.000000,,,,,,,,,,,,,,,,,,,,,,,,,,,,,,,,,,,,,,,,,,,,,,,,,,,,,,,,,,,,,,,
1650388368.556891,1650388368.569574,97.000000,0.000000,4238.461426,4219.487305,4134.871582,4152.820313,4204.102539,450.000000,4.000000,91.000000,,,,0.000000,4.000000,4.000000,4.000000,4.000000,4.000000,100.000000,,,,,,,,,,,,,,,,,,,,,,,,,,,,,,,,,,,,,,,,,,,,,,,,,,,,,,,,,,,,,,,
1650388368.564706,1650388368.577491,98.000000,0.000000,4244.615234,4233.333496,4136.410156,4160.000000,4198.461426,450.000000,4.000000,91.000000,,,,0.000000,4.000000,4.000000,4.000000,4.000000,4.000000,100.000000,,,,,,,,,,,,,,,,,,,,,,,,,,,,,,,,,,,,,,,,,,,,,,,,,,,,,,,,,,,,,,,
1650388368.572521,1650388368.585308,99.000000,0.000000,4262.563965,4252.307617,4158.974121,4177.948730,4207.179688,16201.000000,4.000000,91.000000,,,,0.000000,4.000000,4.000000,4.000000,4.000000,4.000000,100.000000,,,,,,,,,,,,,,,,,,,,,,,,,,,,,,,,,,,,,,,,,,,,,,,,,,,,,,,,,,,,,,,
1650388368.580336,1650388368.593225,100.000000,0.000000,4264.615234,4246.666504,4161.025879,4171.282227,4218.974121,450.000000,4.000000,91.000000,,,,0.000000,4.000000,4.000000,4.000000,4.000000,4.000000,100.000000,,,,,,,,,,,,,,,,,,,,,,,,,,,,,,,,,,,,,,,,,,,,,,,,,,,,,,,,,,,,,,,
1650388368.588150,1650388368.601042,101.000000,0.000000,4263.589844,4241.025879,4148.717773,4164.615234,4235.384766,450.000000,4.000000,91.000000,,,,0.000000,4.000000,4.000000,4.000000,4.000000,4.000000,100.000000,,,,,,,,,,,,,,,,,,,,,,,,,,,,,,,,,,,,,,,,,,,,,,,,,,,,,,,,,,,,,,,
1650388368.595965,1650388368.608959,102.000000,0.000000,4266.666504,4250.256348,4154.358887,4167.692383,4243.589844,450.000000,4.000000,91.000000,,,,0.000000,4.000000,4.000000,4.000000,4.000000,4.000000,100.000000,,,,,,,,,,,,,,,,,,,,,,,,,,,,,,,,,,,,,,,,,,,,,,,,,,,,,,,,,,,,,,,
1650388368.603780,1650388368.616776,103.000000,0.000000,4257.948730,4244.102539,4156.410156,4152.307617,4220.000000,16201.000000,4.000000,91.000000,,,,0.000000,4.000000,4.000000,4.000000,4.000000,4.000000,100.000000,,,,,,,,,,,,,,,,,,,,,,,,,,,,,,,,,,,,,,,,,,,,,,,,,,,,,,,,,,,,,,,
1650388368.611595,1650388368.624692,104.000000,0.000000,4248.717773,4229.743652,4146.666504,4144.615234,4209.230957,450.000000,4.000000,91.000000,,,,0.000000,4.000000,4.000000,4.000000,4.000000,4.000000,100.000000,,,,,,,,,,,,,,,,,,,,,,,,,,,,,,,,,,,,,,,,,,,,,,,,,,,,,,,,,,,,,,,
1650388368.619409,1650388368.632610,105.000000,0.000000,4262.563965,4238.461426,4154.871582,4160.512695,4228.717773,450.000000,4.000000,91.000000,,,,0.000000,4.000000,4.000000,4.000000,4.000000,4.000000,100.000000,,,,,,,,,,,,,,,,,,,,,,,,,,,,,,,,,,,,,,,3.455949,7.406205,1.791035,2.470963,2.807518,2.016891,2.304305,0.985091,1.074644,1.341595,1.744036,4.846231,1.930158,1.481733,1.576045,3.140868,8.610541,2.460154,1.794673,1.863608,2.592520,8.132861,2.689205,2.251214,2.873674
1650388368.627224,1650388368.640427,106.000000,0.000000,4279.487305,4244.102539,4165.128418,4166.666504,4243.077148,450.000000,4.000000,91.000000,,,,0.000000,4.000000,4.000000,4.000000,4.000000,4.000000,100.000000,,,,,,,,,,,,,,,,,,,,,,,,,,,,,,,,,,,,,,,,,,,,,,,,,,,,,,,,,,,,,,,
1650388368.635039,1650388368.648345,107.000000,0.000000,4274.358887,4228.717773,4154.871582,4142.051270,4244.615234,16201.000000,4.000000,91.000000,,,,0.000000,4.000000,4.000000,4.000000,4.000000,4.000000,100.000000,,,,,,,,,,,,,,,,,,,,,,,,,,,,,,,,,,,,,,,,,,,,,,,,,,,,,,,,,,,,,,,
1650388368.642854,1650388368.656162,108.000000,0.000000,4258.461426,4225.128418,4148.205078,4116.410156,4235.384766,450.000000,4.000000,91.000000,,,,0.000000,4.000000,4.000000,4.000000,4.000000,4.000000,100.000000,,,,,,,,,,,,,,,,,,,,,,,,,,,,,,,,,,,,,,,,,,,,,,,,,,,,,,,,,,,,,,,
1650388368.650669,1650388368.664080,109.000000,0.000000,4255.384766,4245.641113,4162.563965,4124.102539,4221.025879,450.000000,4.000000,91.000000,,,,0.000000,4.000000,4.000000,4.000000,4.000000,4.000000,100.000000,,,,,,,,,,,,,,,,,,,,,,,,,,,,,,,,,,,,,,,,,,,,,,,,,,,,,,,,,,,,,,,
1650388368.658484,1650388368.671897,110.000000,0.000000,4264.615234,4245.641113,4168.717773,4136.410156,4220.512695,450.000000,4.000000,91.000000,,,,0.000000,4.000000,4.000000,4.000000,4.000000,4.000000,100.000000,,,,,,,,,,,,,,,,,,,,,,,,,,,,,,,,,,,,,,,,,,,,,,,,,,,,,,,,,,,,,,,
1650388368.666298,1650388368.679814,111.000000,0.000000,4261.538574,4228.205078,4153.333496,4124.615234,4225.641113,16201.000000,4.000000,91.000000,,,,0.000000,4.000000,4.000000,4.000000,4.000000,4.000000,100.000000,,,,,,,,,,,,,,,,,,,,,,,,,,,,,,,,,,,,,,,,,,,,,,,,,,,,,,,,,,,,,,,
1650388368.674113,1650388368.687632,112.000000,0.000000,4251.282227,4230.769043,4156.410156,4124.102539,4216.410156,450.000000,4.000000,91.000000,,,,0.000000,4.000000,4.000000,4.000000,4.000000,4.000000,100.000000,,,,,,,,,,,,,,,,,,,,,,,,,,,,,,,,,,,,,,,,,,,,,,,,,,,,,,,,,,,,,,,
1650388368.681928,1650388368.695549,113.000000,0.000000,4244.102539,4233.333496,4172.820313,4134.358887,4205.641113,450.000000,4.000000,91.000000,,,,0.000000,4.000000,4.000000,4.000000,4.000000,4.000000,100.000000,,,,,,,,,,,,,,,,,,,,,,,,,,,,,,,,,,,,,,,,,,,,,,,,,,,,,,,,,,,,,,,
1650388368.689743,1650388368.703366,114.000000,0.000000,4235.384766,4227.692383,4169.230957,4130.769043,4207.692383,450.000000,4.000000,91.000000,,,,0.000000,4.000000,4.000000,4.000000,4.000000,4.000000,100.000000,,,,,,,,,,,,,,,,,,,,,,,,,,,,,,,,,,,,,,,,,,,,,,,,,,,,,,,,,,,,,,,
1650388368.697558,1650388368.711183,115.000000,0.000000,4243.077148,4236.922852,4168.717773,4139.487305,4218.974121,16201.000000,4.000000,91.000000,,,,0.000000,4.000000,4.000000,4.000000,4.000000,4.000000,100.000000,,,,,,,,,,,,,,,,,,,,,,,,,,,,,,,,,,,,,,,,,,,,,,,,,,,,,,,,,,,,,,,
1650388368.705372,1650388368.719100,116.000000,0.000000,4273.333496,4242.563965,4181.025879,4160.000000,4233.333496,450.000000,4.000000,91.000000,,,,0.000000,4.000000,4.000000,4.000000,4.000000,4.000000,100.000000,,,,,,,,,,,,,,,,,,,,,,,,,,,,,,,,,,,,,,,,,,,,,,,,,,,,,,,,,,,,,,,
1650388368.713187,1650388368.727017,117.000000,0.000000,4290.256348,4236.922852,4181.538574,4156.922852,4245.641113,450.000000,4.000000,91.000000,,,,0.000000,4.000000,4.000000,4.000000,4.000000,4.000000,100.000000,,,,,,,,,,,,,,,,,,,,,,,,,,,,,,,,,,,,,,,,,,,,,,,,,,,,,,,,,,,,,,,
1650388368.721002,1650388368.734834,118.000000,0.000000,4272.820313,4246.666504,4163.589844,4135.384766,4243.077148,450.000000,4.000000,91.000000,,,,0.000000,4.000000,4.000000,4.000000,4.000000,4.000000,100.000000,,,,,,,,,,,,,,,,,,,,,,,,,,,,,,,,,,,,,,,,,,,,,,,,,,,,,,,,,,,,,,,
1650388368.728817,1650388368.742751,119.000000,0.000000,4247.179688,4243.077148,4143.589844,4115.897461,4221.025879,16201.000000,4.000000,91.000000,,,,0.000000,4.000000,4.000000,4.000000,4.000000,4.000000,100.000000,,,,,,,,,,,,,,,,,,,,,,,,,,,,,,,,,,,,,,,,,,,,,,,,,,,,,,,,,,,,,,,
1650388368.736632,1650388368.750569,120.000000,0.000000,4255.897461,4223.077148,4143.589844,4114.871582,4210.769043,450.000000,4.000000,91.000000,,,,0.000000,4.000000,4.000000,4.000000,4.000000,4.000000,100.000000,,,,,,,,,,,,,,,,,,,,,,,,,,,,,,,,,,,,,,,,,,,,,,,,,,,,,,,,,,,,,,,
1650388368.744446,1650388368.758486,121.000000,0.000000,4288.205078,4244.615234,4164.615234,4142.563965,4233.846191,450.000000,4.000000,91.000000,,,,0.000000,4.000000,4.000000,4.000000,4.000000,4.000000,100.000000,,,,,,,,,,,,,,,,,,,,,,,,,,,,,,,,,,,,,,,3.889132,7.855609,1.629592,2.411871,2.743721,2.479588,2.323445,0.992916,1.257861,1.399258,2.111251,5.071212,1.770602,1.610640,1.635390,3.024180,8.343084,2.115772,1.739102,1.971119,2.888627,8.520004,2.479869,2.280281,2.987493
1650388368.752261,1650388368.766303,122.000000,0.000000,4290.769043,4273.333496,4166.153809,4164.102539,4252.307617,450.000000,4.000000,91.000000,,,,0.000000,4.000000,4.000000,4.000000,4.000000,4.000000,100.000000,,,,,,,,,,,,,,,,,,,,,,,,,,,,,,,,,,,,,,,,,,,,,,,,,,,,,,,,,,,,,,,
1650388368.760076,1650388368.774220,123.000000,0.000000,4258.461426,4253.333496,4147.179688,4148.205078,4229.743652,16201.000000,4.000000,91.000000,,,,0.000000,4.000000,4.000000,4.000000,4.000000,4.000000,100.000000,,,,,,,,,,,,,,,,,,,,,,,,,,,,,,,,,,,,,,,,,,,,,,,,,,,,,,,,,,,,,,,
1650388368.767891,1650388368.782037,124.000000,0.000000,4254.358887,4237.948730,4156.410156,4131.794922,4208.717773,450.000000,4.000000,91.000000,,,,0.000000,4.000000,4.000000,4.000000,4.000000,4.000000,100.000000,,,,,,,,,,,,,,,,,,,,,,,,,,,,,,,,,,,,,,,,,,,,,,,,,,,,,,,,,,,,,,,
1650388368.775706,1650388368.789954,125.000000,0.000000,4287.692383,4256.410156,4182.051270,4147.179688,4232.307617,450.000000,4.000000,91.000000,,,,0.000000,4.000000,4.000000,4.000000,4.000000,4.000000,100.000000,,,,,,,,,,,,,,,,,,,,,,,,,,,,,,,,,,,,,,,,,,,,,,,,,,,,,,,,,,,,,,,
1650388368.783521,1650388368.797871,126.000000,0.000000,4273.846191,4246.153809,4167.179688,4130.256348,4231.282227,450.000000,4.000000,91.000000,,,,0.000000,4.000000,4.000000,4.000000,4.000000,4.000000,100.000000,,,,,,,,,,,,,,,,,,,,,,,,,,,,,,,,,,,,,,,,,,,,,,,,,,,,,,,,,,,,,,,
1650388368.791335,1650388368.805688,127.000000,0.000000,4212.307617,4207.179688,4126.666504,4070.256348,4182.051270,242.000000,4.000000,91.000000,,,,0.000000,4.000000,4.000000,4.000000,4.000000,4.000000,100.000000,,,,,,,,,,,,,,,,,,,,,,,,,,,,,,,,,,,,,,,,,,,,,,,,,,,,,,,,,,,,,,,
1650388368.799150,1650388368.813606,0.000000,0.000000,4217.436035,4216.410156,4134.358887,4073.846191,4190.256348,450.000000,4.000000,91.000000,,,,0.000000,4.000000,4.000000,4.000000,4.000000,4.000000,100.000000,,,,,,,,,,,,,,,,,,,,,,,,,,,,,,,,,,,,,,,,,,,,,,,,,,,,,,,,,,,,,,,
1650388368.806965,1650388368.821423,1.000000,0.000000,4289.230957,4258.974121,4176.922852,4131.794922,4247.692383,450.000000,4.000000,91.000000,,,,0.000000,4.000000,4.000000,4.000000,4.000000,4.000000,100.000000,,,,,,,,,,,,,,,,,,,,,,,,,,,,,,,,,,,,,,,,,,,,,,,,,,,,,,,,,,,,,,,
1650388368.814780,1650388368.829341,2.000000,0.000000,4302.563965,4263.077148,4182.563965,4127.179688,4243.589844,16210.000000,4.000000,91.000000,,,,0.000000,4.000000,4.000000,4.000000,4.000000,4.000000,100.000000,,,,,,,,,,,,,,,,,,,,,,,,,,,,,,,,,,,,,,,,,,,,,,,,,,,,,,,,,,,,,,,
1650388368.822595,1650388368.837158,3.000000,0.000000,4266.666504,4254.358887,4170.769043,4104.102539,4219.487305,450.000000,4.000000,91.000000,,,,0.000000,4.000000,4.000000,4.000000,4.000000,4.000000,100.000000,,,,,,,,,,,,,,,,,,,,,,,,,,,,,,,,,,,,,,,,,,,,,,,,,,,,,,,,,,,,,,,
1650388368.830409,1650388368.845076,4.000000,0.000000,4264.102539,4261.538574,4172.307617,4124.615234,4240.000000,16201.000000,4.000000,91.000000,,,,0.000000,4.000000,4.000000,4.000000,4.000000,4.000000,100.000000,,,,,,,,,,,,,,,,,,,,,,,,,,,,,,,,,,,,,,,,,,,,,,,,,,,,,,,,,,,,,,,
1650388368.838224,1650388368.852893,5.000000,0.000000,4266.153809,4249.230957,4157.436035,4115.897461,4232.307617,450.000000,4.000000,91.000000,,,,0.000000,4.000000,4.000000,4.000000,4.000000,4.000000,100.000000,,,,,,,,,,,,,,,,,,,,,,,,,,,,,,,,,,,,,,,,,,,,,,,,,,,,,,,,,,,,,,,
1650388368.846039,1650388368.860811,6.000000,0.000000,4262.051270,4244.615234,4154.871582,4102.563965,4211.282227,16124.000000,4.000000,91.000000,,,,0.000000,4.000000,4.000000,4.000000,4.000000,4.000000,100.000000,,,,,,,,,,,,,,,,,,,,,,,,,,,,,,,,,,,,,,,,,,,,,,,,,,,,,,,,,,,,,,,
1650388368.853854,1650388368.868628,7.000000,0.000000,4263.589844,4264.102539,4173.846191,4129.230957,4225.128418,450.000000,4.000000,91.000000,,,,0.000000,4.000000,4.000000,4.000000,4.000000,4.000000,100.000000,,,,,,,,,,,,,,,,,,,,,,,,,,,,,,,,,,,,,,,,,,,,,,,,,,,,,,,,,,,,,,,
1650388368.861669,1650388368.876545,8.000000,0.000000,4252.820313,4266.153809,4167.179688,4134.358887,4224.102539,450.000000,4.000000,91.000000,,,,0.000000,4.000000,4.000000,4.000000,4.000000,4.000000,100.000000,,,,,,,,,,,,,,,,,,,,,,,,,,,,,,,,,,,,,,,,,,,,,,,,,,,,,,,,,,,,,,,
1650388368.869483,1650388368.884363,9.000000,0.000000,4255.384766,4263.589844,4152.820313,4118.461426,4216.410156,16183.000000,4.000000,91.000000,,,,0.000000,4.000000,4.000000,4.000000,4.000000,4.000000,100.000000,,,,,,,,,,,,,,,,,,,,,,,,,,,,,,,,,,,,,,,4.201900,7.428696,1.491522,2.459279,2.657702,2.942409,2.090412,1.032397,1.504173,1.411423,2.432819,5.088360,1.555903,1.729846,1.687055,3.170130,7.830186,1.733448,1.774441,2.004730,3.175353,8.061052,2.121228,2.321161,3.050140
1650388368.877298,1650388368.892280,10.000000,0.000000,4284.102539,4278.461426,4166.666504,4131.794922,4240.000000,450.000000,4.000000,91.000000,,,,0.000000,4.000000,4.000000,4.000000,4.000000,4.000000,100.000000,,,,,,,,,,,,,,,,,,,,,,,,,,,,,,,,,,,,,,,,,,,,,,,,,,,,,,,,,,,,,,,
1650388368.885113,1650388368.900097,11.000000,0.000000,4301.025879,4287.692383,4181.025879,4146.666504,4261.025879,16221.000000,4.000000,91.000000,,,,0.000000,4.000000,4.000000,4.000000,4.000000,4.000000,100.000000,,,,,,,,,,,,,,,,,,,,,,,,,,,,,,,,,,,,,,,,,,,,,,,,,,,,,,,,,,,,,,,
1650388368.892928,1650388368.908014,12.000000,0.000000,4293.846191,4277.436035,4168.717773,4140.512695,4252.307617,450.000000,4.000000,91.000000,,,,0.000000,4.000000,4.000000,4.000000,4.000000,4.000000,100.000000,,,,,,,,,,,,,,,,,,,,,,,,,,,,,,,,,,,,,,,,,,,,,,,,,,,,,,,,,,,,,,,
1650388368.900743,1650388368.915831,13.000000,0.000000,4293.333496,4266.666504,4154.871582,4138.461426,4242.563965,450.000000,4.000000,91.000000,,,,0.000000,4.000000,4.000000,4.000000,4.000000,4.000000,100.000000,,,,,,,,,,,,,,,,,,,,,,,,,,,,,,,,,,,,,,,,,,,,,,,,,,,,,,,,,,,,,,,
1650388368.908558,1650388368.923749,14.000000,0.000000,4302.051270,4263.589844,4150.256348,4133.333496,4242.563965,450.000000,4.000000,91.000000,,,,0.000000,4.000000,4.000000,4.000000,4.000000,4.000000,100.000000,,,,,,,,,,,,,,,,,,,,,,,,,,,,,,,,,,,,,,,,,,,,,,,,,,,,,,,,,,,,,,,
1650388368.916372,1650388368.931566,15.000000,0.000000,4297.948730,4260.512695,4142.563965,4117.436035,4244.102539,16221.000000,4.000000,91.000000,,,,0.000000,4.000000,4.000000,4.000000,4.000000,4.000000,100.000000,,,,,,,,,,,,,,,,,,,,,,,,,,,,,,,,,,,,,,,,,,,,,,,,,,,,,,,,,,,,,,,
1650388368.924187,1650388368.939483,16.000000,0.000000,4284.615234,4257.436035,4150.256348,4121.538574,4245.641113,0.000000,4.000000,91.000000,,,,0.000000,4.000000,4.000000,4.000000,4.000000,4.000000,100.000000,,,,,,,,,,,,,,,,,,,,,,,,,,,,,,,,,,,,,,,,,,,,,,,,,,,,,,,,,,,,,,,
1650388368.932002,1650388368.947400,17.000000,0.000000,4278.974121,4264.615234,4182.563965,4145.641113,4238.461426,0.000000,4.000000,91.000000,,,,0.000000,4.000000,4.000000,4.000000,4.000000,4.000000,100.000000,,,,,,,,,,,,,,,,,,,,,,,,,,,,,,,,,,,,,,,,,,,,,,,,,,,,,,,,,,,,,,,
1650388368.939817,1650388368.955218,18.000000,0.000000,4281.025879,4272.820313,4193.333496,4150.769043,4223.589844,0.000000,4.000000,91.000000,,,,0.000000,4.000000,4.000000,4.000000,4.000000,4.000000,100.000000,,,,,,,,,,,,,,,,,,,,,,,,,,,,,,,,,,,,,,,,,,,,,,,,,,,,,,,,,,,,,,,
1650388368.947631,1650388368.963136,19.000000,0.000000,4267.692383,4266.153809,4168.205078,4128.205078,4200.512695,0.000000,4.000000,91.000000,,,,0.000000,4.000000,4.000000,4.000000,4.000000,4.000000,100.000000,,,,,,,,,,,,,,,,,,,,,,,,,,,,,,,,,,,,,,,,,,,,,,,,,,,,,,,,,,,,,,,
1650388368.955446,1650388368.970954,20.000000,0.000000,4255.897461,4260.512695,4158.974121,4108.205078,4198.974121,0.000000,4.000000,91.000000,,,,0.000000,4.000000,4.000000,4.000000,4.000000,4.000000,100.000000,,,,,,,,,,,,,,,,,,,,,,,,,,,,,,,,,,,,,,,,,,,,,,,,,,,,,,,,,,,,,,,
1650388368.963261,1650388368.978771,21.000000,0.000000,4269.230957,4261.025879,4169.743652,4114.358887,4230.256348,0.000000,4.000000,91.000000,,,,0.000000,4.000000,4.000000,4.000000,4.000000,4.000000,100.000000,,,,,,,,,,,,,,,,,,,,,,,,,,,,,,,,,,,,,,,,,,,,,,,,,,,,,,,,,,,,,,,
1650388368.971076,1650388368.986688,22.000000,0.000000,4284.102539,4255.897461,4168.205078,4134.871582,4244.615234,0.000000,4.000000,91.000000,,,,0.000000,4.000000,4.000000,4.000000,4.000000,4.000000,100.000000,,,,,,,,,,,,,,,,,,,,,,,,,,,,,,,,,,,,,,,,,,,,,,,,,,,,,,,,,,,,,,,
1650388368.978891,1650388368.994505,23.000000,0.000000,4278.974121,4241.025879,4162.563965,4136.922852,4221.538574,0.000000,4.000000,91.000000,,,,0.000000,4.000000,4.000000,4.000000,4.000000,4.000000,100.000000,,,,,,,,,,,,,,,,,,,,,,,,,,,,,,,,,,,,,,,,,,,,,,,,,,,,,,,,,,,,,,,
1650388368.986706,1650388369.002422,24.000000,0.000000,4271.794922,4237.948730,4175.897461,4128.205078,4220.000000,0.000000,4.000000,91.000000,,,,0.000000,4.000000,4.000000,4.000000,4.000000,4.000000,100.000000,,,,,,,,,,,,,,,,,,,,,,,,,,,,,,,,,,,,,,,,,,,,,,,,,,,,,,,,,,,,,,,
1650388368.994520,1650388369.010339,25.000000,0.000000,4268.717773,4253.846191,4188.205078,4132.820313,4238.974121,0.000000,4.000000,91.000000,,,,0.000000,4.000000,4.000000,4.000000,4.000000,4.000000,100.000000,1.000000,100.000000,4.000000,4.000000,4.000000,4.000000,4.000000,,,,,,,,,,,,,,,,,,,,,,,,,,,,,,,,4.215910,6.331642,1.369819,2.643166,2.542809,3.252774,1.688268,1.067075,1.781212,1.370765,2.635291,4.909239,1.328136,1.811592,1.702816,3.477708,7.389622,1.365431,1.886136,1.950808,3.342489,6.966134,1.673525,2.400495,3.016729
1650388369.002335,1650388369.018157,26.000000,0.000000,4264.102539,4257.948730,4180.000000,4140.000000,4226.153809,0.000000,4.000000,91.000000,,,,0.000000,4.000000,4.000000,4.000000,4.000000,4.000000,100.000000,,,,,,,,,,,,,,,,,,,,,,,,,,,,,,,,,,,,,,,,,,,,,,,,,,,,,,,,,,,,,,,
1650388369.010150,1650388369.026074,27.000000,0.000000,4276.922852,4250.256348,4177.436035,4134.358887,4216.410156,0.000000,4.000000,91.000000,,,,0.000000,4.000000,4.000000,4.000000,4.000000,4.000000,100.000000,,,,,,,,,,,,,,,,,,,,,,,,,,,,,,,,,,,,,,,,,,,,,,,,,,,,,,,,,,,,,,,
1650388369.017965,1650388369.033892,28.000000,0.000000,4296.410156,4258.461426,4193.333496,4140.512695,4243.589844,0.000000,4.000000,91.000000,,,,0.000000,4.000000,4.000000,4.000000,4.000000,4.000000,100.000000,,,,,,,,,,,,,,,,,,,,,,,,,,,,,,,,,,,,,,,,,,,,,,,,,,,,,,,,,,,,,,,
1650388369.025780,1650388369.041809,29.000000,0.000000,4271.794922,4266.666504,4185.641113,4138.461426,4243.589844,0.000000,4.000000,91.000000,,,,0.000000,4.000000,4.000000,4.000000,4.000000,4.000000,100.000000,,,,,,,,,,,,,,,,,,,,,,,,,,,,,,,,,,,,,,,,,,,,,,,,,,,,,,,,,,,,,,,
1650388369.033594,1650388369.049627,30.000000,0.000000,4235.897461,4244.615234,4158.461426,4098.461426,4194.871582,0.000000,4.000000,91.000000,,,,0.000000,4.000000,4.000000,4.000000,4.000000,4.000000,100.000000,,,,,,,,,,,,,,,,,,,,,,,,,,,,,,,,,,,,,,,,,,,,,,,,,,,,,,,,,,,,,,,
1650388369.041409,1650388369.057544,31.000000,0.000000,4249.230957,4237.436035,4171.794922,4091.281982,4181.538574,0.000000,4.000000,91.000000,,,,0.000000,4.000000,4.000000,4.000000,4.000000,4.000000,100.000000,,,,,,,,,,,,,,,,,,,,,,,,,,,,,,,,,,,,,,,,,,,,,,,,,,,,,,,,,,,,,,,
1650388369.049224,1650388369.065361,32.000000,0.000000,4274.871582,4269.230957,4203.589844,4137.948730,4213.333496,0.000000,4.000000,91.000000,,,,0.000000,4.000000,4.000000,4.000000,4.000000,4.000000,100.000000,,,,,,,,,,,,,,,,,,,,,,,,,,,,,,,,,,,,,,,,,,,,,,,,,,,,,,,,,,,,,,,
1650388369.057039,1650388369.073178,33.000000,0.000000,4262.563965,4273.333496,4192.820313,4148.717773,4225.128418,0.000000,4.000000,91.000000,,,,0.000000,4.000000,4.000000,4.000000,4.000000,4.000000,100.000000,,,,,,,,,,,,,,,,,,,,,,,,,,,,,,,,,,,,,,,,,,,,,,,,,,,,,,,,,,,,,,,
1650388369.064854,1650388369.081095,34.000000,0.000000,4233.333496,4237.436035,4162.563965,4111.794922,4198.974121,0.000000,4.000000,91.000000,,,,0.000000,4.000000,4.000000,4.000000,4.000000,4.000000,100.000000,,,,,,,,,,,,,,,,,,,,,,,,,,,,,,,,,,,,,,,,,,,,,,,,,,,,,,,,,,,,,,,
1650388369.072668,1650388369.089012,35.000000,0.000000,4227.692383,4229.743652,4167.692383,4106.666504,4173.846191,0.000000,4.000000,91.000000,,,,0.000000,4.000000,4.000000,4.000000,4.000000,4.000000,100.000000,,,,,,,,,,,,,,,,,,,,,,,,,,,,,,,,,,,,,,,,,,,,,,,,,,,,,,,,,,,,,,,
1650388369.080483,1650388369.096829,36.000000,0.000000,4256.922852,4262.563965,4193.333496,4138.974121,4205.641113,0.000000,4.000000,91.000000,,,,0.000000,4.000000,4.000000,4.000000,4.000000,4.000000,100.000000,,,,,,,,,,,,,,,,,,,,,,,,,,,,,,,,,,,,,,,,,,,,,,,,,,,,,,,,,,,,,,,
1650388369.088298,1650388369.104746,37.000000,0.000000,4277.436035,4269.230957,4189.230957,4145.128418,4245.128418,0.000000,4.000000,91.000000,,,,0.000000,4.000000,4.000000,4.000000,4.000000,4.000000,100.000000,,,,,,,,,,,,,,,,,,,,,,,,,,,,,,,,,,,,,,,,,,,,,,,,,,,,,,,,,,,,,,,
1650388369.096113,1650388369.112564,38.000000,0.000000,4263.077148,4247.179688,4169.743652,4126.153809,4230.256348,0.000000,4.000000,91.000000,,,,0.000000,4.000000,4.000000,4.000000,4.000000,4.000000,100.000000,,,,,,,,,,,,,,,,,,,,,,,,,,,,,,,,,,,,,,,,,,,,,,,,,,,,,,,,,,,,,,,
1650388369.103928,1650388369.120481,39.000000,0.000000,4256.922852,4243.077148,4167.692383,4115.384766,4205.641113,0.000000,4.000000,91.000000,,,,0.000000,4.000000,4.000000,4.000000,4.000000,4.000000,100.000000,,,,,,,,,,,,,,,,,,,,,,,,,,,,,,,,,,,,,,,,,,,,,,,,,,,,,,,,,,,,,,,
1650388369.111743,1650388369.128298,40.000000,0.000000,4277.436035,4253.333496,4172.307617,4121.025879,4211.282227,0.000000,4.000000,91.000000,,,,0.000000,4.000000,4.000000,4.000000,4.000000,4.000000,100.000000,,,,,,,,,,,,,,,,,,,,,,,,,,,,,,,,,,,,,,,,,,,,,,,,,,,,,,,,,,,,,,,
1650388369.119557,1650388369.136215,41.000000,0.000000,4296.410156,4262.051270,4178.974121,4138.974121,4228.205078,0.000000,4.000000,91.000000,,,,0.000000,4.000000,4.000000,4.000000,4.000000,4.000000,100.000000,,,,,,,,,,,,,,,,,,,,,,,,,,,,,,,,,,,,,,,3.979914,5.007563,1.321699,2.948299,2.423703,3.324476,1.270728,1.095929,2.052161,1.292185,2.683464,4.540838,1.125881,1.857271,1.667372,3.857159,7.176801,1.107969,2.069618,1.831570,3.421345,5.639038,1.257379,2.544255,2.868796
1650388369.127372,1650388369.144032,42.000000,0.000000,4306.153809,4268.717773,4186.666504,4143.077148,4237.948730,0.000000,4.000000,91.000000,,,,0.000000,4.000000,4.000000,4.000000,4.000000,4.000000,100.000000,,,,,,,,,,,,,,,,,,,,,,,,,,,,,,,,,,,,,,,,,,,,,,,,,,,,,,,,,,,,,,,
1650388369.135187,1650388369.151949,43.000000,0.000000,4298.461426,4264.102539,4173.846191,4124.102539,4231.282227,0.000000,4.000000,91.000000,,,,0.000000,4.000000,4.000000,4.000000,4.000000,4.000000,100.000000,,,,,,,,,,,,,,,,,,,,,,,,,,,,,,,,,,,,,,,,,,,,,,,,,,,,,,,,,,,,,,,
1650388369.143002,1650388369.159766,44.000000,0.000000,4280.000000,4255.897461,4159.487305,4117.436035,4210.769043,0.000000,4.000000,91.000000,,,,0.000000,4.000000,4.000000,4.000000,4.000000,4.000000,100.000000,,,,,,,,,,,,,,,,,,,,,,,,,,,,,,,,,,,,,,,,,,,,,,,,,,,,,,,,,,,,,,,
1650388369.150817,1650388369.167683,45.000000,0.000000,4285.128418,4272.820313,4174.358887,4142.563965,4220.000000,0.000000,4.000000,91.000000,,,,0.000000,4.000000,4.000000,4.000000,4.000000,4.000000,100.000000,,,,,,,,,,,,,,,,,,,,,,,,,,,,,,,,,,,,,,,,,,,,,,,,,,,,,,,,,,,,,,,
1650388369.158631,1650388369.175500,46.000000,0.000000,4280.000000,4283.589844,4168.717773,4145.641113,4223.077148,0.000000,4.000000,91.000000,,,,0.000000,4.000000,4.000000,4.000000,4.000000,4.000000,100.000000,,,,,,,,,,,,,,,,,,,,,,,,,,,,,,,,,,,,,,,,,,,,,,,,,,,,,,,,,,,,,,,
1650388369.166446,1650388369.183417,47.000000,0.000000,4240.512695,4254.358887,4124.102539,4106.666504,4181.538574,0.000000,4.000000,91.000000,,,,0.000000,4.000000,4.000000,4.000000,4.000000,4.000000,100.000000,,,,,,,,,,,,,,,,,,,,,,,,,,,,,,,,,,,,,,,,,,,,,,,,,,,,,,,,,,,,,,,
1650388369.174261,1650388369.191233,48.000000,0.000000,4248.717773,4252.307617,4131.282227,4109.743652,4195.384766,0.000000,4.000000,91.000000,,,,0.000000,4.000000,4.000000,4.000000,4.000000,4.000000,100.000000,,,,,,,,,,,,,,,,,,,,,,,,,,,,,,,,,,,,,,,,,,,,,,,,,,,,,,,,,,,,,,,
1650388369.182076,1650388369.199150,49.000000,0.000000,4306.666504,4289.743652,4188.205078,4162.563965,4265.641113,0.000000,4.000000,91.000000,,,,0.000000,4.000000,4.000000,4.000000,4.000000,4.000000,100.000000,,,,,,,,,,,,,,,,,,,,,,,,,,,,,,,,,,,,,,,,,,,,,,,,,,,,,,,,,,,,,,,
1650388369.189891,1650388369.206967,50.000000,0.000000,4315.384766,4292.307617,4196.922852,4180.000000,4268.205078,0.000000,4.000000,91.000000,,,,0.000000,4.000000,4.000000,4.000000,4.000000,4.000000,100.000000,,,,,,,,,,,,,,,,,,,,,,,,,,,,,,,,,,,,,,,,,,,,,,,,,,,,,,,,,,,,,,,
1650388369.197705,1650388369.214884,51.000000,0.000000,4276.922852,4265.128418,4170.256348,4154.358887,4222.051270,0.000000,4.000000,91.000000,,,,0.000000,4.000000,4.000000,4.000000,4.000000,4.000000,100.000000,,,,,,,,,,,,,,,,,,,,,,,,,,,,,,,,,,,,,,,,,,,,,,,,,,,,,,,,,,,,,,,
1650388369.205520,1650388369.222801,52.000000,0.000000,4271.794922,4267.179688,4178.974121,4149.230957,4223.077148,0.000000,4.000000,91.000000,,,,0.000000,4.000000,4.000000,4.000000,4.000000,4.000000,100.000000,,,,,,,,,,,,,,,,,,,,,,,,,,,,,,,,,,,,,,,,,,,,,,,,,,,,,,,,,,,,,,,
1650388369.213335,1650388369.230618,53.000000,0.000000,4290.769043,4283.589844,4197.948730,4163.589844,4238.974121,0.000000,4.000000,91.000000,,,,0.000000,4.000000,4.000000,4.000000,4.000000,4.000000,100.000000,,,,,,,,,,,,,,,,,,,,,,,,,,,,,,,,,,,,,,,,,,,,,,,,,,,,,,,,,,,,,,,
1650388369.221150,1650388369.238535,54.000000,0.000000,4274.871582,4272.820313,4180.000000,4148.717773,4215.897461,0.000000,4.000000,91.000000,,,,0.000000,4.000000,4.000000,4.000000,4.000000,4.000000,100.000000,,,,,,,,,,,,,,,,,,,,,,,,,,,,,,,,,,,,,,,,,,,,,,,,,,,,,,,,,,,,,,,
1650388369.228965,1650388369.246453,55.000000,0.000000,4254.358887,4253.846191,4157.436035,4130.256348,4207.692383,0.000000,4.000000,91.000000,,,,0.000000,4.000000,4.000000,4.000000,4.000000,4.000000,100.000000,,,,,,,,,,,,,,,,,,,,,,,,,,,,,,,,,,,,,,,,,,,,,,,,,,,,,,,,,,,,,,,
1650388369.236780,1650388369.254271,56.000000,0.000000,4273.333496,4252.820313,4162.563965,4147.179688,4230.769043,0.000000,4.000000,91.000000,,,,0.000000,4.000000,4.000000,4.000000,4.000000,4.000000,100.000000,,,,,,,,,,,,,,,,,,,,,,,,,,,,,,,,,,,,,,,,,,,,,,,,,,,,,,,,,,,,,,,
1650388369.244594,1650388369.262089,57.000000,0.000000,4281.538574,4265.128418,4171.794922,4170.256348,4233.333496,0.000000,4.000000,91.000000,,,,0.000000,4.000000,4.000000,4.000000,4.000000,4.000000,100.000000,,,,,,,,,,,,,,,,,,,,,,,,,,,,,,,,,,,,,,,3.624160,3.906105,1.415403,3.287958,2.345473,3.149343,0.955181,1.122247,2.269706,1.207307,2.557093,3.995147,0.963774,1.884400,1.593728,4.258009,7.112777,1.033645,2.314366,1.703777,3.468621,4.484240,0.989517,2.736164,2.634124
1650388369.252409,1650388369.270006,58.000000,0.000000,4264.615234,4273.846191,4178.974121,4172.307617,4222.563965,0.000000,4.000000,91.000000,,,,0.000000,4.000000,4.000000,4.000000,4.000000,4.000000,100.000000,,,,,,,,,,,,,,,,,,,,,,,,,,,,,,,,,,,,,,,,,,,,,,,,,,,,,,,,,,,,,,,
1650388369.260224,1650388369.277823,59.000000,0.000000,4269.230957,4270.256348,4180.000000,4167.692383,4229.230957,0.000000,4.000000,91.000000,,,,0.000000,4.000000,4.000000,4.000000,4.000000,4.000000,100.000000,,,,,,,,,,,,,,,,,,,,,,,,,,,,,,,,,,,,,,,,,,,,,,,,,,,,,,,,,,,,,,,
1650388369.268039,1650388369.285741,60.000000,0.000000,4287.692383,4265.641113,4171.282227,4163.589844,4236.922852,0.000000,4.000000,91.000000,,,,0.000000,4.000000,4.000000,4.000000,4.000000,4.000000,100.000000,,,,,,,,,,,,,,,,,,,,,,,,,,,,,,,,,,,,,,,,,,,,,,,,,,,,,,,,,,,,,,,
1650388369.275854,1650388369.293558,61.000000,0.000000,4284.102539,4268.717773,4175.384766,4162.051270,4233.333496,0.000000,4.000000,91.000000,,,,0.000000,4.000000,4.000000,4.000000,4.000000,4.000000,100.000000,,,,,,,,,,,,,,,,,,,,,,,,,,,,,,,,,,,,,,,,,,,,,,,,,,,,,,,,,,,,,,,
1650388369.283668,1650388369.301475,62.000000,0.000000,4284.102539,4273.846191,4187.179688,4164.102539,4232.820313,0.000000,4.000000,91.000000,,,,0.000000,4.000000,4.000000,4.000000,4.000000,4.000000,100.000000,,,,,,,,,,,,,,,,,,,,,,,,,,,,,,,,,,,,,,,,,,,,,,,,,,,,,,,,,,,,,,,
1650388369.291483,1650388369.309292,63.000000,0.000000,4295.897461,4266.153809,4176.922852,4149.230957,4233.846191,0.000000,4.000000,91.000000,,,,0.000000,4.000000,4.000000,4.000000,4.000000,4.000000,100.000000,,,,,,,,,,,,,,,,,,,,,,,,,,,,,,,,,,,,,,,,,,,,,,,,,,,,,,,,,,,,,,,
1650388369.299298,1650388369.317209,64.000000,0.000000,4287.692383,4250.769043,4166.153809,4130.769043,4230.769043,450.000000,4.000000,91.000000,,,,0.000000,4.000000,4.000000,4.000000,4.000000,4.000000,100.000000,,,,,,,,,,,,,,,,,,,,,,,,,,,,,,,,,,,,,,,,,,,,,,,,,,,,,,,,,,,,,,,
1650388369.307113,1650388369.325026,65.000000,0.000000,4268.717773,4256.410156,4178.461426,4140.512695,4223.589844,450.000000,4.000000,91.000000,,,,0.000000,4.000000,4.000000,4.000000,4.000000,4.000000,100.000000,,,,,,,,,,,,,,,,,,,,,,,,,,,,,,,,,,,,,,,,,,,,,,,,,,,,,,,,,,,,,,,
1650388369.314928,1650388369.332943,66.000000,0.000000,4253.333496,4279.487305,4181.538574,4154.871582,4205.641113,16194.000000,4.000000,91.000000,,,,0.000000,4.000000,4.000000,4.000000,4.000000,4.000000,100.000000,,,,,,,,,,,,,,,,,,,,,,,,,,,,,,,,,,,,,,,,,,,,,,,,,,,,,,,,,,,,,,,
1650388369.322742,1650388369.340760,67.000000,0.000000,4261.025879,4283.589844,4168.717773,4152.307617,4198.461426,450.000000,4.000000,91.000000,,,,0.000000,4.000000,4.000000,4.000000,4.000000,4.000000,100.000000,,,,,,,,,,,,,,,,,,,,,,,,,,,,,,,,,,,,,,,,,,,,,,,,,,,,,,,,,,,,,,,
1650388369.330557,1650388369.348677,68.000000,0.000000,4291.794922,4268.205078,4163.589844,4148.205078,4222.051270,16190.000000,4.000000,91.000000,,,,0.000000,4.000000,4.000000,4.000000,4.000000,4.000000,100.000000,,,,,,,,,,,,,,,,,,,,,,,,,,,,,,,,,,,,,,,,,,,,,,,,,,,,,,,,,,,,,,,
1650388369.338372,1650388369.356494,69.000000,0.000000,4326.153809,4280.512695,4176.922852,4158.461426,4266.153809,450.000000,4.000000,91.000000,,,,0.000000,4.000000,4.000000,4.000000,4.000000,4.000000,100.000000,,,,,,,,,,,,,,,,,,,,,,,,,,,,,,,,,,,,,,,,,,,,,,,,,,,,,,,,,,,,,,,
1650388369.346187,1650388369.364410,70.000000,0.000000,4351.282227,4300.512695,4193.846191,4172.307617,4295.384766,16124.000000,4.000000,91.000000,,,,0.000000,4.000000,4.000000,4.000000,4.000000,4.000000,100.000000,,,,,,,,,,,,,,,,,,,,,,,,,,,,,,,,,,,,,,,,,,,,,,,,,,,,,,,,,,,,,,,
1650388369.354002,1650388369.372328,71.000000,0.000000,4350.769043,4283.589844,4187.179688,4164.615234,4285.128418,450.000000,4.000000,91.000000,,,,0.000000,4.000000,4.000000,4.000000,4.000000,4.000000,100.000000,,,,,,,,,,,,,,,,,,,,,,,,,,,,,,,,,,,,,,,,,,,,,,,,,,,,,,,,,,,,,,,
1650388369.361817,1650388369.380145,72.000000,0.000000,4340.512695,4278.461426,4175.897461,4154.358887,4275.384766,450.000000,4.000000,91.000000,,,,0.000000,4.000000,4.000000,4.000000,4.000000,4.000000,100.000000,,,,,,,,,,,,,,,,,,,,,,,,,,,,,,,,,,,,,,,,,,,,,,,,,,,,,,,,,,,,,,,
1650388369.369631,1650388369.388063,73.000000,0.000000,4329.230957,4282.563965,4172.307617,4149.743652,4276.410156,16173.000000,4.000000,91.000000,,,,0.000000,4.000000,4.000000,4.000000,4.000000,4.000000,100.000000,,,,,,,,,,,,,,,,,,,,,,,,,,,,,,,,,,,,,,,3.351674,3.307800,1.659758,3.536829,2.345884,2.810812,0.777525,1.154295,2.384222,1.152088,2.297669,3.324269,0.867106,1.912024,1.521324,4.614949,6.966448,1.157319,2.583831,1.637709,3.528536,3.780013,0.902072,2.922988,2.386735
1650388369.377446,1650388369.395880,74.000000,0.000000,4316.922852,4255.384766,4164.102539,4130.769043,4257.436035,450.000000,4.000000,91.000000,,,,0.000000,4.000000,4.000000,4.000000,4.000000,4.000000,100.000000,,,,,,,,,,,,,,,,,,,,,,,,,,,,,,,,,,,,,,,,,,,,,,,,,,,,,,,,,,,,,,,
1650388369.385261,1650388369.403798,75.000000,0.000000,4315.384766,4243.589844,4161.538574,4125.128418,4246.153809,16201.000000,4.000000,91.000000,,,,0.000000,4.000000,4.000000,4.000000,4.000000,4.000000,100.000000,,,,,,,,,,,,,,,,,,,,,,,,,,,,,,,,,,,,,,,,,,,,,,,,,,,,,,,,,,,,,,,
1650388369.393076,1650388369.411615,76.000000,0.000000,4324.102539,4272.307617,4179.487305,4160.000000,4274.358887,450.000000,4.000000,91.000000,,,,0.000000,4.000000,4.000000,4.000000,4.000000,4.000000,100.000000,,,,,,,,,,,,,,,,,,,,,,,,,,,,,,,,,,,,,,,,,,,,,,,,,,,,,,,,,,,,,,,
1650388369.400890,1650388369.419532,77.000000,0.000000,4330.769043,4289.230957,4202.563965,4178.461426,4298.974121,450.000000,4.000000,91.000000,,,,0.000000,4.000000,4.000000,4.000000,4.000000,4.000000,100.000000,,,,,,,,,,,,,,,,,,,,,,,,,,,,,,,,,,,,,,,,,,,,,,,,,,,,,,,,,,,,,,,
1650388369.408705,1650388369.427350,78.000000,0.000000,4327.692383,4280.512695,4202.051270,4148.205078,4291.282227,450.000000,4.000000,91.000000,,,,0.000000,4.000000,4.000000,4.000000,4.000000,4.000000,100.000000,,,,,,,,,,,,,,,,,,,,,,,,,,,,,,,,,,,,,,,,,,,,,,,,,,,,,,,,,,,,,,,
1650388369.416520,1650388369.435267,79.000000,0.000000,4318.461426,4265.641113,4190.769043,4129.230957,4268.717773,16201.000000,4.000000,91.000000,,,,0.000000,4.000000,4.000000,4.000000,4.000000,4.000000,100.000000,,,,,,,,,,,,,,,,,,,,,,,,,,,,,,,,,,,,,,,,,,,,,,,,,,,,,,,,,,,,,,,
1650388369.424335,1650388369.443084,80.000000,0.000000,4311.282227,4252.820313,4198.461426,4143.589844,4250.769043,450.000000,4.000000,91.000000,,,,0.000000,4.000000,4.000000,4.000000,4.000000,4.000000,100.000000,,,,,,,,,,,,,,,,,,,,,,,,,,,,,,,,,,,,,,,,,,,,,,,,,,,,,,,,,,,,,,,
1650388369.432150,1650388369.451001,81.000000,0.000000,4312.307617,4265.641113,4213.846191,4156.922852,4262.051270,450.000000,4.000000,91.000000,,,,0.000000,4.000000,4.000000,4.000000,4.000000,4.000000,100.000000,,,,,,,,,,,,,,,,,,,,,,,,,,,,,,,,,,,,,,,,,,,,,,,,,,,,,,,,,,,,,,,
1650388369.439965,1650388369.458818,82.000000,0.000000,4302.563965,4282.563965,4195.384766,4151.282227,4272.307617,450.000000,4.000000,91.000000,,,,0.000000,4.000000,4.000000,4.000000,4.000000,4.000000,100.000000,,,,,,,,,,,,,,,,,,,,,,,,,,,,,,,,,,,,,,,,,,,,,,,,,,,,,,,,,,,,,,,
1650388369.447779,1650388369.466736,83.000000,0.000000,4285.641113,4268.205078,4162.051270,4134.358887,4253.333496,16201.000000,4.000000,91.000000,,,,0.000000,4.000000,4.000000,4.000000,4.000000,4.000000,100.000000,,,,,,,,,,,,,,,,,,,,,,,,,,,,,,,,,,,,,,,,,,,,,,,,,,,,,,,,,,,,,,,
1650388369.455594,1650388369.474553,84.000000,0.000000,4306.153809,4269.743652,4169.230957,4137.436035,4249.743652,450.000000,4.000000,91.000000,,,,0.000000,4.000000,4.000000,4.000000,4.000000,4.000000,100.000000,,,,,,,,,,,,,,,,,,,,,,,,,,,,,,,,,,,,,,,,,,,,,,,,,,,,,,,,,,,,,,,
1650388369.463409,1650388369.482470,85.000000,0.000000,4317.436035,4286.666504,4184.102539,4157.436035,4263.589844,450.000000,4.000000,91.000000,,,,0.000000,4.000000,4.000000,4.000000,4.000000,4.000000,100.000000,,,,,,,,,,,,,,,,,,,,,,,,,,,,,,,,,,,,,,,,,,,,,,,,,,,,,,,,,,,,,,,
1650388369.471224,1650388369.490287,86.000000,0.000000,4295.384766,4269.743652,4175.897461,4158.461426,4268.205078,450.000000,4.000000,91.000000,,,,0.000000,4.000000,4.000000,4.000000,4.000000,4.000000,100.000000,,,,,,,,,,,,,,,,,,,,,,,,,,,,,,,,,,,,,,,,,,,,,,,,,,,,,,,,,,,,,,,
1650388369.479039,1650388369.498204,87.000000,0.000000,4307.692383,4262.051270,4179.487305,4150.256348,4287.179688,16201.000000,4.000000,91.000000,,,,0.000000,4.000000,4.000000,4.000000,4.000000,4.000000,100.000000,,,,,,,,,,,,,,,,,,,,,,,,,,,,,,,,,,,,,,,,,,,,,,,,,,,,,,,,,,,,,,,
1650388369.486853,1650388369.506021,88.000000,0.000000,4344.102539,4290.256348,4197.436035,4154.358887,4296.922852,450.000000,4.000000,91.000000,,,,0.000000,4.000000,4.000000,4.000000,4.000000,4.000000,100.000000,,,,,,,,,,,,,,,,,,,,,,,,,,,,,,,,,,,,,,,,,,,,,,,,,,,,,,,,,,,,,,,
1650388369.494668,1650388369.513938,89.000000,0.000000,4335.897461,4298.974121,4189.230957,4144.102539,4258.461426,450.000000,4.000000,91.000000,,,,0.000000,4.000000,4.000000,4.000000,4.000000,4.000000,100.000000,1.000000,100.000000,4.000000,4.000000,4.000000,4.000000,4.000000,,,,,,,,,,,,,,,,,,,,,,,,,,,,,,,,3.333615,3.247097,2.025123,3.591441,2.436155,2.434059,0.696326,1.224167,2.357260,1.153954,1.988074,2.611271,0.886369,1.942915,1.498837,4.904917,6.511336,1.468184,2.813234,1.687925,3.620330,3.607869,0.969774,3.046674,2.217479
1650388369.502483,1650388369.521755,90.000000,0.000000,4297.436035,4277.436035,4169.230957,4123.589844,4234.358887,450.000000,4.000000,91.000000,,,,0.000000,4.000000,4.000000,4.000000,4.000000,4.000000,100.000000,,,,,,,,,,,,,,,,,,,,,,,,,,,,,,,,,,,,,,,,,,,,,,,,,,,,,,,,,,,,,,,
1650388369.510298,1650388369.529672,91.000000,0.000000,4280.000000,4270.256348,4169.230957,4127.179688,4248.717773,16201.000000,4.000000,91.000000,,,,0.000000,4.000000,4.000000,4.000000,4.000000,4.000000,100.000000,,,,,,,,,,,,,,,,,,,,,,,,,,,,,,,,,,,,,,,,,,,,,,,,,,,,,,,,,,,,,,,
1650388369.518113,1650388369.537489,92.000000,0.000000,4288.717773,4268.205078,4175.897461,4140.512695,4247.179688,450.000000,4.000000,91.000000,,,,0.000000,4.000000,4.000000,4.000000,4.000000,4.000000,100.000000,,,,,,,,,,,,,,,,,,,,,,,,,,,,,,,,,,,,,,,,,,,,,,,,,,,,,,,,,,,,,,,
1650388369.525927,1650388369.545406,93.000000,0.000000,4300.000000,4260.512695,4183.077148,4146.153809,4241.538574,450.000000,4.000000,91.000000,,,,0.000000,4.000000,4.000000,4.000000,4.000000,4.000000,100.000000,,,,,,,,,,,,,,,,,,,,,,,,,,,,,,,,,,,,,,,,,,,,,,,,,,,,,,,,,,,,,,,
1650388369.533742,1650388369.553223,94.000000,0.000000,4303.589844,4264.102539,4195.897461,4153.846191,4253.333496,450.000000,4.000000,91.000000,,,,0.000000,4.000000,4.000000,4.000000,4.000000,4.000000,100.000000,,,,,,,,,,,,,,,,,,,,,,,,,,,,,,,,,,,,,,,,,,,,,,,,,,,,,,,,,,,,,,,
1650388369.541557,1650388369.561139,95.000000,0.000000,4306.666504,4272.820313,4195.384766,4154.358887,4253.846191,16201.000000,4.000000,91.000000,,,,0.000000,4.000000,4.000000,4.000000,4.000000,4.000000,100.000000,,,,,,,,,,,,,,,,,,,,,,,,,,,,,,,,,,,,,,,,,,,,,,,,,,,,,,,,,,,,,,,
1650388369.549372,1650388369.569057,96.000000,0.000000,4306.153809,4274.871582,4175.897461,4143.589844,4244.615234,450.000000,4.000000,91.000000,,,,0.000000,4.000000,4.000000,4.000000,4.000000,4.000000,100.000000,,,,,,,,,,,,,,,,,,,,,,,,,,,,,,,,,,,,,,,,,,,,,,,,,,,,,,,,,,,,,,,
1650388369.557187,1650388369.576874,97.000000,0.000000,4287.692383,4275.897461,4167.179688,4133.846191,4245.641113,450.000000,4.000000,91.000000,,,,0.000000,4.000000,4.000000,4.000000,4.000000,4.000000,100.000000,,,,,,,,,,,,,,,,,,,,,,,,,,,,,,,,,,,,,,,,,,,,,,,,,,,,,,,,,,,,,,,
1650388369.565002,1650388369.584792,98.000000,0.000000,4306.153809,4287.692383,4183.077148,4139.487305,4266.153809,450.000000,4.000000,91.000000,,,,0.000000,4.000000,4.000000,4.000000,4.000000,4.000000,100.000000,,,,,,,,,,,,,,,,,,,,,,,,,,,,,,,,,,,,,,,,,,,,,,,,,,,,,,,,,,,,,,,
1650388369.572816,1650388369.592609,99.000000,0.000000,4364.615234,4309.230957,4201.538574,4164.102539,4299.487305,16201.000000,4.000000,91.000000,,,,0.000000,4.000000,4.000000,4.000000,4.000000,4.000000,100.000000,,,,,,,,,,,,,,,,,,,,,,,,,,,,,,,,,,,,,,,,,,,,,,,,,,,,,,,,,,,,,,,
1650388369.580631,1650388369.600527,100.000000,0.000000,4375.897461,4309.743652,4198.974121,4166.666504,4315.897461,450.000000,4.000000,91.000000,,,,0.000000,4.000000,4.000000,4.000000,4.000000,4.000000,100.000000,,,,,,,,,,,,,,,,,,,,,,,,,,,,,,,,,,,,,,,,,,,,,,,,,,,,,,,,,,,,,,,
1650388369.588446,1650388369.608344,101.000000,0.000000,4341.538574,4292.820313,4187.179688,4144.615234,4305.128418,450.000000,4.000000,91.000000,,,,0.000000,4.000000,4.000000,4.000000,4.000000,4.000000,100.000000,,,,,,,,,,,,,,,,,,,,,,,,,,,,,,,,,,,,,,,,,,,,,,,,,,,,,,,,,,,,,,,
1650388369.596261,1650388369.616261,102.000000,0.000000,4313.333496,4276.922852,4170.769043,4133.846191,4279.487305,450.000000,4.000000,91.000000,,,,0.000000,4.000000,4.000000,4.000000,4.000000,4.000000,100.000000,,,,,,,,,,,,,,,,,,,,,,,,,,,,,,,,,,,,,,,,,,,,,,,,,,,,,,,,,,,,,,,
1650388369.604076,1650388369.624079,103.000000,0.000000,4304.102539,4267.692383,4156.922852,4123.077148,4254.871582,16201.000000,4.000000,91.000000,,,,0.000000,4.000000,4.000000,4.000000,4.000000,4.000000,100.000000,,,,,,,,,,,,,,,,,,,,,,,,,,,,,,,,,,,,,,,,,,,,,,,,,,,,,,,,,,,,,,,
1650388369.611890,1650388369.631996,104.000000,0.000000,4297.436035,4264.102539,4160.000000,4106.153809,4243.589844,450.000000,4.000000,91.000000,,,,0.000000,4.000000,4.000000,4.000000,4.000000,4.000000,100.000000,,,,,,,,,,,,,,,,,,,,,,,,,,,,,,,,,,,,,,,,,,,,,,,,,,,,,,,,,,,,,,,
1650388369.619705,1650388369.639813,105.000000,0.000000,4271.282227,4257.436035,4158.461426,4103.077148,4232.820313,450.000000,4.000000,91.000000,,,,0.000000,4.000000,4.000000,4.000000,4.000000,4.000000,100.000000,,,,,,,,,,,,,,,,,,,,,,,,,,,,,,,,,,,,,,,3.720490,3.582982,2.498680,3.435133,2.586370,2.138049,0.641476,1.349889,2.179783,1.221736,1.709886,1.973422,1.056256,1.959193,1.555601,5.014734,5.651809,1.940960,2.923739,1.861176,3.748587,3.855458,1.188261,3.095008,2.191487
1650388369.627520,1650388369.647730,106.000000,0.000000,4257.436035,4249.743652,4164.102539,4119.487305,4221.025879,450.000000,4.000000,91.000000,,,,0.000000,4.000000,4.000000,4.000000,4.000000,4.000000,100.000000,,,,,,,,,,,,,,,,,,,,,,,,,,,,,,,,,,,,,,,,,,,,,,,,,,,,,,,,,,,,,,,
1650388369.635335,1650388369.655547,107.000000,0.000000,4293.333496,4262.051270,4191.282227,4153.333496,4242.051270,16201.000000,4.000000,91.000000,,,,0.000000,4.000000,4.000000,4.000000,4.000000,4.000000,100.000000,,,,,,,,,,,,,,,,,,,,,,,,,,,,,,,,,,,,,,,,,,,,,,,,,,,,,,,,,,,,,,,
1650388369.643150,1650388369.663465,108.000000,0.000000,4319.487305,4275.384766,4192.820313,4175.384766,4272.820313,450.000000,4.000000,91.000000,,,,0.000000,4.000000,4.000000,4.000000,4.000000,4.000000,100.000000,,,,,,,,,,,,,,,,,,,,,,,,,,,,,,,,,,,,,,,,,,,,,,,,,,,,,,,,,,,,,,,
1650388369.650964,1650388369.671282,109.000000,0.000000,4288.205078,4254.871582,4163.589844,4160.512695,4253.333496,450.000000,4.000000,91.000000,,,,0.000000,4.000000,4.000000,4.000000,4.000000,4.000000,100.000000,,,,,,,,,,,,,,,,,,,,,,,,,,,,,,,,,,,,,,,,,,,,,,,,,,,,,,,,,,,,,,,
1650388369.658779,1650388369.679199,110.000000,0.000000,4284.615234,4249.230957,4172.307617,4156.922852,4244.102539,450.000000,4.000000,91.000000,,,,0.000000,4.000000,4.000000,4.000000,4.000000,4.000000,100.000000,,,,,,,,,,,,,,,,,,,,,,,,,,,,,,,,,,,,,,,,,,,,,,,,,,,,,,,,,,,,,,,
1650388369.666594,1650388369.687116,111.000000,0.000000,4314.358887,4281.025879,4194.871582,4178.461426,4272.820313,16201.000000,4.000000,91.000000,,,,0.000000,4.000000,4.000000,4.000000,4.000000,4.000000,100.000000,,,,,,,,,,,,,,,,,,,,,,,,,,,,,,,,,,,,,,,,,,,,,,,,,,,,,,,,,,,,,,,
1650388369.674409,1650388369.694934,112.000000,0.000000,4296.410156,4277.436035,4170.256348,4153.846191,4253.333496,450.000000,4.000000,91.000000,,,,0.000000,4.000000,4.000000,4.000000,4.000000,4.000000,100.000000,,,,,,,,,,,,,,,,,,,,,,,,,,,,,,,,,,,,,,,,,,,,,,,,,,,,,,,,,,,,,,,
1650388369.682224,1650388369.702752,113.000000,0.000000,4275.897461,4251.282227,4161.025879,4120.000000,4223.589844,450.000000,4.000000,91.000000,,,,0.000000,4.000000,4.000000,4.000000,4.000000,4.000000,100.000000,,,,,,,,,,,,,,,,,,,,,,,,,,,,,,,,,,,,,,,,,,,,,,,,,,,,,,,,,,,,,,,
1650388369.690039,1650388369.710669,114.000000,0.000000,4298.974121,4270.769043,4197.948730,4151.794922,4256.410156,450.000000,4.000000,91.000000,,,,0.000000,4.000000,4.000000,4.000000,4.000000,4.000000,100.000000,,,,,,,,,,,,,,,,,,,,,,,,,,,,,,,,,,,,,,,,,,,,,,,,,,,,,,,,,,,,,,,
1650388369.697853,1650388369.718486,115.000000,0.000000,4306.666504,4290.769043,4198.974121,4173.846191,4272.820313,16201.000000,4.000000,91.000000,,,,0.000000,4.000000,4.000000,4.000000,4.000000,4.000000,100.000000,,,,,,,,,,,,,,,,,,,,,,,,,,,,,,,,,,,,,,,,,,,,,,,,,,,,,,,,,,,,,,,
1650388369.705668,1650388369.726403,116.000000,0.000000,4291.794922,4273.333496,4172.820313,4140.512695,4243.077148,450.000000,4.000000,91.000000,,,,0.000000,4.000000,4.000000,4.000000,4.000000,4.000000,100.000000,,,,,,,,,,,,,,,,,,,,,,,,,,,,,,,,,,,,,,,,,,,,,,,,,,,,,,,,,,,,,,,
1650388369.713483,1650388369.734320,117.000000,0.000000,4301.538574,4267.179688,4189.743652,4132.820313,4247.692383,450.000000,4.000000,91.000000,,,,0.000000,4.000000,4.000000,4.000000,4.000000,4.000000,100.000000,,,,,,,,,,,,,,,,,,,,,,,,,,,,,,,,,,,,,,,,,,,,,,,,,,,,,,,,,,,,,,,
1650388369.721298,1650388369.742137,118.000000,0.000000,4307.692383,4273.333496,4207.179688,4155.384766,4272.307617,450.000000,4.000000,91.000000,,,,0.000000,4.000000,4.000000,4.000000,4.000000,4.000000,100.000000,,,,,,,,,,,,,,,,,,,,,,,,,,,,,,,,,,,,,,,,,,,,,,,,,,,,,,,,,,,,,,,
1650388369.729113,1650388369.750055,119.000000,0.000000,4297.436035,4266.153809,4185.128418,4147.179688,4266.666504,16201.000000,4.000000,91.000000,,,,0.000000,4.000000,4.000000,4.000000,4.000000,4.000000,100.000000,,,,,,,,,,,,,,,,,,,,,,,,,,,,,,,,,,,,,,,,,,,,,,,,,,,,,,,,,,,,,,,
1650388369.736927,1650388369.757872,120.000000,0.000000,4299.487305,4264.615234,4178.461426,4134.358887,4262.563965,450.000000,4.000000,91.000000,,,,0.000000,4.000000,4.000000,4.000000,4.000000,4.000000,100.000000,,,,,,,,,,,,,,,,,,,,,,,,,,,,,,,,,,,,,,,,,,,,,,,,,,,,,,,,,,,,,,,
1650388369.744742,1650388369.765790,121.000000,0.000000,4294.871582,4269.230957,4176.922852,4141.538574,4260.512695,450.000000,4.000000,91.000000,,,,0.000000,4.000000,4.000000,4.000000,4.000000,4.000000,100.000000,,,,,,,,,,,,,,,,,,,,,,,,,,,,,,,,,,,,,,,4.514800,4.100142,3.127693,3.163761,2.735374,1.963045,0.580462,1.540593,1.897701,1.339839,1.521152,1.520255,1.408167,1.938369,1.681306,4.864767,4.511534,2.521801,2.864216,2.111201,3.890190,4.328165,1.603627,3.125192,2.307872
1650388369.752557,1650388369.773607,122.000000,0.000000,4283.077148,4262.051270,4160.000000,4137.436035,4253.333496,450.000000,4.000000,91.000000,,,,0.000000,4.000000,4.000000,4.000000,4.000000,4.000000,100.000000,,,,,,,,,,,,,,,,,,,,,,,,,,,,,,,,,,,,,,,,,,,,,,,,,,,,,,,,,,,,,,,
1650388369.760372,1650388369.781525,123.000000,0.000000,4293.846191,4271.282227,4177.948730,4139.487305,4273.333496,16201.000000,4.000000,91.000000,,,,0.000000,4.000000,4.000000,4.000000,4.000000,4.000000,100.000000,,,,,,,,,,,,,,,,,,,,,,,,,,,,,,,,,,,,,,,,,,,,,,,,,,,,,,,,,,,,,,,
1650388369.768187,1650388369.789342,124.000000,0.000000,4303.077148,4281.538574,4195.897461,4147.692383,4282.051270,450.000000,4.000000,91.000000,,,,0.000000,4.000000,4.000000,4.000000,4.000000,4.000000,100.000000,,,,,,,,,,,,,,,,,,,,,,,,,,,,,,,,,,,,,,,,,,,,,,,,,,,,,,,,,,,,,,,
1650388369.776002,1650388369.797259,125.000000,0.000000,4288.205078,4263.077148,4175.384766,4123.077148,4246.666504,450.000000,4.000000,91.000000,,,,0.000000,4.000000,4.000000,4.000000,4.000000,4.000000,100.000000,,,,,,,,,,,,,,,,,,,,,,,,,,,,,,,,,,,,,,,,,,,,,,,,,,,,,,,,,,,,,,,
1650388369.783816,1650388369.805077,126.000000,0.000000,4294.871582,4265.128418,4193.846191,4120.512695,4247.692383,450.000000,4.000000,91.000000,,,,0.000000,4.000000,4.000000,4.000000,4.000000,4.000000,100.000000,,,,,,,,,,,,,,,,,,,,,,,,,,,,,,,,,,,,,,,,,,,,,,,,,,,,,,,,,,,,,,,
1650388369.791631,1650388369.812894,127.000000,0.000000,4304.615234,4284.102539,4224.615234,4152.820313,4282.563965,242.000000,4.000000,91.000000,,,,0.000000,4.000000,4.000000,4.000000,4.000000,4.000000,100.000000,,,,,,,,,,,,,,,,,,,,,,,,,,,,,,,,,,,,,,,,,,,,,,,,,,,,,,,,,,,,,,,
1650388369.799446,1650388369.820810,0.000000,0.000000,4286.666504,4269.743652,4199.487305,4148.717773,4276.410156,450.000000,4.000000,91.000000,,,,0.000000,4.000000,4.000000,4.000000,4.000000,4.000000,100.000000,,,,,,,,,,,,,,,,,,,,,,,,,,,,,,,,,,,,,,,,,,,,,,,,,,,,,,,,,,,,,,,
1650388369.807261,1650388369.828627,1.000000,0.000000,4282.563965,4256.410156,4185.128418,4127.179688,4250.769043,450.000000,4.000000,91.000000,,,,0.000000,4.000000,4.000000,4.000000,4.000000,4.000000,100.000000,,,,,,,,,,,,,,,,,,,,,,,,,,,,,,,,,,,,,,,,,,,,,,,,,,,,,,,,,,,,,,,
1650388369.815076,1650388369.836543,2.000000,0.000000,4300.000000,4271.282227,4210.256348,4134.358887,4252.820313,16217.000000,4.000000,91.000000,,,,0.000000,4.000000,4.000000,4.000000,4.000000,4.000000,100.000000,,,,,,,,,,,,,,,,,,,,,,,,,,,,,,,,,,,,,,,,,,,,,,,,,,,,,,,,,,,,,,,
1650388369.822890,1650388369.844460,3.000000,0.000000,4293.333496,4266.153809,4201.538574,4130.769043,4255.897461,450.000000,4.000000,91.000000,,,,0.000000,4.000000,4.000000,4.000000,4.000000,4.000000,100.000000,,,,,,,,,,,,,,,,,,,,,,,,,,,,,,,,,,,,,,,,,,,,,,,,,,,,,,,,,,,,,,,
1650388369.830705,1650388369.852277,4.000000,0.000000,4276.922852,4248.205078,4176.922852,4103.077148,4255.384766,16210.000000,4.000000,91.000000,,,,0.000000,4.000000,4.000000,4.000000,4.000000,4.000000,100.000000,,,,,,,,,,,,,,,,,,,,,,,,,,,,,,,,,,,,,,,,,,,,,,,,,,,,,,,,,,,,,,,
1650388369.838520,1650388369.860194,5.000000,0.000000,4288.717773,4257.948730,4185.641113,4103.077148,4264.615234,450.000000,4.000000,91.000000,,,,0.000000,4.000000,4.000000,4.000000,4.000000,4.000000,100.000000,,,,,,,,,,,,,,,,,,,,,,,,,,,,,,,,,,,,,,,,,,,,,,,,,,,,,,,,,,,,,,,
1650388369.846335,1650388369.868012,6.000000,0.000000,4302.563965,4270.769043,4189.743652,4122.051270,4265.641113,16140.000000,4.000000,91.000000,,,,0.000000,4.000000,4.000000,4.000000,4.000000,4.000000,100.000000,,,,,,,,,,,,,,,,,,,,,,,,,,,,,,,,,,,,,,,,,,,,,,,,,,,,,,,,,,,,,,,
1650388369.854149,1650388369.875929,7.000000,0.000000,4299.487305,4263.589844,4177.948730,4124.615234,4266.153809,450.000000,4.000000,91.000000,,,,0.000000,4.000000,4.000000,4.000000,4.000000,4.000000,100.000000,,,,,,,,,,,,,,,,,,,,,,,,,,,,,,,,,,,,,,,,,,,,,,,,,,,,,,,,,,,,,,,
1650388369.861964,1650388369.883746,8.000000,0.000000,4288.717773,4245.641113,4174.358887,4116.410156,4265.128418,450.000000,4.000000,91.000000,,,,0.000000,4.000000,4.000000,4.000000,4.000000,4.000000,100.000000,,,,,,,,,,,,,,,,,,,,,,,,,,,,,,,,,,,,,,,,,,,,,,,,,,,,,,,,,,,,,,,
1650388369.869779,1650388369.891663,9.000000,0.000000,4286.153809,4247.179688,4178.461426,4116.410156,4262.563965,16191.000000,4.000000,91.000000,,,,0.000000,4.000000,4.000000,4.000000,4.000000,4.000000,100.000000,,,,,,,,,,,,,,,,,,,,,,,,,,,,,,,,,,,,,,,5.600100,4.713462,3.944665,2.923391,2.805873,1.899872,0.554699,1.778859,1.587504,1.466790,1.435768,1.276105,1.901499,1.874014,1.820006,4.379492,3.374709,3.121243,2.651914,2.343755,4.077199,4.927983,2.247737,3.226058,2.483170
1650388369.877594,1650388369.899580,10.000000,0.000000,4314.871582,4274.358887,4193.846191,4133.333496,4278.461426,450.000000,4.000000,91.000000,,,,0.000000,4.000000,4.000000,4.000000,4.000000,4.000000,100.000000,,,,,,,,,,,,,,,,,,,,,,,,,,,,,,,,,,,,,,,,,,,,,,,,,,,,,,,,,,,,,,,
1650388369.885409,1650388369.907398,11.000000,0.000000,4320.000000,4275.897461,4196.410156,4123.589844,4276.922852,16186.000000,4.000000,91.000000,,,,0.000000,4.000000,4.000000,4.000000,4.000000,4.000000,100.000000,,,,,,,,,,,,,,,,,,,,,,,,,,,,,,,,,,,,,,,,,,,,,,,,,,,,,,,,,,,,,,,
1650388369.893224,1650388369.915316,12.000000,0.000000,4279.487305,4252.820313,4186.666504,4100.000000,4251.282227,450.000000,4.000000,91.000000,,,,0.000000,4.000000,4.000000,4.000000,4.000000,4.000000,100.000000,,,,,,,,,,,,,,,,,,,,,,,,,,,,,,,,,,,,,,,,,,,,,,,,,,,,,,,,,,,,,,,
1650388369.901039,1650388369.923133,13.000000,0.000000,4277.436035,4265.128418,4212.307617,4127.179688,4253.846191,450.000000,4.000000,91.000000,,,,0.000000,4.000000,4.000000,4.000000,4.000000,4.000000,100.000000,,,,,,,,,,,,,,,,,,,,,,,,,,,,,,,,,,,,,,,,,,,,,,,,,,,,,,,,,,,,,,,
1650388369.908853,1650388369.931051,14.000000,0.000000,4313.846191,4295.384766,4246.153809,4169.230957,4282.051270,450.000000,4.000000,91.000000,,,,0.000000,4.000000,4.000000,4.000000,4.000000,4.000000,100.000000,,,,,,,,,,,,,,,,,,,,,,,,,,,,,,,,,,,,,,,,,,,,,,,,,,,,,,,,,,,,,,,
1650388369.916668,1650388369.938868,15.000000,0.000000,4302.563965,4275.384766,4225.128418,4154.358887,4267.179688,16186.000000,4.000000,91.000000,,,,0.000000,4.000000,4.000000,4.000000,4.000000,4.000000,100.000000,,,,,,,,,,,,,,,,,,,,,,,,,,,,,,,,,,,,,,,,,,,,,,,,,,,,,,,,,,,,,,,
1650388369.924483,1650388369.946786,16.000000,0.000000,4277.436035,4243.077148,4196.922852,4127.179688,4247.179688,0.000000,4.000000,91.000000,,,,0.000000,4.000000,4.000000,4.000000,4.000000,4.000000,100.000000,,,,,,,,,,,,,,,,,,,,,,,,,,,,,,,,,,,,,,,,,,,,,,,,,,,,,,,,,,,,,,,
1650388369.932298,1650388369.954603,17.000000,0.000000,4301.025879,4264.102539,4208.205078,4138.974121,4272.307617,0.000000,4.000000,91.000000,,,,0.000000,4.000000,4.000000,4.000000,4.000000,4.000000,100.000000,,,,,,,,,,,,,,,,,,,,,,,,,,,,,,,,,,,,,,,,,,,,,,,,,,,,,,,,,,,,,,,
1650388369.940112,1650388369.962521,18.000000,0.000000,4314.871582,4279.487305,4204.102539,4142.051270,4277.948730,0.000000,4.000000,91.000000,,,,0.000000,4.000000,4.000000,4.000000,4.000000,4.000000,100.000000,,,,,,,,,,,,,,,,,,,,,,,,,,,,,,,,,,,,,,,,,,,,,,,,,,,,,,,,,,,,,,,
1650388369.947927,1650388369.970338,19.000000,0.000000,4295.384766,4253.333496,4182.563965,4129.743652,4261.025879,0.000000,4.000000,91.000000,,,,0.000000,4.000000,4.000000,4.000000,4.000000,4.000000,100.000000,,,,,,,,,,,,,,,,,,,,,,,,,,,,,,,,,,,,,,,,,,,,,,,,,,,,,,,,,,,,,,,
1650388369.955742,1650388369.978255,20.000000,0.000000,4289.743652,4248.717773,4187.692383,4128.205078,4258.461426,0.000000,4.000000,91.000000,,,,0.000000,4.000000,4.000000,4.000000,4.000000,4.000000,100.000000,,,,,,,,,,,,,,,,,,,,,,,,,,,,,,,,,,,,,,,,,,,,,,,,,,,,,,,,,,,,,,,
1650388369.963557,1650388369.986073,21.000000,0.000000,4302.051270,4271.282227,4209.743652,4133.333496,4264.102539,0.000000,4.000000,91.000000,,,,0.000000,4.000000,4.000000,4.000000,4.000000,4.000000,100.000000,,,,,,,,,,,,,,,,,,,,,,,,,,,,,,,,,,,,,,,,,,,,,,,,,,,,,,,,,,,,,,,
1650388369.971372,1650388369.993990,22.000000,0.000000,4312.307617,4278.461426,4214.358887,4144.615234,4278.974121,0.000000,4.000000,91.000000,,,,0.000000,4.000000,4.000000,4.000000,4.000000,4.000000,100.000000,,,,,,,,,,,,,,,,,,,,,,,,,,,,,,,,,,,,,,,,,,,,,,,,,,,,,,,,,,,,,,,
1650388369.979186,1650388370.001807,23.000000,0.000000,4288.717773,4258.461426,4187.692383,4121.025879,4271.282227,0.000000,4.000000,91.000000,,,,0.000000,4.000000,4.000000,4.000000,4.000000,4.000000,100.000000,,,,,,,,,,,,,,,,,,,,,,,,,,,,,,,,,,,,,,,,,,,,,,,,,,,,,,,,,,,,,,,
1650388369.987001,1650388370.009724,24.000000,0.000000,4260.000000,4249.230957,4177.948730,4088.205078,4243.589844,0.000000,4.000000,91.000000,,,,0.000000,4.000000,4.000000,4.000000,4.000000,4.000000,100.000000,,,,,,,,,,,,,,,,,,,,,,,,,,,,,,,,,,,,,,,,,,,,,,,,,,,,,,,,,,,,,,,
1650388369.994816,1650388370.017541,25.000000,0.000000,4272.307617,4270.769043,4209.230957,4119.487305,4257.436035,0.000000,4.000000,91.000000,,,,0.000000,4.000000,4.000000,4.000000,4.000000,4.000000,100.000000,1.000000,100.000000,4.000000,4.000000,4.000000,4.000000,4.000000,,,,,,,,,,,,,,,,,,,,,,,,,,,,,,,,6.758598,5.405551,4.915009,2.834238,2.755417,1.915042,0.657634,2.018123,1.327607,1.555982,1.419805,1.195531,2.428316,1.780442,1.906211,3.588267,2.529638,3.629803,2.359881,2.464516,4.343990,5.589691,3.106970,3.442108,2.604205
1650388370.002631,1650388370.025459,26.000000,0.000000,4292.307617,4281.025879,4230.769043,4163.589844,4289.230957,0.000000,4.000000,91.000000,,,,0.000000,4.000000,4.000000,4.000000,4.000000,4.000000,100.000000,,,,,,,,,,,,,,,,,,,,,,,,,,,,,,,,,,,,,,,,,,,,,,,,,,,,,,,,,,,,,,,
1650388370.010446,1650388370.033276,27.000000,0.000000,4284.615234,4265.641113,4223.589844,4157.948730,4284.102539,0.000000,4.000000,91.000000,,,,0.000000,4.000000,4.000000,4.000000,4.000000,4.000000,100.000000,,,,,,,,,,,,,,,,,,,,,,,,,,,,,,,,,,,,,,,,,,,,,,,,,,,,,,,,,,,,,,,
1650388370.018261,1650388370.041193,28.000000,0.000000,4270.769043,4252.820313,4221.538574,4145.641113,4271.282227,0.000000,4.000000,91.000000,,,,0.000000,4.000000,4.000000,4.000000,4.000000,4.000000,100.000000,,,,,,,,,,,,,,,,,,,,,,,,,,,,,,,,,,,,,,,,,,,,,,,,,,,,,,,,,,,,,,,
1650388370.026075,1650388370.049010,29.000000,0.000000,4257.436035,4246.666504,4226.666504,4142.051270,4262.051270,0.000000,4.000000,91.000000,,,,0.000000,4.000000,4.000000,4.000000,4.000000,4.000000,100.000000,,,,,,,,,,,,,,,,,,,,,,,,,,,,,,,,,,,,,,,,,,,,,,,,,,,,,,,,,,,,,,,
1650388370.033890,1650388370.056927,30.000000,0.000000,4242.051270,4227.179688,4212.820313,4118.461426,4252.307617,0.000000,4.000000,91.000000,,,,0.000000,4.000000,4.000000,4.000000,4.000000,4.000000,100.000000,,,,,,,,,,,,,,,,,,,,,,,,,,,,,,,,,,,,,,,,,,,,,,,,,,,,,,,,,,,,,,,
1650388370.041705,1650388370.064844,31.000000,0.000000,4266.666504,4223.589844,4209.230957,4114.358887,4278.974121,0.000000,4.000000,91.000000,,,,0.000000,4.000000,4.000000,4.000000,4.000000,4.000000,100.000000,,,,,,,,,,,,,,,,,,,,,,,,,,,,,,,,,,,,,,,,,,,,,,,,,,,,,,,,,,,,,,,
1650388370.049520,1650388370.072662,32.000000,0.000000,4304.102539,4242.051270,4225.641113,4139.487305,4311.282227,0.000000,4.000000,91.000000,,,,0.000000,4.000000,4.000000,4.000000,4.000000,4.000000,100.000000,,,,,,,,,,,,,,,,,,,,,,,,,,,,,,,,,,,,,,,,,,,,,,,,,,,,,,,,,,,,,,,
1650388370.057335,1650388370.080480,33.000000,0.000000,4280.512695,4239.487305,4219.487305,4130.256348,4276.922852,0.000000,4.000000,91.000000,,,,0.000000,4.000000,4.000000,4.000000,4.000000,4.000000,100.000000,,,,,,,,,,,,,,,,,,,,,,,,,,,,,,,,,,,,,,,,,,,,,,,,,,,,,,,,,,,,,,,
1650388370.065149,1650388370.088397,34.000000,0.000000,4238.461426,4233.333496,4196.922852,4103.589844,4225.128418,0.000000,4.000000,91.000000,,,,0.000000,4.000000,4.000000,4.000000,4.000000,4.000000,100.000000,,,,,,,,,,,,,,,,,,,,,,,,,,,,,,,,,,,,,,,,,,,,,,,,,,,,,,,,,,,,,,,
1650388370.072964,1650388370.096214,35.000000,0.000000,4244.615234,4244.615234,4198.461426,4105.128418,4239.487305,0.000000,4.000000,91.000000,,,,0.000000,4.000000,4.000000,4.000000,4.000000,4.000000,100.000000,,,,,,,,,,,,,,,,,,,,,,,,,,,,,,,,,,,,,,,,,,,,,,,,,,,,,,,,,,,,,,,
1650388370.080779,1650388370.104131,36.000000,0.000000,4280.000000,4258.461426,4223.077148,4122.563965,4284.615234,0.000000,4.000000,91.000000,,,,0.000000,4.000000,4.000000,4.000000,4.000000,4.000000,100.000000,,,,,,,,,,,,,,,,,,,,,,,,,,,,,,,,,,,,,,,,,,,,,,,,,,,,,,,,,,,,,,,
1650388370.088594,1650388370.111948,37.000000,0.000000,4287.179688,4253.333496,4234.871582,4121.025879,4282.051270,0.000000,4.000000,91.000000,,,,0.000000,4.000000,4.000000,4.000000,4.000000,4.000000,100.000000,,,,,,,,,,,,,,,,,,,,,,,,,,,,,,,,,,,,,,,,,,,,,,,,,,,,,,,,,,,,,,,
1650388370.096409,1650388370.119865,38.000000,0.000000,4262.051270,4236.410156,4227.692383,4103.589844,4251.282227,0.000000,4.000000,91.000000,,,,0.000000,4.000000,4.000000,4.000000,4.000000,4.000000,100.000000,,,,,,,,,,,,,,,,,,,,,,,,,,,,,,,,,,,,,,,,,,,,,,,,,,,,,,,,,,,,,,,
1650388370.104224,1650388370.127681,39.000000,0.000000,4238.461426,4222.051270,4213.333496,4093.333252,4240.512695,0.000000,4.000000,91.000000,,,,0.000000,4.000000,4.000000,4.000000,4.000000,4.000000,100.000000,,,,,,,,,,,,,,,,,,,,,,,,,,,,,,,,,,,,,,,,,,,,,,,,,,,,,,,,,,,,,,,
1650388370.112038,1650388370.135598,40.000000,0.000000,4225.641113,4208.717773,4199.487305,4086.666748,4227.179688,0.000000,4.000000,91.000000,,,,0.000000,4.000000,4.000000,4.000000,4.000000,4.000000,100.000000,,,,,,,,,,,,,,,,,,,,,,,,,,,,,,,,,,,,,,,,,,,,,,,,,,,,,,,,,,,,,,,
1650388370.119853,1650388370.143515,41.000000,0.000000,4227.179688,4213.333496,4190.769043,4090.256348,4220.000000,0.000000,4.000000,91.000000,,,,0.000000,4.000000,4.000000,4.000000,4.000000,4.000000,100.000000,,,,,,,,,,,,,,,,,,,,,,,,,,,,,,,,,,,,,,,7.699996,6.111290,5.877400,2.908247,2.599462,1.956263,0.955752,2.202983,1.153679,1.582101,1.432526,1.258512,2.867994,1.681887,1.906093,2.706432,2.151767,3.991735,2.091700,2.434546,4.685133,6.224428,4.057182,3.719892,2.596204
1650388370.127668,1650388370.151333,42.000000,0.000000,4235.384766,4232.307617,4186.666504,4099.487305,4234.358887,0.000000,4.000000,91.000000,,,,0.000000,4.000000,4.000000,4.000000,4.000000,4.000000,100.000000,,,,,,,,,,,,,,,,,,,,,,,,,,,,,,,,,,,,,,,,,,,,,,,,,,,,,,,,,,,,,,,
1650388370.135483,1650388370.159250,43.000000,0.000000,4225.641113,4229.230957,4177.948730,4086.153809,4230.769043,0.000000,4.000000,91.000000,,,,0.000000,4.000000,4.000000,4.000000,4.000000,4.000000,100.000000,,,,,,,,,,,,,,,,,,,,,,,,,,,,,,,,,,,,,,,,,,,,,,,,,,,,,,,,,,,,,,,
1650388370.143298,1650388370.167067,44.000000,0.000000,4228.205078,4226.153809,4182.563965,4085.128174,4224.102539,0.000000,4.000000,91.000000,,,,0.000000,4.000000,4.000000,4.000000,4.000000,4.000000,100.000000,,,,,,,,,,,,,,,,,,,,,,,,,,,,,,,,,,,,,,,,,,,,,,,,,,,,,,,,,,,,,,,
1650388370.151112,1650388370.174985,45.000000,0.000000,4277.948730,4261.025879,4216.410156,4141.538574,4259.487305,0.000000,4.000000,91.000000,,,,0.000000,4.000000,4.000000,4.000000,4.000000,4.000000,100.000000,,,,,,,,,,,,,,,,,,,,,,,,,,,,,,,,,,,,,,,,,,,,,,,,,,,,,,,,,,,,,,,
1650388370.158927,1650388370.182802,46.000000,0.000000,4306.153809,4284.615234,4230.256348,4181.538574,4291.794922,0.000000,4.000000,91.000000,,,,0.000000,4.000000,4.000000,4.000000,4.000000,4.000000,100.000000,,,,,,,,,,,,,,,,,,,,,,,,,,,,,,,,,,,,,,,,,,,,,,,,,,,,,,,,,,,,,,,
1650388370.166742,1650388370.190719,47.000000,0.000000,4263.077148,4248.717773,4201.025879,4146.666504,4263.589844,0.000000,4.000000,91.000000,,,,0.000000,4.000000,4.000000,4.000000,4.000000,4.000000,100.000000,,,,,,,,,,,,,,,,,,,,,,,,,,,,,,,,,,,,,,,,,,,,,,,,,,,,,,,,,,,,,,,
1650388370.174557,1650388370.198536,48.000000,0.000000,4236.410156,4220.000000,4188.205078,4115.897461,4238.461426,0.000000,4.000000,91.000000,,,,0.000000,4.000000,4.000000,4.000000,4.000000,4.000000,100.000000,,,,,,,,,,,,,,,,,,,,,,,,,,,,,,,,,,,,,,,,,,,,,,,,,,,,,,,,,,,,,,,
1650388370.182372,1650388370.206453,49.000000,0.000000,4258.974121,4238.974121,4198.974121,4122.563965,4250.769043,0.000000,4.000000,91.000000,,,,0.000000,4.000000,4.000000,4.000000,4.000000,4.000000,100.000000,,,,,,,,,,,,,,,,,,,,,,,,,,,,,,,,,,,,,,,,,,,,,,,,,,,,,,,,,,,,,,,
1650388370.190186,1650388370.214271,50.000000,0.000000,4265.641113,4251.282227,4192.820313,4124.615234,4254.358887,0.000000,4.000000,91.000000,,,,0.000000,4.000000,4.000000,4.000000,4.000000,4.000000,100.000000,,,,,,,,,,,,,,,,,,,,,,,,,,,,,,,,,,,,,,,,,,,,,,,,,,,,,,,,,,,,,,,
1650388370.198001,1650388370.222188,51.000000,0.000000,4257.436035,4250.256348,4185.128418,4132.820313,4248.717773,0.000000,4.000000,91.000000,,,,0.000000,4.000000,4.000000,4.000000,4.000000,4.000000,100.000000,,,,,,,,,,,,,,,,,,,,,,,,,,,,,,,,,,,,,,,,,,,,,,,,,,,,,,,,,,,,,,,
1650388370.205816,1650388370.230005,52.000000,0.000000,4250.769043,4244.615234,4185.641113,4138.974121,4236.410156,0.000000,4.000000,91.000000,,,,0.000000,4.000000,4.000000,4.000000,4.000000,4.000000,100.000000,,,,,,,,,,,,,,,,,,,,,,,,,,,,,,,,,,,,,,,,,,,,,,,,,,,,,,,,,,,,,,,
1650388370.213631,1650388370.237922,53.000000,0.000000,4228.205078,4228.205078,4180.000000,4119.487305,4214.871582,0.000000,4.000000,91.000000,,,,0.000000,4.000000,4.000000,4.000000,4.000000,4.000000,100.000000,,,,,,,,,,,,,,,,,,,,,,,,,,,,,,,,,,,,,,,,,,,,,,,,,,,,,,,,,,,,,,,
1650388370.221446,1650388370.245739,54.000000,0.000000,4230.769043,4237.436035,4190.256348,4117.436035,4226.666504,0.000000,4.000000,91.000000,,,,0.000000,4.000000,4.000000,4.000000,4.000000,4.000000,100.000000,,,,,,,,,,,,,,,,,,,,,,,,,,,,,,,,,,,,,,,,,,,,,,,,,,,,,,,,,,,,,,,
1650388370.229261,1650388370.253656,55.000000,0.000000,4264.615234,4264.615234,4202.563965,4137.948730,4255.897461,0.000000,4.000000,91.000000,,,,0.000000,4.000000,4.000000,4.000000,4.000000,4.000000,100.000000,,,,,,,,,,,,,,,,,,,,,,,,,,,,,,,,,,,,,,,,,,,,,,,,,,,,,,,,,,,,,,,
1650388370.237075,1650388370.261473,56.000000,0.000000,4269.743652,4261.025879,4196.922852,4143.589844,4262.051270,0.000000,4.000000,91.000000,,,,0.000000,4.000000,4.000000,4.000000,4.000000,4.000000,100.000000,,,,,,,,,,,,,,,,,,,,,,,,,,,,,,,,,,,,,,,,,,,,,,,,,,,,,,,,,,,,,,,
1650388370.244890,1650388370.269390,57.000000,0.000000,4242.051270,4243.589844,4190.769043,4131.282227,4246.153809,0.000000,4.000000,91.000000,,,,0.000000,4.000000,4.000000,4.000000,4.000000,4.000000,100.000000,,,,,,,,,,,,,,,,,,,,,,,,,,,,,,,,,,,,,,,8.122918,6.679050,6.586760,3.052889,2.410421,1.985674,1.442957,2.309362,1.061309,1.557935,1.486385,1.525006,3.129001,1.610501,1.839628,2.059847,2.253888,4.178140,1.954174,2.293689,4.949433,6.684774,4.889685,3.935837,2.468772
1650388370.252705,1650388370.277207,58.000000,0.000000,4223.589844,4253.846191,4184.102539,4120.000000,4225.128418,0.000000,4.000000,91.000000,,,,0.000000,4.000000,4.000000,4.000000,4.000000,4.000000,100.000000,,,,,,,,,,,,,,,,,,,,,,,,,,,,,,,,,,,,,,,,,,,,,,,,,,,,,,,,,,,,,,,
1650388370.260520,1650388370.285124,59.000000,0.000000,4236.410156,4265.128418,4180.512695,4126.153809,4230.769043,0.000000,4.000000,91.000000,,,,0.000000,4.000000,4.000000,4.000000,4.000000,4.000000,100.000000,,,,,,,,,,,,,,,,,,,,,,,,,,,,,,,,,,,,,,,,,,,,,,,,,,,,,,,,,,,,,,,
1650388370.268335,1650388370.292940,60.000000,0.000000,4270.769043,4263.077148,4196.922852,4148.717773,4270.256348,0.000000,4.000000,91.000000,,,,0.000000,4.000000,4.000000,4.000000,4.000000,4.000000,100.000000,,,,,,,,,,,,,,,,,,,,,,,,,,,,,,,,,,,,,,,,,,,,,,,,,,,,,,,,,,,,,,,
1650388370.276149,1650388370.300857,61.000000,0.000000,4287.179688,4265.641113,4205.641113,4156.410156,4281.025879,0.000000,4.000000,91.000000,,,,0.000000,4.000000,4.000000,4.000000,4.000000,4.000000,100.000000,,,,,,,,,,,,,,,,,,,,,,,,,,,,,,,,,,,,,,,,,,,,,,,,,,,,,,,,,,,,,,,
1650388370.283964,1650388370.308674,62.000000,0.000000,4262.051270,4258.461426,4183.077148,4137.436035,4256.922852,0.000000,4.000000,91.000000,,,,0.000000,4.000000,4.000000,4.000000,4.000000,4.000000,100.000000,,,,,,,,,,,,,,,,,,,,,,,,,,,,,,,,,,,,,,,,,,,,,,,,,,,,,,,,,,,,,,,
1650388370.291779,1650388370.316591,63.000000,0.000000,4241.538574,4232.820313,4161.538574,4123.589844,4240.000000,0.000000,4.000000,91.000000,,,,0.000000,4.000000,4.000000,4.000000,4.000000,4.000000,100.000000,,,,,,,,,,,,,,,,,,,,,,,,,,,,,,,,,,,,,,,,,,,,,,,,,,,,,,,,,,,,,,,
1650388370.299594,1650388370.324407,64.000000,0.000000,4246.666504,4226.153809,4160.512695,4124.615234,4222.563965,450.000000,4.000000,91.000000,,,,0.000000,4.000000,4.000000,4.000000,4.000000,4.000000,100.000000,,,,,,,,,,,,,,,,,,,,,,,,,,,,,,,,,,,,,,,,,,,,,,,,,,,,,,,,,,,,,,,
1650388370.307409,1650388370.332324,65.000000,0.000000,4235.384766,4243.589844,4158.974121,4125.128418,4217.948730,450.000000,4.000000,91.000000,,,,0.000000,4.000000,4.000000,4.000000,4.000000,4.000000,100.000000,,,,,,,,,,,,,,,,,,,,,,,,,,,,,,,,,,,,,,,,,,,,,,,,,,,,,,,,,,,,,,,
1650388370.315223,1650388370.340141,66.000000,0.000000,4225.641113,4244.102539,4157.436035,4127.692383,4232.307617,16220.000000,4.000000,91.000000,,,,0.000000,4.000000,4.000000,4.000000,4.000000,4.000000,100.000000,,,,,,,,,,,,,,,,,,,,,,,,,,,,,,,,,,,,,,,,,,,,,,,,,,,,,,,,,,,,,,,
1650388370.323038,1650388370.348058,67.000000,0.000000,4237.436035,4230.256348,4161.025879,4116.410156,4219.487305,450.000000,4.000000,91.000000,,,,0.000000,4.000000,4.000000,4.000000,4.000000,4.000000,100.000000,,,,,,,,,,,,,,,,,,,,,,,,,,,,,,,,,,,,,,,,,,,,,,,,,,,,,,,,,,,,,,,
1650388370.330853,1650388370.355975,68.000000,0.000000,4245.641113,4236.410156,4163.589844,4104.615234,4210.769043,16211.000000,4.000000,91.000000,,,,0.000000,4.000000,4.000000,4.000000,4.000000,4.000000,100.000000,,,,,,,,,,,,,,,,,,,,,,,,,,,,,,,,,,,,,,,,,,,,,,,,,,,,,,,,,,,,,,,
1650388370.338668,1650388370.363792,69.000000,0.000000,4251.794922,4249.230957,4173.846191,4131.794922,4238.461426,450.000000,4.000000,91.000000,,,,0.000000,4.000000,4.000000,4.000000,4.000000,4.000000,100.000000,,,,,,,,,,,,,,,,,,,,,,,,,,,,,,,,,,,,,,,,,,,,,,,,,,,,,,,,,,,,,,,
1650388370.346483,1650388370.371709,70.000000,0.000000,4271.794922,4257.948730,4189.230957,4174.871582,4263.589844,16143.000000,4.000000,91.000000,,,,0.000000,4.000000,4.000000,4.000000,4.000000,4.000000,100.000000,,,,,,,,,,,,,,,,,,,,,,,,,,,,,,,,,,,,,,,,,,,,,,,,,,,,,,,,,,,,,,,
1650388370.354298,1650388370.379526,71.000000,0.000000,4290.256348,4261.025879,4187.692383,4177.436035,4272.820313,450.000000,4.000000,91.000000,,,,0.000000,4.000000,4.000000,4.000000,4.000000,4.000000,100.000000,,,,,,,,,,,,,,,,,,,,,,,,,,,,,,,,,,,,,,,,,,,,,,,,,,,,,,,,,,,,,,,
1650388370.362112,1650388370.387444,72.000000,0.000000,4288.717773,4254.358887,4178.974121,4157.436035,4282.563965,450.000000,4.000000,91.000000,,,,0.000000,4.000000,4.000000,4.000000,4.000000,4.000000,100.000000,,,,,,,,,,,,,,,,,,,,,,,,,,,,,,,,,,,,,,,,,,,,,,,,,,,,,,,,,,,,,,,
1650388370.369927,1650388370.395261,73.000000,0.000000,4268.205078,4256.922852,4178.461426,4144.615234,4271.794922,16186.000000,4.000000,91.000000,,,,0.000000,4.000000,4.000000,4.000000,4.000000,4.000000,100.000000,,,,,,,,,,,,,,,,,,,,,,,,,,,,,,,,,,,,,,,7.856034,6.976966,6.827056,3.142260,2.280514,1.999333,2.044009,2.353046,1.011477,1.521926,1.575103,2.055067,3.184602,1.584670,1.758173,1.944855,2.713366,4.204740,1.985202,2.133166,5.021625,6.845521,5.399788,3.974218,2.306920
1650388370.377742,1650388370.403178,74.000000,0.000000,4245.641113,4264.615234,4166.666504,4129.743652,4234.358887,450.000000,4.000000,91.000000,,,,0.000000,4.000000,4.000000,4.000000,4.000000,4.000000,100.000000,,,,,,,,,,,,,,,,,,,,,,,,,,,,,,,,,,,,,,,,,,,,,,,,,,,,,,,,,,,,,,,
1650388370.385557,1650388370.410995,75.000000,0.000000,4251.282227,4265.128418,4159.487305,4133.333496,4222.051270,16183.000000,4.000000,91.000000,,,,0.000000,4.000000,4.000000,4.000000,4.000000,4.000000,100.000000,,,,,,,,,,,,,,,,,,,,,,,,,,,,,,,,,,,,,,,,,,,,,,,,,,,,,,,,,,,,,,,
1650388370.393371,1650388370.418912,76.000000,0.000000,4281.025879,4263.077148,4175.897461,4150.769043,4252.820313,450.000000,4.000000,91.000000,,,,0.000000,4.000000,4.000000,4.000000,4.000000,4.000000,100.000000,,,,,,,,,,,,,,,,,,,,,,,,,,,,,,,,,,,,,,,,,,,,,,,,,,,,,,,,,,,,,,,
1650388370.401186,1650388370.426729,77.000000,0.000000,4279.487305,4252.820313,4173.333496,4140.000000,4273.846191,450.000000,4.000000,91.000000,,,,0.000000,4.000000,4.000000,4.000000,4.000000,4.000000,100.000000,,,,,,,,,,,,,,,,,,,,,,,,,,,,,,,,,,,,,,,,,,,,,,,,,,,,,,,,,,,,,,,
1650388370.409001,1650388370.434646,78.000000,0.000000,4247.692383,4245.641113,4149.230957,4120.000000,4246.153809,450.000000,4.000000,91.000000,,,,0.000000,4.000000,4.000000,4.000000,4.000000,4.000000,100.000000,,,,,,,,,,,,,,,,,,,,,,,,,,,,,,,,,,,,,,,,,,,,,,,,,,,,,,,,,,,,,,,
1650388370.416816,1650388370.442463,79.000000,0.000000,4239.487305,4257.436035,4148.205078,4123.589844,4208.717773,16183.000000,4.000000,91.000000,,,,0.000000,4.000000,4.000000,4.000000,4.000000,4.000000,100.000000,,,,,,,,,,,,,,,,,,,,,,,,,,,,,,,,,,,,,,,,,,,,,,,,,,,,,,,,,,,,,,,
1650388370.424631,1650388370.450380,80.000000,0.000000,4261.538574,4267.179688,4163.077148,4124.615234,4224.102539,450.000000,4.000000,91.000000,,,,0.000000,4.000000,4.000000,4.000000,4.000000,4.000000,100.000000,,,,,,,,,,,,,,,,,,,,,,,,,,,,,,,,,,,,,,,,,,,,,,,,,,,,,,,,,,,,,,,
1650388370.432446,1650388370.458197,81.000000,0.000000,4275.897461,4266.153809,4169.230957,4118.974121,4267.179688,450.000000,4.000000,91.000000,,,,0.000000,4.000000,4.000000,4.000000,4.000000,4.000000,100.000000,,,,,,,,,,,,,,,,,,,,,,,,,,,,,,,,,,,,,,,,,,,,,,,,,,,,,,,,,,,,,,,
1650388370.440260,1650388370.466114,82.000000,0.000000,4274.871582,4266.666504,4166.666504,4128.717773,4271.282227,450.000000,4.000000,91.000000,,,,0.000000,4.000000,4.000000,4.000000,4.000000,4.000000,100.000000,,,,,,,,,,,,,,,,,,,,,,,,,,,,,,,,,,,,,,,,,,,,,,,,,,,,,,,,,,,,,,,
1650388370.448075,1650388370.473931,83.000000,0.000000,4277.948730,4264.615234,4162.563965,4138.461426,4258.461426,16183.000000,4.000000,91.000000,,,,0.000000,4.000000,4.000000,4.000000,4.000000,4.000000,100.000000,,,,,,,,,,,,,,,,,,,,,,,,,,,,,,,,,,,,,,,,,,,,,,,,,,,,,,,,,,,,,,,
1650388370.455890,1650388370.481848,84.000000,0.000000,4274.358887,4265.128418,4162.563965,4137.948730,4262.051270,450.000000,4.000000,91.000000,,,,0.000000,4.000000,4.000000,4.000000,4.000000,4.000000,100.000000,,,,,,,,,,,,,,,,,,,,,,,,,,,,,,,,,,,,,,,,,,,,,,,,,,,,,,,,,,,,,,,
1650388370.463705,1650388370.489665,85.000000,0.000000,4264.615234,4257.436035,4162.051270,4128.205078,4257.436035,450.000000,4.000000,91.000000,,,,0.000000,4.000000,4.000000,4.000000,4.000000,4.000000,100.000000,,,,,,,,,,,,,,,,,,,,,,,,,,,,,,,,,,,,,,,,,,,,,,,,,,,,,,,,,,,,,,,
1650388370.471520,1650388370.497582,86.000000,0.000000,4270.256348,4245.128418,4155.384766,4122.563965,4253.846191,450.000000,4.000000,91.000000,,,,0.000000,4.000000,4.000000,4.000000,4.000000,4.000000,100.000000,,,,,,,,,,,,,,,,,,,,,,,,,,,,,,,,,,,,,,,,,,,,,,,,,,,,,,,,,,,,,,,
1650388370.479334,1650388370.505499,87.000000,0.000000,4276.410156,4238.974121,4157.436035,4132.820313,4265.128418,16183.000000,4.000000,91.000000,,,,0.000000,4.000000,4.000000,4.000000,4.000000,4.000000,100.000000,,,,,,,,,,,,,,,,,,,,,,,,,,,,,,,,,,,,,,,,,,,,,,,,,,,,,,,,,,,,,,,
1650388370.487149,1650388370.513317,88.000000,0.000000,4279.487305,4237.436035,4175.897461,4144.615234,4273.846191,450.000000,4.000000,91.000000,,,,0.000000,4.000000,4.000000,4.000000,4.000000,4.000000,100.000000,,,,,,,,,,,,,,,,,,,,,,,,,,,,,,,,,,,,,,,,,,,,,,,,,,,,,,,,,,,,,,,
1650388370.494964,1650388370.521234,89.000000,0.000000,4298.461426,4253.333496,4191.794922,4144.615234,4288.717773,450.000000,4.000000,91.000000,,,,0.000000,4.000000,4.000000,4.000000,4.000000,4.000000,100.000000,1.000000,100.000000,4.000000,4.000000,4.000000,4.000000,4.000000,,,,,,,,,,,,,,,,,,,,,,,,,,,,,,,,6.963079,6.969004,6.519511,3.094356,2.275304,2.006911,2.649843,2.379861,0.960318,1.513394,1.659660,2.816542,3.100322,1.604255,1.702155,2.351630,3.356801,4.124265,2.142082,2.042074,4.824296,6.671116,5.456844,3.794442,2.215448
1650388370.502779,1650388370.529052,90.000000,0.000000,4322.563965,4273.846191,4190.256348,4152.820313,4307.179688,450.000000,4.000000,91.000000,,,,0.000000,4.000000,4.000000,4.000000,4.000000,4.000000,100.000000,,,,,,,,,,,,,,,,,,,,,,,,,,,,,,,,,,,,,,,,,,,,,,,,,,,,,,,,,,,,,,,
1650388370.510594,1650388370.536969,91.000000,0.000000,4329.743652,4268.717773,4189.230957,4171.282227,4305.128418,16183.000000,4.000000,91.000000,,,,0.000000,4.000000,4.000000,4.000000,4.000000,4.000000,100.000000,,,,,,,,,,,,,,,,,,,,,,,,,,,,,,,,,,,,,,,,,,,,,,,,,,,,,,,,,,,,,,,
1650388370.518408,1650388370.544786,92.000000,0.000000,4312.307617,4258.461426,4195.384766,4169.743652,4294.871582,450.000000,4.000000,91.000000,,,,0.000000,4.000000,4.000000,4.000000,4.000000,4.000000,100.000000,,,,,,,,,,,,,,,,,,,,,,,,,,,,,,,,,,,,,,,,,,,,,,,,,,,,,,,,,,,,,,,
1650388370.526223,1650388370.552703,93.000000,0.000000,4288.205078,4265.128418,4189.230957,4157.436035,4292.820313,450.000000,4.000000,91.000000,,,,0.000000,4.000000,4.000000,4.000000,4.000000,4.000000,100.000000,,,,,,,,,,,,,,,,,,,,,,,,,,,,,,,,,,,,,,,,,,,,,,,,,,,,,,,,,,,,,,,
1650388370.534038,1650388370.560520,94.000000,0.000000,4279.487305,4262.051270,4178.974121,4151.794922,4284.615234,450.000000,4.000000,91.000000,,,,0.000000,4.000000,4.000000,4.000000,4.000000,4.000000,100.000000,,,,,,,,,,,,,,,,,,,,,,,,,,,,,,,,,,,,,,,,,,,,,,,,,,,,,,,,,,,,,,,
1650388370.541853,1650388370.568438,95.000000,0.000000,4274.871582,4252.307617,4177.948730,4145.128418,4262.563965,16183.000000,4.000000,91.000000,,,,0.000000,4.000000,4.000000,4.000000,4.000000,4.000000,100.000000,,,,,,,,,,,,,,,,,,,,,,,,,,,,,,,,,,,,,,,,,,,,,,,,,,,,,,,,,,,,,,,
1650388370.549668,1650388370.576255,96.000000,0.000000,4244.615234,4243.589844,4156.410156,4112.307617,4221.538574,450.000000,4.000000,91.000000,,,,0.000000,4.000000,4.000000,4.000000,4.000000,4.000000,100.000000,,,,,,,,,,,,,,,,,,,,,,,,,,,,,,,,,,,,,,,,,,,,,,,,,,,,,,,,,,,,,,,
1650388370.557483,1650388370.584172,97.000000,0.000000,4238.461426,4243.077148,4135.384766,4095.897461,4222.051270,450.000000,4.000000,91.000000,,,,0.000000,4.000000,4.000000,4.000000,4.000000,4.000000,100.000000,,,,,,,,,,,,,,,,,,,,,,,,,,,,,,,,,,,,,,,,,,,,,,,,,,,,,,,,,,,,,,,
1650388370.565297,1650388370.591989,98.000000,0.000000,4281.538574,4265.128418,4160.000000,4130.769043,4281.025879,450.000000,4.000000,91.000000,,,,0.000000,4.000000,4.000000,4.000000,4.000000,4.000000,100.000000,,,,,,,,,,,,,,,,,,,,,,,,,,,,,,,,,,,,,,,,,,,,,,,,,,,,,,,,,,,,,,,
1650388370.573112,1650388370.599906,99.000000,0.000000,4291.282227,4275.384766,4180.000000,4141.025879,4287.179688,16183.000000,4.000000,91.000000,,,,0.000000,4.000000,4.000000,4.000000,4.000000,4.000000,100.000000,,,,,,,,,,,,,,,,,,,,,,,,,,,,,,,,,,,,,,,,,,,,,,,,,,,,,,,,,,,,,,,
1650388370.580927,1650388370.607723,100.000000,0.000000,4254.358887,4256.410156,4163.077148,4110.256348,4237.436035,450.000000,4.000000,91.000000,,,,0.000000,4.000000,4.000000,4.000000,4.000000,4.000000,100.000000,,,,,,,,,,,,,,,,,,,,,,,,,,,,,,,,,,,,,,,,,,,,,,,,,,,,,,,,,,,,,,,
1650388370.588742,1650388370.615640,101.000000,0.000000,4257.436035,4260.512695,4173.333496,4123.589844,4240.000000,450.000000,4.000000,91.000000,,,,0.000000,4.000000,4.000000,4.000000,4.000000,4.000000,100.000000,,,,,,,,,,,,,,,,,,,,,,,,,,,,,,,,,,,,,,,,,,,,,,,,,,,,,,,,,,,,,,,
1650388370.596557,1650388370.623457,102.000000,0.000000,4297.948730,4285.641113,4196.922852,4165.641113,4285.641113,450.000000,4.000000,91.000000,,,,0.000000,4.000000,4.000000,4.000000,4.000000,4.000000,100.000000,,,,,,,,,,,,,,,,,,,,,,,,,,,,,,,,,,,,,,,,,,,,,,,,,,,,,,,,,,,,,,,
1650388370.604371,1650388370.631374,103.000000,0.000000,4292.307617,4270.256348,4172.820313,4144.102539,4273.333496,16183.000000,4.000000,91.000000,,,,0.000000,4.000000,4.000000,4.000000,4.000000,4.000000,100.000000,,,,,,,,,,,,,,,,,,,,,,,,,,,,,,,,,,,,,,,,,,,,,,,,,,,,,,,,,,,,,,,
1650388370.612186,1650388370.639191,104.000000,0.000000,4271.794922,4255.897461,4162.563965,4123.589844,4245.128418,450.000000,4.000000,91.000000,,,,0.000000,4.000000,4.000000,4.000000,4.000000,4.000000,100.000000,,,,,,,,,,,,,,,,,,,,,,,,,,,,,,,,,,,,,,,,,,,,,,,,,,,,,,,,,,,,,,,
1650388370.620001,1650388370.647108,105.000000,0.000000,4297.948730,4289.743652,4193.846191,4163.589844,4283.589844,450.000000,4.000000,91.000000,,,,0.000000,4.000000,4.000000,4.000000,4.000000,4.000000,100.000000,,,,,,,,,,,,,,,,,,,,,,,,,,,,,,,,,,,,,,,5.635303,6.725411,5.762963,2.908216,2.406272,2.009302,3.174773,2.411363,0.888754,1.552084,1.695644,3.689203,2.961317,1.646245,1.678303,3.058747,4.027646,3.982733,2.344744,2.063790,4.383202,6.290784,5.070240,3.460839,2.265907
1650388370.627816,1650388370.655026,106.000000,0.000000,4329.743652,4305.641113,4196.410156,4181.538574,4324.102539,450.000000,4.000000,91.000000,,,,0.000000,4.000000,4.000000,4.000000,4.000000,4.000000,100.000000,,,,,,,,,,,,,,,,,,,,,,,,,,,,,,,,,,,,,,,,,,,,,,,,,,,,,,,,,,,,,,,
1650388370.635631,1650388370.662843,107.000000,0.000000,4338.974121,4291.794922,4180.512695,4174.358887,4322.051270,16183.000000,4.000000,91.000000,,,,0.000000,4.000000,4.000000,4.000000,4.000000,4.000000,100.000000,,,,,,,,,,,,,,,,,,,,,,,,,,,,,,,,,,,,,,,,,,,,,,,,,,,,,,,,,,,,,,,
1650388370.643445,1650388370.670760,108.000000,0.000000,4336.922852,4294.358887,4178.461426,4183.589844,4315.897461,450.000000,4.000000,91.000000,,,,0.000000,4.000000,4.000000,4.000000,4.000000,4.000000,100.000000,,,,,,,,,,,,,,,,,,,,,,,,,,,,,,,,,,,,,,,,,,,,,,,,,,,,,,,,,,,,,,,
1650388370.651260,1650388370.678578,109.000000,0.000000,4327.179688,4301.538574,4175.897461,4180.512695,4311.794922,450.000000,4.000000,91.000000,,,,0.000000,4.000000,4.000000,4.000000,4.000000,4.000000,100.000000,,,,,,,,,,,,,,,,,,,,,,,,,,,,,,,,,,,,,,,,,,,,,,,,,,,,,,,,,,,,,,,
1650388370.659075,1650388370.686395,110.000000,0.000000,4339.487305,4297.948730,4189.743652,4168.205078,4309.743652,450.000000,4.000000,91.000000,,,,0.000000,4.000000,4.000000,4.000000,4.000000,4.000000,100.000000,,,,,,,,,,,,,,,,,,,,,,,,,,,,,,,,,,,,,,,,,,,,,,,,,,,,,,,,,,,,,,,
1650388370.666890,1650388370.694312,111.000000,0.000000,4361.025879,4300.000000,4210.256348,4185.641113,4332.820313,16183.000000,4.000000,91.000000,,,,0.000000,4.000000,4.000000,4.000000,4.000000,4.000000,100.000000,,,,,,,,,,,,,,,,,,,,,,,,,,,,,,,,,,,,,,,,,,,,,,,,,,,,,,,,,,,,,,,
1650388370.674705,1650388370.702230,112.000000,0.000000,4337.948730,4297.948730,4195.384766,4194.871582,4342.563965,450.000000,4.000000,91.000000,,,,0.000000,4.000000,4.000000,4.000000,4.000000,4.000000,100.000000,,,,,,,,,,,,,,,,,,,,,,,,,,,,,,,,,,,,,,,,,,,,,,,,,,,,,,,,,,,,,,,
1650388370.682520,1650388370.710047,113.000000,0.000000,4321.538574,4296.410156,4190.256348,4186.153809,4319.487305,450.000000,4.000000,91.000000,,,,0.000000,4.000000,4.000000,4.000000,4.000000,4.000000,100.000000,,,,,,,,,,,,,,,,,,,,,,,,,,,,,,,,,,,,,,,,,,,,,,,,,,,,,,,,,,,,,,,
1650388370.690334,1650388370.717964,114.000000,0.000000,4351.282227,4296.922852,4212.820313,4189.230957,4312.820313,450.000000,4.000000,91.000000,,,,0.000000,4.000000,4.000000,4.000000,4.000000,4.000000,100.000000,,,,,,,,,,,,,,,,,,,,,,,,,,,,,,,,,,,,,,,,,,,,,,,,,,,,,,,,,,,,,,,
1650388370.698149,1650388370.725782,115.000000,0.000000,4351.282227,4283.589844,4204.615234,4178.974121,4323.589844,16183.000000,4.000000,91.000000,,,,0.000000,4.000000,4.000000,4.000000,4.000000,4.000000,100.000000,,,,,,,,,,,,,,,,,,,,,,,,,,,,,,,,,,,,,,,,,,,,,,,,,,,,,,,,,,,,,,,
1650388370.705964,1650388370.733699,116.000000,0.000000,4325.641113,4279.487305,4192.307617,4166.153809,4327.692383,450.000000,4.000000,91.000000,,,,0.000000,4.000000,4.000000,4.000000,4.000000,4.000000,100.000000,,,,,,,,,,,,,,,,,,,,,,,,,,,,,,,,,,,,,,,,,,,,,,,,,,,,,,,,,,,,,,,
1650388370.713779,1650388370.741516,117.000000,0.000000,4323.589844,4280.512695,4198.974121,4164.615234,4307.179688,450.000000,4.000000,91.000000,,,,0.000000,4.000000,4.000000,4.000000,4.000000,4.000000,100.000000,,,,,,,,,,,,,,,,,,,,,,,,,,,,,,,,,,,,,,,,,,,,,,,,,,,,,,,,,,,,,,,
1650388370.721594,1650388370.749434,118.000000,0.000000,4322.051270,4263.589844,4191.794922,4152.307617,4286.666504,450.000000,4.000000,91.000000,,,,0.000000,4.000000,4.000000,4.000000,4.000000,4.000000,100.000000,,,,,,,,,,,,,,,,,,,,,,,,,,,,,,,,,,,,,,,,,,,,,,,,,,,,,,,,,,,,,,,
1650388370.729408,1650388370.757251,119.000000,0.000000,4334.871582,4272.307617,4194.871582,4153.333496,4316.922852,16183.000000,4.000000,91.000000,,,,0.000000,4.000000,4.000000,4.000000,4.000000,4.000000,100.000000,,,,,,,,,,,,,,,,,,,,,,,,,,,,,,,,,,,,,,,,,,,,,,,,,,,,,,,,,,,,,,,
1650388370.737223,1650388370.765168,120.000000,0.000000,4352.307617,4294.871582,4209.230957,4172.820313,4342.563965,450.000000,4.000000,91.000000,,,,0.000000,4.000000,4.000000,4.000000,4.000000,4.000000,100.000000,,,,,,,,,,,,,,,,,,,,,,,,,,,,,,,,,,,,,,,,,,,,,,,,,,,,,,,,,,,,,,,
1650388370.745038,1650388370.772985,121.000000,0.000000,4328.717773,4277.948730,4197.436035,4169.230957,4311.794922,450.000000,4.000000,91.000000,,,,0.000000,4.000000,4.000000,4.000000,4.000000,4.000000,100.000000,,,,,,,,,,,,,,,,,,,,,,,,,,,,,,,,,,,,,,,4.214144,6.382122,4.821461,2.680625,2.626053,2.007923,3.573763,2.450118,0.805996,1.625699,1.701577,4.509058,2.832073,1.681415,1.660492,3.811327,4.640148,3.826504,2.518922,2.177372,3.812661,5.947544,4.420804,3.136088,2.457321
1650388370.752853,1650388370.780902,122.000000,0.000000,4319.487305,4263.077148,4187.179688,4160.512695,4298.974121,450.000000,4.000000,91.000000,,,,0.000000,4.000000,4.000000,4.000000,4.000000,4.000000,100.000000,,,,,,,,,,,,,,,,,,,,,,,,,,,,,,,,,,,,,,,,,,,,,,,,,,,,,,,,,,,,,,,
1650388370.760668,1650388370.788719,123.000000,0.000000,4333.846191,4267.692383,4186.153809,4166.153809,4308.717773,16183.000000,4.000000,91.000000,,,,0.000000,4.000000,4.000000,4.000000,4.000000,4.000000,100.000000,,,,,,,,,,,,,,,,,,,,,,,,,,,,,,,,,,,,,,,,,,,,,,,,,,,,,,,,,,,,,,,
1650388370.768482,1650388370.796636,124.000000,0.000000,4310.769043,4248.717773,4163.589844,4149.230957,4286.153809,450.000000,4.000000,91.000000,,,,0.000000,4.000000,4.000000,4.000000,4.000000,4.000000,100.000000,,,,,,,,,,,,,,,,,,,,,,,,,,,,,,,,,,,,,,,,,,,,,,,,,,,,,,,,,,,,,,,
1650388370.776297,1650388370.804453,125.000000,0.000000,4292.307617,4241.538574,4154.871582,4140.000000,4269.230957,450.000000,4.000000,91.000000,,,,0.000000,4.000000,4.000000,4.000000,4.000000,4.000000,100.000000,,,,,,,,,,,,,,,,,,,,,,,,,,,,,,,,,,,,,,,,,,,,,,,,,,,,,,,,,,,,,,,
1650388370.784112,1650388370.812370,126.000000,0.000000,4308.205078,4263.589844,4169.230957,4155.897461,4273.333496,450.000000,4.000000,91.000000,,,,0.000000,4.000000,4.000000,4.000000,4.000000,4.000000,100.000000,,,,,,,,,,,,,,,,,,,,,,,,,,,,,,,,,,,,,,,,,,,,,,,,,,,,,,,,,,,,,,,
1650388370.791927,1650388370.820187,127.000000,0.000000,4309.743652,4266.153809,4168.717773,4154.358887,4267.692383,242.000000,4.000000,91.000000,,,,0.000000,4.000000,4.000000,4.000000,4.000000,4.000000,100.000000,,,,,,,,,,,,,,,,,,,,,,,,,,,,,,,,,,,,,,,,,,,,,,,,,,,,,,,,,,,,,,,
1650388370.799742,1650388370.828104,0.000000,0.000000,4311.794922,4263.589844,4176.922852,4160.512695,4281.538574,450.000000,4.000000,91.000000,,,,0.000000,4.000000,4.000000,4.000000,4.000000,4.000000,100.000000,,,,,,,,,,,,,,,,,,,,,,,,,,,,,,,,,,,,,,,,,,,,,,,,,,,,,,,,,,,,,,,
1650388370.807557,1650388370.835921,1.000000,0.000000,4328.205078,4282.051270,4203.077148,4198.461426,4308.717773,450.000000,4.000000,91.000000,,,,0.000000,4.000000,4.000000,4.000000,4.000000,4.000000,100.000000,,,,,,,,,,,,,,,,,,,,,,,,,,,,,,,,,,,,,,,,,,,,,,,,,,,,,,,,,,,,,,,
1650388370.815371,1650388370.843838,2.000000,0.000000,4315.384766,4282.563965,4200.512695,4199.487305,4296.922852,16221.000000,4.000000,91.000000,,,,0.000000,4.000000,4.000000,4.000000,4.000000,4.000000,100.000000,,,,,,,,,,,,,,,,,,,,,,,,,,,,,,,,,,,,,,,,,,,,,,,,,,,,,,,,,,,,,,,
1650388370.823186,1650388370.851755,3.000000,0.000000,4293.333496,4255.384766,4182.563965,4166.666504,4273.846191,450.000000,4.000000,91.000000,,,,0.000000,4.000000,4.000000,4.000000,4.000000,4.000000,100.000000,,,,,,,,,,,,,,,,,,,,,,,,,,,,,,,,,,,,,,,,,,,,,,,,,,,,,,,,,,,,,,,
1650388370.831001,1650388370.859573,4.000000,0.000000,4287.692383,4245.128418,4179.487305,4155.384766,4272.307617,16178.000000,4.000000,91.000000,,,,0.000000,4.000000,4.000000,4.000000,4.000000,4.000000,100.000000,,,,,,,,,,,,,,,,,,,,,,,,,,,,,,,,,,,,,,,,,,,,,,,,,,,,,,,,,,,,,,,
1650388370.838816,1650388370.867490,5.000000,0.000000,4277.436035,4258.974121,4169.743652,4146.153809,4258.974121,450.000000,4.000000,91.000000,,,,0.000000,4.000000,4.000000,4.000000,4.000000,4.000000,100.000000,,,,,,,,,,,,,,,,,,,,,,,,,,,,,,,,,,,,,,,,,,,,,,,,,,,,,,,,,,,,,,,
1650388370.846630,1650388370.875308,6.000000,0.000000,4269.743652,4264.102539,4161.025879,4137.436035,4240.512695,16153.000000,4.000000,91.000000,,,,0.000000,4.000000,4.000000,4.000000,4.000000,4.000000,100.000000,,,,,,,,,,,,,,,,,,,,,,,,,,,,,,,,,,,,,,,,,,,,,,,,,,,,,,,,,,,,,,,
1650388370.854445,1650388370.883225,7.000000,0.000000,4289.230957,4263.589844,4187.692383,4162.051270,4258.461426,450.000000,4.000000,91.000000,,,,0.000000,4.000000,4.000000,4.000000,4.000000,4.000000,100.000000,,,,,,,,,,,,,,,,,,,,,,,,,,,,,,,,,,,,,,,,,,,,,,,,,,,,,,,,,,,,,,,
1650388370.862260,1650388370.891043,8.000000,0.000000,4304.615234,4273.846191,4206.153809,4180.512695,4282.051270,450.000000,4.000000,91.000000,,,,0.000000,4.000000,4.000000,4.000000,4.000000,4.000000,100.000000,,,,,,,,,,,,,,,,,,,,,,,,,,,,,,,,,,,,,,,,,,,,,,,,,,,,,,,,,,,,,,,
1650388370.870075,1650388370.898960,9.000000,0.000000,4285.641113,4268.205078,4180.000000,4160.000000,4267.179688,16172.000000,4.000000,91.000000,,,,0.000000,4.000000,4.000000,4.000000,4.000000,4.000000,100.000000,,,,,,,,,,,,,,,,,,,,,,,,,,,,,,,,,,,,,,,3.273235,6.069682,4.023280,2.529718,2.854333,2.067540,3.823932,2.476984,0.732952,1.695341,1.721158,5.114260,2.751732,1.672026,1.612529,4.638032,5.173147,3.700045,2.611362,2.315872,3.523133,5.842875,3.801032,2.976513,2.727523
1650388370.877890,1650388370.906778,10.000000,0.000000,4268.205078,4240.512695,4157.436035,4142.051270,4252.307617,450.000000,4.000000,91.000000,,,,0.000000,4.000000,4.000000,4.000000,4.000000,4.000000,100.000000,,,,,,,,,,,,,,,,,,,,,,,,,,,,,,,,,,,,,,,,,,,,,,,,,,,,,,,,,,,,,,,
1650388370.885705,1650388370.914695,11.000000,0.000000,4273.846191,4234.358887,4154.358887,4144.615234,4258.974121,16197.000000,4.000000,91.000000,,,,0.000000,4.000000,4.000000,4.000000,4.000000,4.000000,100.000000,,,,,,,,,,,,,,,,,,,,,,,,,,,,,,,,,,,,,,,,,,,,,,,,,,,,,,,,,,,,,,,
1650388370.893519,1650388370.922512,12.000000,0.000000,4281.538574,4256.922852,4154.358887,4148.717773,4265.641113,450.000000,4.000000,91.000000,,,,0.000000,4.000000,4.000000,4.000000,4.000000,4.000000,100.000000,,,,,,,,,,,,,,,,,,,,,,,,,,,,,,,,,,,,,,,,,,,,,,,,,,,,,,,,,,,,,,,
1650388370.901334,1650388370.930429,13.000000,0.000000,4296.922852,4282.563965,4178.974121,4166.153809,4270.256348,450.000000,4.000000,91.000000,,,,0.000000,4.000000,4.000000,4.000000,4.000000,4.000000,100.000000,,,,,,,,,,,,,,,,,,,,,,,,,,,,,,,,,,,,,,,,,,,,,,,,,,,,,,,,,,,,,,,
1650388370.909149,1650388370.938247,14.000000,0.000000,4308.205078,4295.384766,4206.666504,4186.666504,4270.769043,450.000000,4.000000,91.000000,,,,0.000000,4.000000,4.000000,4.000000,4.000000,4.000000,100.000000,,,,,,,,,,,,,,,,,,,,,,,,,,,,,,,,,,,,,,,,,,,,,,,,,,,,,,,,,,,,,,,
1650388370.916964,1650388370.946164,15.000000,0.000000,4304.102539,4275.384766,4208.205078,4195.897461,4280.000000,16197.000000,4.000000,91.000000,,,,0.000000,4.000000,4.000000,4.000000,4.000000,4.000000,100.000000,,,,,,,,,,,,,,,,,,,,,,,,,,,,,,,,,,,,,,,,,,,,,,,,,,,,,,,,,,,,,,,
1650388370.924779,1650388370.953981,16.000000,0.000000,4300.512695,4245.128418,4205.128418,4193.333496,4294.358887,0.000000,4.000000,91.000000,,,,0.000000,4.000000,4.000000,4.000000,4.000000,4.000000,100.000000,,,,,,,,,,,,,,,,,,,,,,,,,,,,,,,,,,,,,,,,,,,,,,,,,,,,,,,,,,,,,,,
1650388370.932593,1650388370.961798,17.000000,0.000000,4293.846191,4250.769043,4203.589844,4175.384766,4275.897461,0.000000,4.000000,91.000000,,,,0.000000,4.000000,4.000000,4.000000,4.000000,4.000000,100.000000,,,,,,,,,,,,,,,,,,,,,,,,,,,,,,,,,,,,,,,,,,,,,,,,,,,,,,,,,,,,,,,
1650388370.940408,1650388370.969715,18.000000,0.000000,4281.025879,4274.358887,4200.512695,4169.743652,4250.769043,0.000000,4.000000,91.000000,,,,0.000000,4.000000,4.000000,4.000000,4.000000,4.000000,100.000000,,,,,,,,,,,,,,,,,,,,,,,,,,,,,,,,,,,,,,,,,,,,,,,,,,,,,,,,,,,,,,,
1650388370.948223,1650388370.977632,19.000000,0.000000,4291.794922,4275.384766,4198.461426,4191.794922,4269.230957,0.000000,4.000000,91.000000,,,,0.000000,4.000000,4.000000,4.000000,4.000000,4.000000,100.000000,,,,,,,,,,,,,,,,,,,,,,,,,,,,,,,,,,,,,,,,,,,,,,,,,,,,,,,,,,,,,,,
1650388370.956038,1650388370.985449,20.000000,0.000000,4303.589844,4257.436035,4170.256348,4184.615234,4269.743652,0.000000,4.000000,91.000000,,,,0.000000,4.000000,4.000000,4.000000,4.000000,4.000000,100.000000,,,,,,,,,,,,,,,,,,,,,,,,,,,,,,,,,,,,,,,,,,,,,,,,,,,,,,,,,,,,,,,
1650388370.963853,1650388370.993366,21.000000,0.000000,4280.512695,4234.871582,4125.641113,4128.717773,4226.153809,0.000000,4.000000,91.000000,,,,0.000000,4.000000,4.000000,4.000000,4.000000,4.000000,100.000000,,,,,,,,,,,,,,,,,,,,,,,,,,,,,,,,,,,,,,,,,,,,,,,,,,,,,,,,,,,,,,,
1650388370.971667,1650388371.001183,22.000000,0.000000,4271.282227,4232.307617,4133.333496,4113.846191,4226.153809,0.000000,4.000000,91.000000,,,,0.000000,4.000000,4.000000,4.000000,4.000000,4.000000,100.000000,,,,,,,,,,,,,,,,,,,,,,,,,,,,,,,,,,,,,,,,,,,,,,,,,,,,,,,,,,,,,,,
1650388370.979482,1650388371.009100,23.000000,0.000000,4305.641113,4267.692383,4187.692383,4169.230957,4263.077148,0.000000,4.000000,91.000000,,,,0.000000,4.000000,4.000000,4.000000,4.000000,4.000000,100.000000,,,,,,,,,,,,,,,,,,,,,,,,,,,,,,,,,,,,,,,,,,,,,,,,,,,,,,,,,,,,,,,
1650388370.987297,1650388371.017017,24.000000,0.000000,4334.871582,4296.410156,4214.358887,4213.846191,4276.410156,0.000000,4.000000,91.000000,,,,0.000000,4.000000,4.000000,4.000000,4.000000,4.000000,100.000000,,,,,,,,,,,,,,,,,,,,,,,,,,,,,,,,,,,,,,,,,,,,,,,,,,,,,,,,,,,,,,,
1650388370.995112,1650388371.024834,25.000000,0.000000,4321.025879,4277.436035,4187.692383,4190.769043,4260.000000,0.000000,4.000000,91.000000,,,,0.000000,4.000000,4.000000,4.000000,4.000000,4.000000,100.000000,1.000000,100.000000,4.000000,4.000000,4.000000,4.000000,4.000000,,,,,,,,,,,,,,,,,,,,,,,,,,,,,,,,3.293429,5.839111,3.593868,2.507284,3.013021,2.291082,3.899862,2.453650,0.692090,1.715623,1.842848,5.399130,2.722175,1.603780,1.515137,5.643399,5.554842,3.596329,2.608552,2.401513,3.984930,6.010450,3.459718,3.050211,2.991118
1650388371.002927,1650388371.032752,26.000000,0.000000,4301.025879,4260.512695,4168.717773,4153.333496,4240.000000,0.000000,4.000000,91.000000,,,,0.000000,4.000000,4.000000,4.000000,4.000000,4.000000,100.000000,,,,,,,,,,,,,,,,,,,,,,,,,,,,,,,,,,,,,,,,,,,,,,,,,,,,,,,,,,,,,,,
1650388371.010742,1650388371.040569,27.000000,0.000000,4297.948730,4269.743652,4187.692383,4151.794922,4234.871582,0.000000,4.000000,91.000000,,,,0.000000,4.000000,4.000000,4.000000,4.000000,4.000000,100.000000,,,,,,,,,,,,,,,,,,,,,,,,,,,,,,,,,,,,,,,,,,,,,,,,,,,,,,,,,,,,,,,
1650388371.018556,1650388371.048387,28.000000,0.000000,4289.743652,4266.666504,4192.820313,4151.282227,4236.410156,0.000000,4.000000,91.000000,,,,0.000000,4.000000,4.000000,4.000000,4.000000,4.000000,100.000000,,,,,,,,,,,,,,,,,,,,,,,,,,,,,,,,,,,,,,,,,,,,,,,,,,,,,,,,,,,,,,,
1650388371.026371,1650388371.056304,29.000000,0.000000,4278.974121,4254.358887,4174.871582,4137.948730,4224.102539,0.000000,4.000000,91.000000,,,,0.000000,4.000000,4.000000,4.000000,4.000000,4.000000,100.000000,,,,,,,,,,,,,,,,,,,,,,,,,,,,,,,,,,,,,,,,,,,,,,,,,,,,,,,,,,,,,,,
1650388371.034186,1650388371.064120,30.000000,0.000000,4272.307617,4249.743652,4173.333496,4138.974121,4211.794922,0.000000,4.000000,91.000000,,,,0.000000,4.000000,4.000000,4.000000,4.000000,4.000000,100.000000,,,,,,,,,,,,,,,,,,,,,,,,,,,,,,,,,,,,,,,,,,,,,,,,,,,,,,,,,,,,,,,
1650388371.042001,1650388371.072037,31.000000,0.000000,4264.102539,4241.538574,4190.769043,4149.230957,4212.820313,0.000000,4.000000,91.000000,,,,0.000000,4.000000,4.000000,4.000000,4.000000,4.000000,100.000000,,,,,,,,,,,,,,,,,,,,,,,,,,,,,,,,,,,,,,,,,,,,,,,,,,,,,,,,,,,,,,,
1650388371.049816,1650388371.079954,32.000000,0.000000,4247.179688,4228.205078,4193.846191,4121.538574,4184.615234,0.000000,4.000000,91.000000,,,,0.000000,4.000000,4.000000,4.000000,4.000000,4.000000,100.000000,,,,,,,,,,,,,,,,,,,,,,,,,,,,,,,,,,,,,,,,,,,,,,,,,,,,,,,,,,,,,,,
1650388371.057630,1650388371.087772,33.000000,0.000000,4231.282227,4226.666504,4188.717773,4095.384521,4147.179688,0.000000,4.000000,91.000000,,,,0.000000,4.000000,4.000000,4.000000,4.000000,4.000000,100.000000,,,,,,,,,,,,,,,,,,,,,,,,,,,,,,,,,,,,,,,,,,,,,,,,,,,,,,,,,,,,,,,
1650388371.065445,1650388371.095689,34.000000,0.000000,4220.000000,4234.871582,4192.820313,4133.846191,4152.307617,0.000000,4.000000,91.000000,,,,0.000000,4.000000,4.000000,4.000000,4.000000,4.000000,100.000000,,,,,,,,,,,,,,,,,,,,,,,,,,,,,,,,,,,,,,,,,,,,,,,,,,,,,,,,,,,,,,,
1650388371.073260,1650388371.103506,35.000000,0.000000,4214.358887,4233.846191,4198.974121,4174.358887,4168.717773,0.000000,4.000000,91.000000,,,,0.000000,4.000000,4.000000,4.000000,4.000000,4.000000,100.000000,,,,,,,,,,,,,,,,,,,,,,,,,,,,,,,,,,,,,,,,,,,,,,,,,,,,,,,,,,,,,,,
1650388371.081075,1650388371.111424,36.000000,0.000000,4222.563965,4232.820313,4204.102539,4173.333496,4173.846191,0.000000,4.000000,91.000000,,,,0.000000,4.000000,4.000000,4.000000,4.000000,4.000000,100.000000,,,,,,,,,,,,,,,,,,,,,,,,,,,,,,,,,,,,,,,,,,,,,,,,,,,,,,,,,,,,,,,
1650388371.088890,1650388371.119241,37.000000,0.000000,4224.102539,4236.922852,4193.333496,4160.000000,4169.230957,0.000000,4.000000,91.000000,,,,0.000000,4.000000,4.000000,4.000000,4.000000,4.000000,100.000000,,,,,,,,,,,,,,,,,,,,,,,,,,,,,,,,,,,,,,,,,,,,,,,,,,,,,,,,,,,,,,,
1650388371.096704,1650388371.127158,38.000000,0.000000,4211.794922,4231.794922,4172.307617,4143.589844,4158.461426,0.000000,4.000000,91.000000,,,,0.000000,4.000000,4.000000,4.000000,4.000000,4.000000,100.000000,,,,,,,,,,,,,,,,,,,,,,,,,,,,,,,,,,,,,,,,,,,,,,,,,,,,,,,,,,,,,,,
1650388371.104519,1650388371.134975,39.000000,0.000000,4198.974121,4209.230957,4160.512695,4120.000000,4146.666504,0.000000,4.000000,91.000000,,,,0.000000,4.000000,4.000000,4.000000,4.000000,4.000000,100.000000,,,,,,,,,,,,,,,,,,,,,,,,,,,,,,,,,,,,,,,,,,,,,,,,,,,,,,,,,,,,,,,
1650388371.112334,1650388371.142892,40.000000,0.000000,4195.897461,4204.615234,4162.051270,4124.102539,4141.538574,0.000000,4.000000,91.000000,,,,0.000000,4.000000,4.000000,4.000000,4.000000,4.000000,100.000000,,,,,,,,,,,,,,,,,,,,,,,,,,,,,,,,,,,,,,,,,,,,,,,,,,,,,,,,,,,,,,,
1650388371.120149,1650388371.150710,41.000000,0.000000,4202.563965,4233.333496,4165.641113,4147.179688,4151.794922,0.000000,4.000000,91.000000,,,,0.000000,4.000000,4.000000,4.000000,4.000000,4.000000,100.000000,,,,,,,,,,,,,,,,,,,,,,,,,,,,,,,,,,,,,,,4.533550,5.677070,3.552765,2.578753,3.044165,2.719658,3.795432,2.380822,0.710933,1.659492,2.114874,5.380620,2.763273,1.507802,1.377301,6.883445,5.693518,3.506733,2.558222,2.384750,5.483282,6.313689,3.485617,3.298088,3.173954
1650388371.127964,1650388371.158627,42.000000,0.000000,4215.897461,4238.461426,4164.615234,4148.717773,4166.666504,0.000000,4.000000,91.000000,,,,0.000000,4.000000,4.000000,4.000000,4.000000,4.000000,100.000000,,,,,,,,,,,,,,,,,,,,,,,,,,,,,,,,,,,,,,,,,,,,,,,,,,,,,,,,,,,,,,,
1650388371.135779,1650388371.166544,43.000000,0.000000,4218.974121,4216.922852,4156.922852,4136.410156,4169.230957,0.000000,4.000000,91.000000,,,,0.000000,4.000000,4.000000,4.000000,4.000000,4.000000,100.000000,,,,,,,,,,,,,,,,,,,,,,,,,,,,,,,,,,,,,,,,,,,,,,,,,,,,,,,,,,,,,,,
1650388371.143593,1650388371.174362,44.000000,0.000000,4214.358887,4221.538574,4152.820313,4127.179688,4168.205078,0.000000,4.000000,91.000000,,,,0.000000,4.000000,4.000000,4.000000,4.000000,4.000000,100.000000,,,,,,,,,,,,,,,,,,,,,,,,,,,,,,,,,,,,,,,,,,,,,,,,,,,,,,,,,,,,,,,
1650388371.151408,1650388371.182180,45.000000,0.000000,4252.820313,4258.974121,4184.615234,4162.051270,4206.153809,0.000000,4.000000,91.000000,,,,0.000000,4.000000,4.000000,4.000000,4.000000,4.000000,100.000000,,,,,,,,,,,,,,,,,,,,,,,,,,,,,,,,,,,,,,,,,,,,,,,,,,,,,,,,,,,,,,,
1650388371.159223,1650388371.190097,46.000000,0.000000,4299.487305,4273.846191,4212.820313,4206.666504,4248.205078,0.000000,4.000000,91.000000,,,,0.000000,4.000000,4.000000,4.000000,4.000000,4.000000,100.000000,,,,,,,,,,,,,,,,,,,,,,,,,,,,,,,,,,,,,,,,,,,,,,,,,,,,,,,,,,,,,,,
1650388371.167038,1650388371.197914,47.000000,0.000000,4286.153809,4249.743652,4193.846191,4199.487305,4229.230957,0.000000,4.000000,91.000000,,,,0.000000,4.000000,4.000000,4.000000,4.000000,4.000000,100.000000,,,,,,,,,,,,,,,,,,,,,,,,,,,,,,,,,,,,,,,,,,,,,,,,,,,,,,,,,,,,,,,
1650388371.174852,1650388371.205831,48.000000,0.000000,4262.563965,4244.102539,4172.820313,4185.641113,4204.615234,0.000000,4.000000,91.000000,,,,0.000000,4.000000,4.000000,4.000000,4.000000,4.000000,100.000000,,,,,,,,,,,,,,,,,,,,,,,,,,,,,,,,,,,,,,,,,,,,,,,,,,,,,,,,,,,,,,,
1650388371.182667,1650388371.213648,49.000000,0.000000,4270.256348,4262.051270,4171.282227,4192.820313,4221.025879,0.000000,4.000000,91.000000,,,,0.000000,4.000000,4.000000,4.000000,4.000000,4.000000,100.000000,,,,,,,,,,,,,,,,,,,,,,,,,,,,,,,,,,,,,,,,,,,,,,,,,,,,,,,,,,,,,,,
1650388371.190482,1650388371.221564,50.000000,0.000000,4284.102539,4264.615234,4172.820313,4196.410156,4243.589844,0.000000,4.000000,91.000000,,,,0.000000,4.000000,4.000000,4.000000,4.000000,4.000000,100.000000,,,,,,,,,,,,,,,,,,,,,,,,,,,,,,,,,,,,,,,,,,,,,,,,,,,,,,,,,,,,,,,
1650388371.198297,1650388371.229381,51.000000,0.000000,4299.487305,4258.974121,4177.436035,4195.897461,4248.717773,0.000000,4.000000,91.000000,,,,0.000000,4.000000,4.000000,4.000000,4.000000,4.000000,100.000000,,,,,,,,,,,,,,,,,,,,,,,,,,,,,,,,,,,,,,,,,,,,,,,,,,,,,,,,,,,,,,,
1650388371.206112,1650388371.237298,52.000000,0.000000,4311.282227,4273.333496,4183.589844,4203.589844,4250.769043,0.000000,4.000000,91.000000,,,,0.000000,4.000000,4.000000,4.000000,4.000000,4.000000,100.000000,,,,,,,,,,,,,,,,,,,,,,,,,,,,,,,,,,,,,,,,,,,,,,,,,,,,,,,,,,,,,,,
1650388371.213927,1650388371.245115,53.000000,0.000000,4297.436035,4282.563965,4172.307617,4200.512695,4247.692383,0.000000,4.000000,91.000000,,,,0.000000,4.000000,4.000000,4.000000,4.000000,4.000000,100.000000,,,,,,,,,,,,,,,,,,,,,,,,,,,,,,,,,,,,,,,,,,,,,,,,,,,,,,,,,,,,,,,
1650388371.221741,1650388371.253031,54.000000,0.000000,4292.307617,4276.922852,4168.717773,4186.666504,4241.538574,0.000000,4.000000,91.000000,,,,0.000000,4.000000,4.000000,4.000000,4.000000,4.000000,100.000000,,,,,,,,,,,,,,,,,,,,,,,,,,,,,,,,,,,,,,,,,,,,,,,,,,,,,,,,,,,,,,,
1650388371.229556,1650388371.260848,55.000000,0.000000,4315.384766,4275.897461,4185.641113,4186.153809,4253.333496,0.000000,4.000000,91.000000,,,,0.000000,4.000000,4.000000,4.000000,4.000000,4.000000,100.000000,,,,,,,,,,,,,,,,,,,,,,,,,,,,,,,,,,,,,,,,,,,,,,,,,,,,,,,,,,,,,,,
1650388371.237371,1650388371.268765,56.000000,0.000000,4308.717773,4270.256348,4178.461426,4192.820313,4251.282227,0.000000,4.000000,91.000000,,,,0.000000,4.000000,4.000000,4.000000,4.000000,4.000000,100.000000,,,,,,,,,,,,,,,,,,,,,,,,,,,,,,,,,,,,,,,,,,,,,,,,,,,,,,,,,,,,,,,
1650388371.245186,1650388371.276682,57.000000,0.000000,4289.230957,4256.922852,4156.922852,4197.436035,4236.410156,0.000000,4.000000,91.000000,,,,0.000000,4.000000,4.000000,4.000000,4.000000,4.000000,100.000000,,,,,,,,,,,,,,,,,,,,,,,,,,,,,,,,,,,,,,,6.817636,5.491235,3.743622,2.679135,2.932120,3.275603,3.524911,2.270527,0.839232,1.538321,2.494461,5.181185,2.935565,1.462335,1.240108,8.258775,5.542114,3.457321,2.570342,2.275018,7.923265,6.520495,3.767995,3.599231,3.247145
1650388371.253001,1650388371.284500,58.000000,0.000000,4300.512695,4254.358887,4162.563965,4197.436035,4243.077148,0.000000,4.000000,91.000000,,,,0.000000,4.000000,4.000000,4.000000,4.000000,4.000000,100.000000,,,,,,,,,,,,,,,,,,,,,,,,,,,,,,,,,,,,,,,,,,,,,,,,,,,,,,,,,,,,,,,
1650388371.260816,1650388371.292417,59.000000,0.000000,4308.717773,4269.743652,4177.948730,4198.974121,4242.051270,0.000000,4.000000,91.000000,,,,0.000000,4.000000,4.000000,4.000000,4.000000,4.000000,100.000000,,,,,,,,,,,,,,,,,,,,,,,,,,,,,,,,,,,,,,,,,,,,,,,,,,,,,,,,,,,,,,,
1650388371.268630,1650388371.300234,60.000000,0.000000,4300.512695,4283.077148,4162.051270,4201.025879,4229.743652,0.000000,4.000000,91.000000,,,,0.000000,4.000000,4.000000,4.000000,4.000000,4.000000,100.000000,,,,,,,,,,,,,,,,,,,,,,,,,,,,,,,,,,,,,,,,,,,,,,,,,,,,,,,,,,,,,,,
