title:david_g_Neutral, start timestamp:1656263176.102901, stop timestamp:1656263181.112154, headset type:INSIGHT, headset serial:A2D201AE, headset firmware:932, channels:84, sampling rate:eeg_128;pm_0.1;pow_8, samples:642       , version:2.1, 
Timestamp,OriginalTimestamp,EEG.Counter,EEG.Interpolated,EEG.AF3,EEG.T7,EEG.Pz,EEG.T8,EEG.AF4,EEG.RawCq,EEG.Battery,EEG.BatteryPercent,MarkerIndex,MarkerType,MarkerValueInt,EEG.MarkerHardware,CQ.AF3,CQ.T7,CQ.Pz,CQ.T8,CQ.AF4,CQ.Overall,EQ.SampleRateQuality,EQ.OVERALL,EQ.AF3,EQ.T7,EQ.Pz,EQ.T8,EQ.AF4,PM.Engagement.IsActive,PM.Engagement.Scaled,PM.Engagement.Raw,PM.Engagement.Min,PM.Engagement.Max,PM.Excitement.IsActive,PM.Excitement.Scaled,PM.Excitement.Raw,PM.Excitement.Min,PM.Excitement.Max,PM.LongTermExcitement,PM.Stress.IsActive,PM.Stress.Scaled,PM.Stress.Raw,PM.Stress.Min,PM.Stress.Max,PM.Relaxation.IsActive,PM.Relaxation.Scaled,PM.Relaxation.Raw,PM.Relaxation.Min,PM.Relaxation.Max,PM.Interest.IsActive,PM.Interest.Scaled,PM.Interest.Raw,PM.Interest.Min,PM.Interest.Max,PM.Focus.IsActive,PM.Focus.Scaled,PM.Focus.Raw,PM.Focus.Min,PM.Focus.Max,POW.AF3.Theta,POW.AF3.Alpha,POW.AF3.BetaL,POW.AF3.BetaH,POW.AF3.Gamma,POW.T7.Theta,POW.T7.Alpha,POW.T7.BetaL,POW.T7.BetaH,POW.T7.Gamma,POW.Pz.Theta,POW.Pz.Alpha,POW.Pz.BetaL,POW.Pz.BetaH,POW.Pz.Gamma,POW.T8.Theta,POW.T8.Alpha,POW.T8.BetaL,POW.T8.BetaH,POW.T8.Gamma,POW.AF4.Theta,POW.AF4.Alpha,POW.AF4.BetaL,POW.AF4.BetaH,POW.AF4.Gamma
1656263176.102901,1656263176.117180,24.000000,0.000000,4297.948730,4254.358887,4111.282227,4030.256348,4253.333496,0.000000,4.000000,95.000000,,,,0.000000,4.000000,4.000000,4.000000,4.000000,4.000000,100.000000,,,,,,,,,,,,,,,,,,,,,,,,,,,,,,,,,,,,,,,,,,,,,,,,,,,,,,,,,,,,,,,
1656263176.110716,1656263176.125094,25.000000,0.000000,4288.205078,4249.230957,4108.717773,4022.564209,4254.871582,0.000000,4.000000,95.000000,,,,0.000000,4.000000,4.000000,4.000000,4.000000,4.000000,100.000000,,,,,,,,,,,,,,,,,,,,,,,,,,,,,,,,,,,,,,,,,,,,,,,,,,,,,,,,,,,,,,,
1656263176.118531,1656263176.132908,26.000000,0.000000,4293.333496,4249.230957,4097.436035,4017.948730,4261.025879,0.000000,4.000000,95.000000,,,,0.000000,4.000000,4.000000,4.000000,4.000000,4.000000,100.000000,,,,,,,,,,,,,,,,,,,,,,,,,,,,,,,,,,,,,,,,,,,,,,,,,,,,,,,,,,,,,,,
1656263176.126345,1656263176.140823,27.000000,0.000000,4304.102539,4250.256348,4079.487061,4020.512939,4252.307617,0.000000,4.000000,95.000000,,,,0.000000,4.000000,4.000000,4.000000,4.000000,4.000000,100.000000,,,,,,,,,,,,,,,,,,,,,,,,,,,,,,,,,,,,,,,,,,,,,,,,,,,,,,,,,,,,,,,
1656263176.134160,1656263176.148637,28.000000,0.000000,4304.615234,4250.769043,4076.923096,4015.897461,4245.641113,0.000000,4.000000,95.000000,,,,0.000000,4.000000,4.000000,4.000000,4.000000,4.000000,100.000000,,,,,,,,,,,,,,,,,,,,,,,,,,,,,,,,,,,,,,,,,,,,,,,,,,,,,,,,,,,,,,,
1656263176.141975,1656263176.156551,29.000000,0.000000,4297.436035,4261.538574,4087.692383,4014.358887,4250.769043,0.000000,4.000000,95.000000,,,,0.000000,4.000000,4.000000,4.000000,4.000000,4.000000,100.000000,,,,,,,,,,,,,,,,,,,,,,,,,,,,,,,,,,,,,,,,,,,,,,,,,,,,,,,,,,,,,,,
1656263176.149790,1656263176.164366,30.000000,0.000000,4281.025879,4265.641113,4100.512695,4016.410156,4249.743652,0.000000,4.000000,95.000000,,,,0.000000,4.000000,4.000000,4.000000,4.000000,4.000000,100.000000,,,,,,,,,,,,,,,,,,,,,,,,,,,,,,,,,,,,,,,,,,,,,,,,,,,,,,,,,,,,,,,
1656263176.157604,1656263176.172280,31.000000,0.000000,4274.358887,4257.436035,4122.563965,4018.974365,4250.769043,0.000000,4.000000,95.000000,,,,0.000000,4.000000,4.000000,4.000000,4.000000,4.000000,100.000000,,,,,,,,,,,,,,,,,,,,,,,,,,,,,,,,,,,,,,,,,,,,,,,,,,,,,,,,,,,,,,,
1656263176.165419,1656263176.180095,32.000000,0.000000,4295.384766,4257.436035,4124.615234,4021.538574,4258.461426,0.000000,4.000000,95.000000,,,,0.000000,4.000000,4.000000,4.000000,4.000000,4.000000,100.000000,,,,,,,,,,,,,,,,,,,,,,,,,,,,,,,,,,,,,,,,,,,,,,,,,,,,,,,,,,,,,,,
1656263176.173234,1656263176.188009,33.000000,0.000000,4312.307617,4265.641113,4097.948730,4016.923096,4253.333496,0.000000,4.000000,95.000000,,,,0.000000,4.000000,4.000000,4.000000,4.000000,4.000000,100.000000,,,,,,,,,,,,,,,,,,,,,,,,,,,,,,,,,,,,,,,,,,,,,,,,,,,,,,,,,,,,,,,
1656263176.181049,1656263176.195823,34.000000,0.000000,4306.666504,4274.358887,4088.205078,4013.333252,4243.589844,0.000000,4.000000,95.000000,,,,0.000000,4.000000,4.000000,4.000000,4.000000,4.000000,100.000000,,,,,,,,,,,,,,,,,,,,,,,,,,,,,,,,,,,,,,,,,,,,,,,,,,,,,,,,,,,,,,,
1656263176.188863,1656263176.203738,35.000000,0.000000,4292.307617,4264.102539,4101.538574,4022.051270,4240.512695,0.000000,4.000000,95.000000,,,,0.000000,4.000000,4.000000,4.000000,4.000000,4.000000,100.000000,,,,,,,,,,,,,,,,,,,,,,,,,,,,,,,,,,,,,,,,,,,,,,,,,,,,,,,,,,,,,,,
1656263176.196678,1656263176.211552,36.000000,0.000000,4290.256348,4245.641113,4104.102539,4031.281982,4247.179688,0.000000,4.000000,95.000000,,,,0.000000,4.000000,4.000000,4.000000,4.000000,4.000000,100.000000,,,,,,,,,,,,,,,,,,,,,,,,,,,,,,,,,,,,,,,3.323385,2.714278,2.001320,1.585844,1.188887,1.590331,1.162450,0.458590,1.583684,1.705175,8.723100,6.628606,4.819597,2.565938,1.026237,0.823123,1.527233,0.660721,1.466000,0.825146,1.225967,1.863898,1.665376,1.809609,0.628950
1656263176.204493,1656263176.219466,37.000000,0.000000,4305.641113,4254.871582,4092.820557,4035.897461,4262.051270,0.000000,4.000000,95.000000,,,,0.000000,4.000000,4.000000,4.000000,4.000000,4.000000,100.000000,,,,,,,,,,,,,,,,,,,,,,,,,,,,,,,,,,,,,,,,,,,,,,,,,,,,,,,,,,,,,,,
1656263176.212308,1656263176.227281,38.000000,0.000000,4315.384766,4280.000000,4090.256348,4043.076904,4269.230957,0.000000,4.000000,95.000000,,,,0.000000,4.000000,4.000000,4.000000,4.000000,4.000000,100.000000,,,,,,,,,,,,,,,,,,,,,,,,,,,,,,,,,,,,,,,,,,,,,,,,,,,,,,,,,,,,,,,
1656263176.220122,1656263176.235195,39.000000,0.000000,4305.641113,4284.615234,4089.230713,4040.000000,4273.333496,0.000000,4.000000,95.000000,,,,0.000000,4.000000,4.000000,4.000000,4.000000,4.000000,100.000000,,,,,,,,,,,,,,,,,,,,,,,,,,,,,,,,,,,,,,,,,,,,,,,,,,,,,,,,,,,,,,,
1656263176.227937,1656263176.243009,40.000000,0.000000,4295.384766,4261.025879,4077.435791,4021.538574,4262.051270,0.000000,4.000000,95.000000,,,,0.000000,4.000000,4.000000,4.000000,4.000000,4.000000,100.000000,,,,,,,,,,,,,,,,,,,,,,,,,,,,,,,,,,,,,,,,,,,,,,,,,,,,,,,,,,,,,,,
1656263176.235752,1656263176.250924,41.000000,0.000000,4294.871582,4245.128418,4069.743652,4013.333252,4237.436035,0.000000,4.000000,95.000000,,,,0.000000,4.000000,4.000000,4.000000,4.000000,4.000000,100.000000,,,,,,,,,,,,,,,,,,,,,,,,,,,,,,,,,,,,,,,,,,,,,,,,,,,,,,,,,,,,,,,
1656263176.243567,1656263176.258838,42.000000,0.000000,4288.205078,4256.410156,4071.794922,4021.025635,4231.282227,0.000000,4.000000,95.000000,,,,0.000000,4.000000,4.000000,4.000000,4.000000,4.000000,100.000000,,,,,,,,,,,,,,,,,,,,,,,,,,,,,,,,,,,,,,,,,,,,,,,,,,,,,,,,,,,,,,,
1656263176.251381,1656263176.266652,43.000000,0.000000,4283.589844,4265.641113,4074.871826,4024.102539,4247.692383,0.000000,4.000000,95.000000,,,,0.000000,4.000000,4.000000,4.000000,4.000000,4.000000,100.000000,,,,,,,,,,,,,,,,,,,,,,,,,,,,,,,,,,,,,,,,,,,,,,,,,,,,,,,,,,,,,,,
1656263176.259196,1656263176.274567,44.000000,0.000000,4293.333496,4252.307617,4080.512939,4025.128174,4253.333496,0.000000,4.000000,95.000000,,,,0.000000,4.000000,4.000000,4.000000,4.000000,4.000000,100.000000,,,,,,,,,,,,,,,,,,,,,,,,,,,,,,,,,,,,,,,,,,,,,,,,,,,,,,,,,,,,,,,
1656263176.267011,1656263176.282381,45.000000,0.000000,4290.769043,4233.846191,4101.538574,4029.743652,4244.102539,0.000000,4.000000,95.000000,,,,0.000000,4.000000,4.000000,4.000000,4.000000,4.000000,100.000000,,,,,,,,,,,,,,,,,,,,,,,,,,,,,,,,,,,,,,,,,,,,,,,,,,,,,,,,,,,,,,,
1656263176.274825,1656263176.290295,46.000000,0.000000,4287.179688,4241.025879,4142.051270,4038.974365,4246.153809,0.000000,4.000000,95.000000,,,,0.000000,4.000000,4.000000,4.000000,4.000000,4.000000,100.000000,,,,,,,,,,,,,,,,,,,,,,,,,,,,,,,,,,,,,,,,,,,,,,,,,,,,,,,,,,,,,,,
1656263176.282640,1656263176.298110,47.000000,0.000000,4299.487305,4255.897461,4166.153809,4042.051270,4247.692383,0.000000,4.000000,95.000000,,,,0.000000,4.000000,4.000000,4.000000,4.000000,4.000000,100.000000,,,,,,,,,,,,,,,,,,,,,,,,,,,,,,,,,,,,,,,,,,,,,,,,,,,,,,,,,,,,,,,
1656263176.290455,1656263176.306024,48.000000,0.000000,4302.051270,4250.256348,4150.769043,4031.794922,4240.512695,0.000000,4.000000,95.000000,,,,0.000000,4.000000,4.000000,4.000000,4.000000,4.000000,100.000000,,,,,,,,,,,,,,,,,,,,,,,,,,,,,,,,,,,,,,,,,,,,,,,,,,,,,,,,,,,,,,,
1656263176.298270,1656263176.313839,49.000000,0.000000,4306.666504,4250.256348,4131.794922,4042.051270,4250.256348,0.000000,4.000000,95.000000,,,,0.000000,4.000000,4.000000,4.000000,4.000000,4.000000,100.000000,,,,,,,,,,,,,,,,,,,,,,,,,,,,,,,,,,,,,,,,,,,,,,,,,,,,,,,,,,,,,,,
1656263176.306085,1656263176.321753,50.000000,0.000000,4315.384766,4263.077148,4123.589844,4066.666748,4260.512695,0.000000,4.000000,95.000000,,,,0.000000,4.000000,4.000000,4.000000,4.000000,4.000000,100.000000,,,,,,,,,,,,,,,,,,,,,,,,,,,,,,,,,,,,,,,,,,,,,,,,,,,,,,,,,,,,,,,
1656263176.313899,1656263176.329567,51.000000,0.000000,4293.846191,4255.384766,4108.205078,4054.358887,4243.077148,0.000000,4.000000,95.000000,,,,0.000000,4.000000,4.000000,4.000000,4.000000,4.000000,100.000000,,,,,,,,,,,,,,,,,,,,,,,,,,,,,,,,,,,,,,,,,,,,,,,,,,,,,,,,,,,,,,,
1656263176.321714,1656263176.337482,52.000000,0.000000,4275.897461,4246.666504,4088.205078,4031.281982,4232.307617,0.000000,4.000000,95.000000,,,,0.000000,4.000000,4.000000,4.000000,4.000000,4.000000,100.000000,,,,,,,,,,,,,,,,,,,,,,,,,,,,,,,,,,,,,,,2.393999,2.855010,1.315484,1.535943,1.341083,1.818801,1.296629,0.411189,1.447368,1.491655,8.412134,6.671020,4.542592,2.707721,1.063396,0.832459,1.688949,0.733648,1.427316,0.852152,1.161487,1.778406,1.339764,1.951908,0.599417
1656263176.329529,1656263176.345296,53.000000,0.000000,4293.333496,4258.974121,4066.153809,4028.718018,4244.102539,0.000000,4.000000,95.000000,,,,0.000000,4.000000,4.000000,4.000000,4.000000,4.000000,100.000000,,,,,,,,,,,,,,,,,,,,,,,,,,,,,,,,,,,,,,,,,,,,,,,,,,,,,,,,,,,,,,,
1656263176.337344,1656263176.353210,54.000000,0.000000,4302.051270,4250.256348,4060.000000,4031.281982,4243.589844,0.000000,4.000000,95.000000,,,,0.000000,4.000000,4.000000,4.000000,4.000000,4.000000,100.000000,,,,,,,,,,,,,,,,,,,,,,,,,,,,,,,,,,,,,,,,,,,,,,,,,,,,,,,,,,,,,,,
1656263176.345158,1656263176.361025,55.000000,0.000000,4290.769043,4220.512695,4079.487061,4043.589844,4232.820313,0.000000,4.000000,95.000000,,,,0.000000,4.000000,4.000000,4.000000,4.000000,4.000000,100.000000,,,,,,,,,,,,,,,,,,,,,,,,,,,,,,,,,,,,,,,,,,,,,,,,,,,,,,,,,,,,,,,
1656263176.352973,1656263176.368939,56.000000,0.000000,4290.769043,4230.256348,4100.512695,4063.589844,4236.922852,0.000000,4.000000,95.000000,,,,0.000000,4.000000,4.000000,4.000000,4.000000,4.000000,100.000000,,,,,,,,,,,,,,,,,,,,,,,,,,,,,,,,,,,,,,,,,,,,,,,,,,,,,,,,,,,,,,,
1656263176.360788,1656263176.376753,57.000000,0.000000,4296.410156,4262.563965,4113.333496,4065.128174,4242.563965,0.000000,4.000000,95.000000,,,,0.000000,4.000000,4.000000,4.000000,4.000000,4.000000,100.000000,,,,,,,,,,,,,,,,,,,,,,,,,,,,,,,,,,,,,,,,,,,,,,,,,,,,,,,,,,,,,,,
1656263176.368603,1656263176.384668,58.000000,0.000000,4283.077148,4266.666504,4126.666504,4042.564209,4231.282227,0.000000,4.000000,95.000000,,,,0.000000,4.000000,4.000000,4.000000,4.000000,4.000000,100.000000,,,,,,,,,,,,,,,,,,,,,,,,,,,,,,,,,,,,,,,,,,,,,,,,,,,,,,,,,,,,,,,
1656263176.376417,1656263176.392482,59.000000,0.000000,4266.666504,4253.846191,4139.487305,4024.615479,4220.512695,0.000000,4.000000,95.000000,,,,0.000000,4.000000,4.000000,4.000000,4.000000,4.000000,100.000000,,,,,,,,,,,,,,,,,,,,,,,,,,,,,,,,,,,,,,,,,,,,,,,,,,,,,,,,,,,,,,,
1656263176.384232,1656263176.400396,60.000000,0.000000,4270.256348,4244.615234,4131.282227,4030.256348,4221.538574,0.000000,4.000000,95.000000,,,,0.000000,4.000000,4.000000,4.000000,4.000000,4.000000,100.000000,,,,,,,,,,,,,,,,,,,,,,,,,,,,,,,,,,,,,,,,,,,,,,,,,,,,,,,,,,,,,,,
1656263176.392047,1656263176.408211,61.000000,0.000000,4278.974121,4232.307617,4107.692383,4045.641113,4221.025879,0.000000,4.000000,95.000000,,,,0.000000,4.000000,4.000000,4.000000,4.000000,4.000000,100.000000,,,,,,,,,,,,,,,,,,,,,,,,,,,,,,,,,,,,,,,,,,,,,,,,,,,,,,,,,,,,,,,
1656263176.399861,1656263176.416125,62.000000,0.000000,4281.025879,4230.256348,4100.000000,4060.512939,4219.487305,0.000000,4.000000,95.000000,,,,0.000000,4.000000,4.000000,4.000000,4.000000,4.000000,100.000000,,,,,,,,,,,,,,,,,,,,,,,,,,,,,,,,,,,,,,,,,,,,,,,,,,,,,,,,,,,,,,,
1656263176.407676,1656263176.423940,63.000000,0.000000,4274.358887,4235.384766,4099.487305,4064.102539,4225.128418,0.000000,4.000000,95.000000,,,,0.000000,4.000000,4.000000,4.000000,4.000000,4.000000,100.000000,,,,,,,,,,,,,,,,,,,,,,,,,,,,,,,,,,,,,,,,,,,,,,,,,,,,,,,,,,,,,,,
1656263176.415491,1656263176.431854,64.000000,0.000000,4274.358887,4231.282227,4097.948730,4056.410156,4239.487305,450.000000,4.000000,95.000000,,,,0.000000,4.000000,4.000000,4.000000,4.000000,4.000000,100.000000,,,,,,,,,,,,,,,,,,,,,,,,,,,,,,,,,,,,,,,,,,,,,,,,,,,,,,,,,,,,,,,
1656263176.423306,1656263176.439768,65.000000,0.000000,4280.512695,4245.128418,4107.179688,4056.923096,4249.230957,450.000000,4.000000,95.000000,,,,0.000000,4.000000,4.000000,4.000000,4.000000,4.000000,100.000000,,,,,,,,,,,,,,,,,,,,,,,,,,,,,,,,,,,,,,,,,,,,,,,,,,,,,,,,,,,,,,,
1656263176.431121,1656263176.447583,66.000000,0.000000,4288.205078,4271.794922,4121.025879,4064.615479,4246.666504,16166.000000,4.000000,95.000000,,,,0.000000,4.000000,4.000000,4.000000,4.000000,4.000000,100.000000,,,,,,,,,,,,,,,,,,,,,,,,,,,,,,,,,,,,,,,,,,,,,,,,,,,,,,,,,,,,,,,
1656263176.438935,1656263176.455497,67.000000,0.000000,4301.025879,4277.436035,4134.358887,4066.666748,4249.743652,450.000000,4.000000,95.000000,,,,0.000000,4.000000,4.000000,4.000000,4.000000,4.000000,100.000000,,,,,,,,,,,,,,,,,,,,,,,,,,,,,,,,,,,,,,,,,,,,,,,,,,,,,,,,,,,,,,,
1656263176.446750,1656263176.463311,68.000000,0.000000,4290.256348,4260.000000,4151.282227,4062.051270,4247.179688,16170.000000,4.000000,95.000000,,,,0.000000,4.000000,4.000000,4.000000,4.000000,4.000000,100.000000,1.000000,83.333336,4.000000,4.000000,2.000000,4.000000,4.000000,,,,,,,,,,,,,,,,,,,,,,,,,,,,,,,,1.979100,2.950948,0.804948,1.622095,1.421136,1.979674,1.412073,0.398490,1.355136,1.288306,7.844574,6.334710,3.945127,2.841114,1.048088,0.883445,1.713727,0.896849,1.350937,0.870432,1.454381,1.746256,1.052520,2.047012,0.569719
1656263176.454565,1656263176.471226,69.000000,0.000000,4270.256348,4251.794922,4154.871582,4054.871826,4235.384766,450.000000,4.000000,95.000000,,,,0.000000,4.000000,4.000000,4.000000,4.000000,4.000000,100.000000,,,,,,,,,,,,,,,,,,,,,,,,,,,,,,,,,,,,,,,,,,,,,,,,,,,,,,,,,,,,,,,
1656263176.462380,1656263176.479040,70.000000,0.000000,4281.025879,4255.384766,4133.846191,4048.718018,4230.769043,16140.000000,4.000000,95.000000,,,,0.000000,4.000000,4.000000,4.000000,4.000000,4.000000,100.000000,,,,,,,,,,,,,,,,,,,,,,,,,,,,,,,,,,,,,,,,,,,,,,,,,,,,,,,,,,,,,,,
1656263176.470194,1656263176.486954,71.000000,0.000000,4300.512695,4237.436035,4113.333496,4044.615479,4228.717773,450.000000,4.000000,95.000000,,,,0.000000,4.000000,4.000000,4.000000,4.000000,4.000000,100.000000,,,,,,,,,,,,,,,,,,,,,,,,,,,,,,,,,,,,,,,,,,,,,,,,,,,,,,,,,,,,,,,
1656263176.478009,1656263176.494769,72.000000,0.000000,4303.077148,4222.051270,4112.820313,4039.487061,4227.179688,450.000000,4.000000,95.000000,,,,0.000000,4.000000,4.000000,4.000000,4.000000,4.000000,100.000000,,,,,,,,,,,,,,,,,,,,,,,,,,,,,,,,,,,,,,,,,,,,,,,,,,,,,,,,,,,,,,,
1656263176.485824,1656263176.502683,73.000000,0.000000,4297.948730,4237.948730,4121.538574,4033.333252,4231.794922,16137.000000,4.000000,95.000000,,,,0.000000,4.000000,4.000000,4.000000,4.000000,4.000000,100.000000,,,,,,,,,,,,,,,,,,,,,,,,,,,,,,,,,,,,,,,,,,,,,,,,,,,,,,,,,,,,,,,
1656263176.493638,1656263176.510497,74.000000,0.000000,4293.846191,4254.871582,4127.179688,4043.076904,4235.897461,450.000000,4.000000,95.000000,,,,0.000000,4.000000,4.000000,4.000000,4.000000,4.000000,100.000000,,,,,,,,,,,,,,,,,,,,,,,,,,,,,,,,,,,,,,,,,,,,,,,,,,,,,,,,,,,,,,,
1656263176.501453,1656263176.518412,75.000000,0.000000,4281.025879,4247.692383,4113.846191,4055.897461,4224.615234,16250.000000,4.000000,95.000000,,,,0.000000,4.000000,4.000000,4.000000,4.000000,4.000000,100.000000,,,,,,,,,,,,,,,,,,,,,,,,,,,,,,,,,,,,,,,,,,,,,,,,,,,,,,,,,,,,,,,
1656263176.509268,1656263176.526226,76.000000,0.000000,4255.897461,4237.436035,4104.615234,4048.718018,4198.461426,450.000000,4.000000,95.000000,,,,0.000000,4.000000,4.000000,4.000000,4.000000,4.000000,100.000000,,,,,,,,,,,,,,,,,,,,,,,,,,,,,,,,,,,,,,,,,,,,,,,,,,,,,,,,,,,,,,,
1656263176.517083,1656263176.534140,77.000000,0.000000,4243.589844,4234.358887,4124.102539,4040.000000,4186.666504,450.000000,4.000000,95.000000,,,,0.000000,4.000000,4.000000,4.000000,4.000000,4.000000,100.000000,,,,,,,,,,,,,,,,,,,,,,,,,,,,,,,,,,,,,,,,,,,,,,,,,,,,,,,,,,,,,,,
1656263176.524897,1656263176.541955,78.000000,0.000000,4264.102539,4229.743652,4129.743652,4050.256348,4198.974121,450.000000,4.000000,95.000000,,,,0.000000,4.000000,4.000000,4.000000,4.000000,4.000000,100.000000,,,,,,,,,,,,,,,,,,,,,,,,,,,,,,,,,,,,,,,,,,,,,,,,,,,,,,,,,,,,,,,
1656263176.532712,1656263176.549869,79.000000,0.000000,4285.641113,4233.846191,4116.410156,4064.615479,4215.384766,16250.000000,4.000000,95.000000,,,,0.000000,4.000000,4.000000,4.000000,4.000000,4.000000,100.000000,,,,,,,,,,,,,,,,,,,,,,,,,,,,,,,,,,,,,,,,,,,,,,,,,,,,,,,,,,,,,,,
1656263176.540527,1656263176.557684,80.000000,0.000000,4276.922852,4247.179688,4124.615234,4071.281982,4222.051270,450.000000,4.000000,95.000000,,,,0.000000,4.000000,4.000000,4.000000,4.000000,4.000000,100.000000,,,,,,,,,,,,,,,,,,,,,,,,,,,,,,,,,,,,,,,,,,,,,,,,,,,,,,,,,,,,,,,
1656263176.548342,1656263176.565598,81.000000,0.000000,4263.589844,4244.615234,4143.077148,4073.333252,4208.205078,450.000000,4.000000,95.000000,,,,0.000000,4.000000,4.000000,4.000000,4.000000,4.000000,100.000000,,,,,,,,,,,,,,,,,,,,,,,,,,,,,,,,,,,,,,,,,,,,,,,,,,,,,,,,,,,,,,,
1656263176.556157,1656263176.573412,82.000000,0.000000,4266.153809,4239.487305,4152.307617,4060.000000,4195.384766,450.000000,4.000000,95.000000,,,,0.000000,4.000000,4.000000,4.000000,4.000000,4.000000,100.000000,,,,,,,,,,,,,,,,,,,,,,,,,,,,,,,,,,,,,,,,,,,,,,,,,,,,,,,,,,,,,,,
1656263176.563971,1656263176.581327,83.000000,0.000000,4272.307617,4242.563965,4153.333496,4035.897461,4212.307617,16250.000000,4.000000,95.000000,,,,0.000000,4.000000,4.000000,4.000000,4.000000,4.000000,100.000000,,,,,,,,,,,,,,,,,,,,,,,,,,,,,,,,,,,,,,,,,,,,,,,,,,,,,,,,,,,,,,,
1656263176.571786,1656263176.589241,84.000000,0.000000,4272.820313,4246.153809,4158.461426,4048.205078,4233.333496,450.000000,4.000000,95.000000,,,,0.000000,4.000000,4.000000,4.000000,4.000000,4.000000,100.000000,,,,,,,,,,,,,,,,,,,,,,,,,,,,,,,,,,,,,,,1.941946,2.978531,0.529466,1.845378,1.403387,2.017464,1.452177,0.446713,1.304940,1.132681,7.180836,5.879655,3.289663,2.967597,0.975561,1.001651,1.626472,1.112796,1.266639,0.870887,1.962058,1.805696,0.868315,2.106227,0.538215
1656263176.579601,1656263176.597055,85.000000,0.000000,4266.153809,4247.692383,4166.153809,4071.281982,4227.179688,450.000000,4.000000,95.000000,,,,0.000000,4.000000,4.000000,4.000000,4.000000,4.000000,100.000000,,,,,,,,,,,,,,,,,,,,,,,,,,,,,,,,,,,,,,,,,,,,,,,,,,,,,,,,,,,,,,,
1656263176.587415,1656263176.604870,86.000000,0.000000,4259.487305,4234.871582,4164.615234,4045.641113,4208.717773,450.000000,4.000000,95.000000,,,,0.000000,4.000000,4.000000,4.000000,4.000000,4.000000,100.000000,,,,,,,,,,,,,,,,,,,,,,,,,,,,,,,,,,,,,,,,,,,,,,,,,,,,,,,,,,,,,,,
1656263176.595230,1656263176.612784,87.000000,0.000000,4265.641113,4222.563965,4164.102539,4024.102539,4206.153809,16250.000000,4.000000,95.000000,,,,0.000000,4.000000,4.000000,4.000000,4.000000,4.000000,100.000000,,,,,,,,,,,,,,,,,,,,,,,,,,,,,,,,,,,,,,,,,,,,,,,,,,,,,,,,,,,,,,,
1656263176.603045,1656263176.620698,88.000000,0.000000,4276.410156,4235.384766,4159.487305,4052.307617,4214.358887,450.000000,4.000000,95.000000,,,,0.000000,4.000000,4.000000,4.000000,4.000000,4.000000,100.000000,,,,,,,,,,,,,,,,,,,,,,,,,,,,,,,,,,,,,,,,,,,,,,,,,,,,,,,,,,,,,,,
1656263176.610860,1656263176.628513,89.000000,0.000000,4274.871582,4251.282227,4143.589844,4072.307617,4228.717773,450.000000,4.000000,95.000000,,,,0.000000,4.000000,4.000000,4.000000,4.000000,4.000000,100.000000,,,,,,,,,,,,,,,,,,,,,,,,,,,,,,,,,,,,,,,,,,,,,,,,,,,,,,,,,,,,,,,
1656263176.618674,1656263176.636427,90.000000,0.000000,4270.769043,4246.153809,4143.077148,4067.692383,4242.051270,450.000000,4.000000,95.000000,,,,0.000000,4.000000,4.000000,4.000000,4.000000,4.000000,100.000000,,,,,,,,,,,,,,,,,,,,,,,,,,,,,,,,,,,,,,,,,,,,,,,,,,,,,,,,,,,,,,,
1656263176.626489,1656263176.644241,91.000000,0.000000,4281.025879,4240.000000,4157.948730,4066.666748,4234.871582,16250.000000,4.000000,95.000000,,,,0.000000,4.000000,4.000000,4.000000,4.000000,4.000000,100.000000,,,,,,,,,,,,,,,,,,,,,,,,,,,,,,,,,,,,,,,,,,,,,,,,,,,,,,,,,,,,,,,
1656263176.634304,1656263176.652156,92.000000,0.000000,4292.820313,4245.128418,4157.948730,4064.102539,4217.948730,450.000000,4.000000,95.000000,,,,0.000000,4.000000,4.000000,4.000000,4.000000,4.000000,100.000000,,,,,,,,,,,,,,,,,,,,,,,,,,,,,,,,,,,,,,,,,,,,,,,,,,,,,,,,,,,,,,,
1656263176.642119,1656263176.659970,93.000000,0.000000,4287.179688,4248.717773,4136.410156,4063.076904,4218.461426,450.000000,4.000000,95.000000,,,,0.000000,4.000000,4.000000,4.000000,4.000000,4.000000,100.000000,,,,,,,,,,,,,,,,,,,,,,,,,,,,,,,,,,,,,,,,,,,,,,,,,,,,,,,,,,,,,,,
1656263176.649933,1656263176.667884,94.000000,0.000000,4260.000000,4246.153809,4120.000000,4067.692383,4222.051270,450.000000,4.000000,95.000000,,,,0.000000,4.000000,4.000000,4.000000,4.000000,4.000000,100.000000,,,,,,,,,,,,,,,,,,,,,,,,,,,,,,,,,,,,,,,,,,,,,,,,,,,,,,,,,,,,,,,
1656263176.657748,1656263176.675699,95.000000,0.000000,4241.538574,4244.102539,4135.384766,4069.230713,4213.846191,16250.000000,4.000000,95.000000,,,,0.000000,4.000000,4.000000,4.000000,4.000000,4.000000,100.000000,,,,,,,,,,,,,,,,,,,,,,,,,,,,,,,,,,,,,,,,,,,,,,,,,,,,,,,,,,,,,,,
1656263176.665563,1656263176.683513,96.000000,0.000000,4254.871582,4250.769043,4168.205078,4059.487061,4215.384766,450.000000,4.000000,95.000000,,,,0.000000,4.000000,4.000000,4.000000,4.000000,4.000000,100.000000,,,,,,,,,,,,,,,,,,,,,,,,,,,,,,,,,,,,,,,,,,,,,,,,,,,,,,,,,,,,,,,
1656263176.673378,1656263176.691228,97.000000,0.000000,4282.051270,4260.000000,4175.384766,4056.410156,4224.102539,450.000000,4.000000,95.000000,,,,0.000000,4.000000,4.000000,4.000000,4.000000,4.000000,100.000000,,,,,,,,,,,,,,,,,,,,,,,,,,,,,,,,,,,,,,,,,,,,,,,,,,,,,,,,,,,,,,,
1656263176.681193,1656263176.699142,98.000000,0.000000,4300.000000,4258.461426,4153.846191,4067.692383,4224.615234,450.000000,4.000000,95.000000,,,,0.000000,4.000000,4.000000,4.000000,4.000000,4.000000,100.000000,,,,,,,,,,,,,,,,,,,,,,,,,,,,,,,,,,,,,,,,,,,,,,,,,,,,,,,,,,,,,,,
1656263176.689007,1656263176.706956,99.000000,0.000000,4295.897461,4251.282227,4143.077148,4072.820557,4226.666504,16250.000000,4.000000,95.000000,,,,0.000000,4.000000,4.000000,4.000000,4.000000,4.000000,100.000000,,,,,,,,,,,,,,,,,,,,,,,,,,,,,,,,,,,,,,,,,,,,,,,,,,,,,,,,,,,,,,,
1656263176.696822,1656263176.714871,100.000000,0.000000,4277.436035,4246.666504,4151.794922,4066.153809,4226.666504,450.000000,4.000000,95.000000,,,,0.000000,4.000000,4.000000,4.000000,4.000000,4.000000,100.000000,,,,,,,,,,,,,,,,,,,,,,,,,,,,,,,,,,,,,,,2.024003,2.924294,0.448409,2.129351,1.293621,1.907759,1.380059,0.574776,1.279519,1.037856,6.527689,5.719751,2.933570,3.050998,0.862807,1.115264,1.496018,1.331953,1.214511,0.845392,2.453434,1.970225,0.796692,2.134898,0.503703
1656263176.704637,1656263176.722685,101.000000,0.000000,4268.717773,4237.436035,4144.102539,4063.589844,4213.846191,450.000000,4.000000,95.000000,,,,0.000000,4.000000,4.000000,4.000000,4.000000,4.000000,100.000000,,,,,,,,,,,,,,,,,,,,,,,,,,,,,,,,,,,,,,,,,,,,,,,,,,,,,,,,,,,,,,,
1656263176.712451,1656263176.730599,102.000000,0.000000,4274.358887,4229.743652,4128.205078,4069.230713,4208.205078,450.000000,4.000000,95.000000,,,,0.000000,4.000000,4.000000,4.000000,4.000000,4.000000,100.000000,,,,,,,,,,,,,,,,,,,,,,,,,,,,,,,,,,,,,,,,,,,,,,,,,,,,,,,,,,,,,,,
1656263176.720266,1656263176.738414,103.000000,0.000000,4278.974121,4233.846191,4137.436035,4068.205078,4218.461426,16250.000000,4.000000,95.000000,,,,0.000000,4.000000,4.000000,4.000000,4.000000,4.000000,100.000000,,,,,,,,,,,,,,,,,,,,,,,,,,,,,,,,,,,,,,,,,,,,,,,,,,,,,,,,,,,,,,,
1656263176.728081,1656263176.746328,104.000000,0.000000,4269.230957,4227.179688,4147.179688,4065.128174,4220.000000,450.000000,4.000000,95.000000,,,,0.000000,4.000000,4.000000,4.000000,4.000000,4.000000,100.000000,,,,,,,,,,,,,,,,,,,,,,,,,,,,,,,,,,,,,,,,,,,,,,,,,,,,,,,,,,,,,,,
1656263176.735896,1656263176.754242,105.000000,0.000000,4264.615234,4229.743652,4134.358887,4073.846191,4225.128418,450.000000,4.000000,95.000000,,,,0.000000,4.000000,4.000000,4.000000,4.000000,4.000000,100.000000,,,,,,,,,,,,,,,,,,,,,,,,,,,,,,,,,,,,,,,,,,,,,,,,,,,,,,,,,,,,,,,
1656263176.743710,1656263176.762057,106.000000,0.000000,4271.282227,4249.743652,4130.769043,4071.281982,4230.256348,450.000000,4.000000,95.000000,,,,0.000000,4.000000,4.000000,4.000000,4.000000,4.000000,100.000000,,,,,,,,,,,,,,,,,,,,,,,,,,,,,,,,,,,,,,,,,,,,,,,,,,,,,,,,,,,,,,,
1656263176.751525,1656263176.769971,107.000000,0.000000,4264.102539,4245.641113,4147.179688,4049.230713,4206.153809,16250.000000,4.000000,95.000000,,,,0.000000,4.000000,4.000000,4.000000,4.000000,4.000000,100.000000,,,,,,,,,,,,,,,,,,,,,,,,,,,,,,,,,,,,,,,,,,,,,,,,,,,,,,,,,,,,,,,
1656263176.759340,1656263176.777786,108.000000,0.000000,4254.871582,4224.102539,4158.974121,4053.846191,4196.410156,450.000000,4.000000,95.000000,,,,0.000000,4.000000,4.000000,4.000000,4.000000,4.000000,100.000000,,,,,,,,,,,,,,,,,,,,,,,,,,,,,,,,,,,,,,,,,,,,,,,,,,,,,,,,,,,,,,,
1656263176.767155,1656263176.785700,109.000000,0.000000,4259.487305,4225.641113,4152.307617,4078.974365,4214.358887,450.000000,4.000000,95.000000,,,,0.000000,4.000000,4.000000,4.000000,4.000000,4.000000,100.000000,,,,,,,,,,,,,,,,,,,,,,,,,,,,,,,,,,,,,,,,,,,,,,,,,,,,,,,,,,,,,,,
1656263176.774969,1656263176.793514,110.000000,0.000000,4262.051270,4239.487305,4143.589844,4076.923096,4210.256348,450.000000,4.000000,95.000000,,,,0.000000,4.000000,4.000000,4.000000,4.000000,4.000000,100.000000,,,,,,,,,,,,,,,,,,,,,,,,,,,,,,,,,,,,,,,,,,,,,,,,,,,,,,,,,,,,,,,
1656263176.782784,1656263176.801429,111.000000,0.000000,4254.871582,4243.077148,4133.846191,4071.281982,4204.102539,16250.000000,4.000000,95.000000,,,,0.000000,4.000000,4.000000,4.000000,4.000000,4.000000,100.000000,,,,,,,,,,,,,,,,,,,,,,,,,,,,,,,,,,,,,,,,,,,,,,,,,,,,,,,,,,,,,,,
1656263176.790599,1656263176.809243,112.000000,0.000000,4252.820313,4229.230957,4103.077148,4069.230713,4216.922852,450.000000,4.000000,95.000000,,,,0.000000,4.000000,4.000000,4.000000,4.000000,4.000000,100.000000,,,,,,,,,,,,,,,,,,,,,,,,,,,,,,,,,,,,,,,,,,,,,,,,,,,,,,,,,,,,,,,
1656263176.798414,1656263176.817057,113.000000,0.000000,4258.974121,4226.666504,4093.846191,4066.153809,4217.948730,450.000000,4.000000,95.000000,,,,0.000000,4.000000,4.000000,4.000000,4.000000,4.000000,100.000000,,,,,,,,,,,,,,,,,,,,,,,,,,,,,,,,,,,,,,,,,,,,,,,,,,,,,,,,,,,,,,,
1656263176.806228,1656263176.824972,114.000000,0.000000,4261.025879,4248.205078,4118.974121,4074.871826,4211.794922,450.000000,4.000000,95.000000,,,,0.000000,4.000000,4.000000,4.000000,4.000000,4.000000,100.000000,,,,,,,,,,,,,,,,,,,,,,,,,,,,,,,,,,,,,,,,,,,,,,,,,,,,,,,,,,,,,,,
1656263176.814043,1656263176.832886,115.000000,0.000000,4256.410156,4251.282227,4122.051270,4079.487061,4215.897461,16250.000000,4.000000,95.000000,,,,0.000000,4.000000,4.000000,4.000000,4.000000,4.000000,100.000000,,,,,,,,,,,,,,,,,,,,,,,,,,,,,,,,,,,,,,,,,,,,,,,,,,,,,,,,,,,,,,,
1656263176.821858,1656263176.840700,116.000000,0.000000,4258.974121,4226.666504,4114.871582,4068.205078,4217.436035,450.000000,4.000000,95.000000,,,,0.000000,4.000000,4.000000,4.000000,4.000000,4.000000,100.000000,,,,,,,,,,,,,,,,,,,,,,,,,,,,,,,,,,,,,,,2.030116,2.796587,0.495978,2.365038,1.128202,1.681853,1.214450,0.807778,1.260146,0.991443,5.974629,6.273901,3.154747,3.029626,0.742353,1.196484,1.425606,1.509504,1.226134,0.793170,2.758102,2.207183,0.812957,2.133349,0.470312
1656263176.829673,1656263176.848615,117.000000,0.000000,4275.384766,4224.102539,4128.205078,4063.589844,4220.000000,450.000000,4.000000,95.000000,,,,0.000000,4.000000,4.000000,4.000000,4.000000,4.000000,100.000000,,,,,,,,,,,,,,,,,,,,,,,,,,,,,,,,,,,,,,,,,,,,,,,,,,,,,,,,,,,,,,,
1656263176.837487,1656263176.856429,118.000000,0.000000,4288.717773,4249.743652,4132.307617,4081.538574,4238.974121,450.000000,4.000000,95.000000,,,,0.000000,4.000000,4.000000,4.000000,4.000000,4.000000,100.000000,,,,,,,,,,,,,,,,,,,,,,,,,,,,,,,,,,,,,,,,,,,,,,,,,,,,,,,,,,,,,,,
1656263176.845302,1656263176.864244,119.000000,0.000000,4282.563965,4261.025879,4115.384766,4094.358887,4247.179688,16250.000000,4.000000,95.000000,,,,0.000000,4.000000,4.000000,4.000000,4.000000,4.000000,100.000000,,,,,,,,,,,,,,,,,,,,,,,,,,,,,,,,,,,,,,,,,,,,,,,,,,,,,,,,,,,,,,,
1656263176.853117,1656263176.871958,120.000000,0.000000,4276.410156,4241.538574,4103.589844,4083.076904,4231.794922,450.000000,4.000000,95.000000,,,,0.000000,4.000000,4.000000,4.000000,4.000000,4.000000,100.000000,,,,,,,,,,,,,,,,,,,,,,,,,,,,,,,,,,,,,,,,,,,,,,,,,,,,,,,,,,,,,,,
1656263176.860932,1656263176.879872,121.000000,0.000000,4289.230957,4226.153809,4092.820557,4075.384521,4227.179688,450.000000,4.000000,95.000000,,,,0.000000,4.000000,4.000000,4.000000,4.000000,4.000000,100.000000,,,,,,,,,,,,,,,,,,,,,,,,,,,,,,,,,,,,,,,,,,,,,,,,,,,,,,,,,,,,,,,
1656263176.868746,1656263176.887687,122.000000,0.000000,4286.153809,4225.641113,4077.435791,4071.794922,4229.743652,450.000000,4.000000,95.000000,,,,0.000000,4.000000,4.000000,4.000000,4.000000,4.000000,100.000000,,,,,,,,,,,,,,,,,,,,,,,,,,,,,,,,,,,,,,,,,,,,,,,,,,,,,,,,,,,,,,,
1656263176.876561,1656263176.895601,123.000000,0.000000,4258.461426,4230.256348,4065.641113,4063.076904,4208.717773,16250.000000,4.000000,95.000000,,,,0.000000,4.000000,4.000000,4.000000,4.000000,4.000000,100.000000,,,,,,,,,,,,,,,,,,,,,,,,,,,,,,,,,,,,,,,,,,,,,,,,,,,,,,,,,,,,,,,
1656263176.884376,1656263176.903415,124.000000,0.000000,4251.794922,4233.333496,4042.564209,4057.435791,4195.384766,450.000000,4.000000,95.000000,,,,0.000000,4.000000,4.000000,4.000000,4.000000,4.000000,100.000000,,,,,,,,,,,,,,,,,,,,,,,,,,,,,,,,,,,,,,,,,,,,,,,,,,,,,,,,,,,,,,,
1656263176.892191,1656263176.911330,125.000000,0.000000,4267.692383,4235.897461,4035.897461,4065.128174,4218.461426,450.000000,4.000000,95.000000,,,,0.000000,4.000000,4.000000,4.000000,4.000000,4.000000,100.000000,,,,,,,,,,,,,,,,,,,,,,,,,,,,,,,,,,,,,,,,,,,,,,,,,,,,,,,,,,,,,,,
1656263176.900005,1656263176.919244,126.000000,0.000000,4273.846191,4239.487305,4070.256348,4071.281982,4239.487305,450.000000,4.000000,95.000000,,,,0.000000,4.000000,4.000000,4.000000,4.000000,4.000000,100.000000,,,,,,,,,,,,,,,,,,,,,,,,,,,,,,,,,,,,,,,,,,,,,,,,,,,,,,,,,,,,,,,
1656263176.907820,1656263176.927059,127.000000,0.000000,4272.307617,4234.871582,4095.897461,4069.230713,4234.871582,243.000000,4.000000,95.000000,,,,0.000000,4.000000,4.000000,4.000000,4.000000,4.000000,100.000000,,,,,,,,,,,,,,,,,,,,,,,,,,,,,,,,,,,,,,,,,,,,,,,,,,,,,,,,,,,,,,,
1656263176.915635,1656263176.934873,0.000000,0.000000,4297.948730,4231.282227,4097.436035,4080.512939,4241.538574,450.000000,4.000000,95.000000,,,,0.000000,4.000000,4.000000,4.000000,4.000000,4.000000,100.000000,,,,,,,,,,,,,,,,,,,,,,,,,,,,,,,,,,,,,,,,,,,,,,,,,,,,,,,,,,,,,,,
1656263176.923450,1656263176.942787,1.000000,0.000000,4345.641113,4251.282227,4106.666504,4107.692383,4273.333496,450.000000,4.000000,95.000000,,,,0.000000,4.000000,4.000000,4.000000,4.000000,4.000000,100.000000,,,,,,,,,,,,,,,,,,,,,,,,,,,,,,,,,,,,,,,,,,,,,,,,,,,,,,,,,,,,,,,
1656263176.931264,1656263176.950602,2.000000,0.000000,4365.641113,4262.563965,4122.051270,4114.871582,4292.820313,16175.000000,4.000000,95.000000,,,,0.000000,4.000000,4.000000,4.000000,4.000000,4.000000,100.000000,,,,,,,,,,,,,,,,,,,,,,,,,,,,,,,,,,,,,,,,,,,,,,,,,,,,,,,,,,,,,,,
1656263176.939079,1656263176.958516,3.000000,0.000000,4373.333496,4260.000000,4125.641113,4107.692383,4306.666504,450.000000,4.000000,95.000000,,,,0.000000,4.000000,4.000000,4.000000,4.000000,4.000000,100.000000,,,,,,,,,,,,,,,,,,,,,,,,,,,,,,,,,,,,,,,,,,,,,,,,,,,,,,,,,,,,,,,
1656263176.946894,1656263176.966330,4.000000,0.000000,4408.717773,4267.179688,4110.769043,4108.717773,4336.410156,16159.000000,4.000000,95.000000,,,,0.000000,4.000000,4.000000,4.000000,4.000000,4.000000,100.000000,1.000000,83.333336,4.000000,4.000000,2.000000,4.000000,4.000000,,,,,,,,,,,,,,,,,,,,,,,,,,,,,,,,1.985755,2.624775,0.660498,2.467491,0.957745,1.421694,1.027048,1.156528,1.242195,0.971918,5.753113,7.632287,4.020980,2.875479,0.650399,1.175107,1.493108,1.602602,1.297158,0.728762,2.897706,2.432110,0.895266,2.098018,0.449064
1656263176.954708,1656263176.974245,5.000000,0.000000,4441.025879,4272.307617,4097.436035,4104.102539,4356.922852,450.000000,4.000000,95.000000,,,,0.000000,4.000000,4.000000,4.000000,4.000000,4.000000,100.000000,,,,,,,,,,,,,,,,,,,,,,,,,,,,,,,,,,,,,,,,,,,,,,,,,,,,,,,,,,,,,,,
1656263176.962523,1656263176.982059,6.000000,0.000000,4460.000000,4268.717773,4094.871826,4099.487305,4363.589844,16147.000000,4.000000,95.000000,,,,0.000000,4.000000,4.000000,4.000000,4.000000,4.000000,100.000000,,,,,,,,,,,,,,,,,,,,,,,,,,,,,,,,,,,,,,,,,,,,,,,,,,,,,,,,,,,,,,,
1656263176.970338,1656263176.989973,7.000000,0.000000,4498.461426,4264.102539,4088.205078,4106.666504,4381.538574,450.000000,4.000000,95.000000,,,,0.000000,4.000000,4.000000,4.000000,4.000000,4.000000,100.000000,,,,,,,,,,,,,,,,,,,,,,,,,,,,,,,,,,,,,,,,,,,,,,,,,,,,,,,,,,,,,,,
1656263176.978153,1656263176.997888,8.000000,0.000000,4539.487305,4257.948730,4088.205078,4117.948730,4405.641113,450.000000,4.000000,95.000000,,,,0.000000,4.000000,4.000000,4.000000,4.000000,4.000000,100.000000,,,,,,,,,,,,,,,,,,,,,,,,,,,,,,,,,,,,,,,,,,,,,,,,,,,,,,,,,,,,,,,
1656263176.985968,1656263177.005702,9.000000,0.000000,4541.025879,4264.615234,4103.077148,4110.256348,4409.743652,16172.000000,4.000000,95.000000,,,,0.000000,4.000000,4.000000,4.000000,4.000000,4.000000,100.000000,,,,,,,,,,,,,,,,,,,,,,,,,,,,,,,,,,,,,,,,,,,,,,,,,,,,,,,,,,,,,,,
1656263176.993782,1656263177.013616,10.000000,0.000000,4521.538574,4284.102539,4107.692383,4088.718018,4392.820313,450.000000,4.000000,95.000000,,,,0.000000,4.000000,4.000000,4.000000,4.000000,4.000000,100.000000,,,,,,,,,,,,,,,,,,,,,,,,,,,,,,,,,,,,,,,,,,,,,,,,,,,,,,,,,,,,,,,
1656263177.001597,1656263177.021431,11.000000,0.000000,4526.666504,4275.384766,4098.974121,4098.461426,4391.794922,16239.000000,4.000000,95.000000,,,,0.000000,4.000000,4.000000,4.000000,4.000000,4.000000,100.000000,,,,,,,,,,,,,,,,,,,,,,,,,,,,,,,,,,,,,,,,,,,,,,,,,,,,,,,,,,,,,,,
1656263177.009412,1656263177.029345,12.000000,0.000000,4535.897461,4242.563965,4105.641113,4118.974121,4397.948730,450.000000,4.000000,95.000000,,,,0.000000,4.000000,4.000000,4.000000,4.000000,4.000000,100.000000,,,,,,,,,,,,,,,,,,,,,,,,,,,,,,,,,,,,,,,,,,,,,,,,,,,,,,,,,,,,,,,
1656263177.017227,1656263177.037159,13.000000,0.000000,4520.000000,4244.102539,4116.410156,4110.769043,4377.948730,450.000000,4.000000,95.000000,,,,0.000000,4.000000,4.000000,4.000000,4.000000,4.000000,100.000000,,,,,,,,,,,,,,,,,,,,,,,,,,,,,,,,,,,,,,,,,,,,,,,,,,,,,,,,,,,,,,,
1656263177.025041,1656263177.045074,14.000000,0.000000,4489.230957,4276.410156,4106.153809,4096.922852,4361.538574,450.000000,4.000000,95.000000,,,,0.000000,4.000000,4.000000,4.000000,4.000000,4.000000,100.000000,,,,,,,,,,,,,,,,,,,,,,,,,,,,,,,,,,,,,,,,,,,,,,,,,,,,,,,,,,,,,,,
1656263177.032856,1656263177.052988,15.000000,0.000000,4457.436035,4285.641113,4105.641113,4104.615234,4364.615234,16239.000000,4.000000,95.000000,,,,0.000000,4.000000,4.000000,4.000000,4.000000,4.000000,100.000000,,,,,,,,,,,,,,,,,,,,,,,,,,,,,,,,,,,,,,,,,,,,,,,,,,,,,,,,,,,,,,,
1656263177.040671,1656263177.060803,16.000000,0.000000,4417.948730,4268.205078,4112.307617,4100.000000,4338.974121,0.000000,4.000000,95.000000,,,,0.000000,4.000000,4.000000,4.000000,4.000000,4.000000,100.000000,,,,,,,,,,,,,,,,,,,,,,,,,,,,,,,,,,,,,,,,,,,,,,,,,,,,,,,,,,,,,,,
1656263177.048486,1656263177.068617,17.000000,0.000000,4376.922852,4247.179688,4093.333252,4080.000000,4295.384766,0.000000,4.000000,95.000000,,,,0.000000,4.000000,4.000000,4.000000,4.000000,4.000000,100.000000,,,,,,,,,,,,,,,,,,,,,,,,,,,,,,,,,,,,,,,,,,,,,,,,,,,,,,,,,,,,,,,
1656263177.056300,1656263177.076531,18.000000,0.000000,4369.230957,4252.820313,4080.000000,4088.718018,4292.820313,0.000000,4.000000,95.000000,,,,0.000000,4.000000,4.000000,4.000000,4.000000,4.000000,100.000000,,,,,,,,,,,,,,,,,,,,,,,,,,,,,,,,,,,,,,,,,,,,,,,,,,,,,,,,,,,,,,,
1656263177.064115,1656263177.084346,19.000000,0.000000,4377.948730,4263.589844,4101.025879,4114.871582,4296.922852,0.000000,4.000000,95.000000,,,,0.000000,4.000000,4.000000,4.000000,4.000000,4.000000,100.000000,,,,,,,,,,,,,,,,,,,,,,,,,,,,,,,,,,,,,,,,,,,,,,,,,,,,,,,,,,,,,,,
1656263177.071930,1656263177.092260,20.000000,0.000000,4349.230957,4231.794922,4110.769043,4116.410156,4268.717773,0.000000,4.000000,95.000000,,,,0.000000,4.000000,4.000000,4.000000,4.000000,4.000000,100.000000,,,,,,,,,,,,,,,,,,,,,,,,,,,,,,,,,,,,,,,2.125572,2.451099,0.971971,2.422854,0.824452,1.219880,0.905165,1.579525,1.230759,0.966269,5.922640,9.358199,5.367067,2.594524,0.610153,1.104902,1.697927,1.605767,1.391291,0.678155,3.047597,2.559759,1.021389,2.028315,0.449225
1656263177.079744,1656263177.100074,21.000000,0.000000,4306.153809,4216.922852,4086.666748,4100.000000,4257.436035,0.000000,4.000000,95.000000,,,,0.000000,4.000000,4.000000,4.000000,4.000000,4.000000,100.000000,,,,,,,,,,,,,,,,,,,,,,,,,,,,,,,,,,,,,,,,,,,,,,,,,,,,,,,,,,,,,,,
1656263177.087559,1656263177.107989,22.000000,0.000000,4295.897461,4260.000000,4075.384521,4091.794922,4257.948730,0.000000,4.000000,95.000000,,,,0.000000,4.000000,4.000000,4.000000,4.000000,4.000000,100.000000,,,,,,,,,,,,,,,,,,,,,,,,,,,,,,,,,,,,,,,,,,,,,,,,,,,,,,,,,,,,,,,
1656263177.095374,1656263177.115803,23.000000,0.000000,4308.717773,4278.974121,4106.666504,4091.794922,4241.538574,0.000000,4.000000,95.000000,,,,0.000000,4.000000,4.000000,4.000000,4.000000,4.000000,100.000000,,,,,,,,,,,,,,,,,,,,,,,,,,,,,,,,,,,,,,,,,,,,,,,,,,,,,,,,,,,,,,,
1656263177.103189,1656263177.123717,24.000000,0.000000,4313.846191,4249.230957,4132.307617,4092.820557,4237.948730,0.000000,4.000000,95.000000,,,,0.000000,4.000000,4.000000,4.000000,4.000000,4.000000,100.000000,,,,,,,,,,,,,,,,,,,,,,,,,,,,,,,,,,,,,,,,,,,,,,,,,,,,,,,,,,,,,,,
1656263177.111004,1656263177.131532,25.000000,0.000000,4290.769043,4246.666504,4119.487305,4090.769287,4238.461426,0.000000,4.000000,95.000000,,,,0.000000,4.000000,4.000000,4.000000,4.000000,4.000000,100.000000,,,,,,,,,,,,,,,,,,,,,,,,,,,,,,,,,,,,,,,,,,,,,,,,,,,,,,,,,,,,,,,
1656263177.118818,1656263177.139446,26.000000,0.000000,4257.948730,4259.487305,4100.000000,4088.718018,4221.538574,0.000000,4.000000,95.000000,,,,0.000000,4.000000,4.000000,4.000000,4.000000,4.000000,100.000000,,,,,,,,,,,,,,,,,,,,,,,,,,,,,,,,,,,,,,,,,,,,,,,,,,,,,,,,,,,,,,,
1656263177.126633,1656263177.147360,27.000000,0.000000,4255.384766,4241.538574,4095.384521,4085.641113,4214.358887,0.000000,4.000000,95.000000,,,,0.000000,4.000000,4.000000,4.000000,4.000000,4.000000,100.000000,,,,,,,,,,,,,,,,,,,,,,,,,,,,,,,,,,,,,,,,,,,,,,,,,,,,,,,,,,,,,,,
1656263177.134448,1656263177.155175,28.000000,0.000000,4280.000000,4244.615234,4093.846191,4080.000000,4228.205078,0.000000,4.000000,95.000000,,,,0.000000,4.000000,4.000000,4.000000,4.000000,4.000000,100.000000,,,,,,,,,,,,,,,,,,,,,,,,,,,,,,,,,,,,,,,,,,,,,,,,,,,,,,,,,,,,,,,
1656263177.142263,1656263177.162989,29.000000,0.000000,4284.102539,4262.563965,4094.871826,4088.718018,4228.205078,0.000000,4.000000,95.000000,,,,0.000000,4.000000,4.000000,4.000000,4.000000,4.000000,100.000000,,,,,,,,,,,,,,,,,,,,,,,,,,,,,,,,,,,,,,,,,,,,,,,,,,,,,,,,,,,,,,,
1656263177.150077,1656263177.170903,30.000000,0.000000,4260.000000,4246.153809,4110.256348,4095.384521,4215.384766,0.000000,4.000000,95.000000,,,,0.000000,4.000000,4.000000,4.000000,4.000000,4.000000,100.000000,,,,,,,,,,,,,,,,,,,,,,,,,,,,,,,,,,,,,,,,,,,,,,,,,,,,,,,,,,,,,,,
1656263177.157892,1656263177.178818,31.000000,0.000000,4251.794922,4238.461426,4116.410156,4092.307617,4220.512695,0.000000,4.000000,95.000000,,,,0.000000,4.000000,4.000000,4.000000,4.000000,4.000000,100.000000,,,,,,,,,,,,,,,,,,,,,,,,,,,,,,,,,,,,,,,,,,,,,,,,,,,,,,,,,,,,,,,
1656263177.165707,1656263177.186632,32.000000,0.000000,4254.871582,4258.461426,4093.333252,4101.025879,4217.948730,0.000000,4.000000,95.000000,,,,0.000000,4.000000,4.000000,4.000000,4.000000,4.000000,100.000000,,,,,,,,,,,,,,,,,,,,,,,,,,,,,,,,,,,,,,,,,,,,,,,,,,,,,,,,,,,,,,,
1656263177.173521,1656263177.194547,33.000000,0.000000,4239.487305,4256.922852,4077.435791,4106.153809,4199.487305,0.000000,4.000000,95.000000,,,,0.000000,4.000000,4.000000,4.000000,4.000000,4.000000,100.000000,,,,,,,,,,,,,,,,,,,,,,,,,,,,,,,,,,,,,,,,,,,,,,,,,,,,,,,,,,,,,,,
1656263177.181336,1656263177.202361,34.000000,0.000000,4223.077148,4238.461426,4083.076904,4088.205078,4200.512695,0.000000,4.000000,95.000000,,,,0.000000,4.000000,4.000000,4.000000,4.000000,4.000000,100.000000,,,,,,,,,,,,,,,,,,,,,,,,,,,,,,,,,,,,,,,,,,,,,,,,,,,,,,,,,,,,,,,
1656263177.189151,1656263177.210175,35.000000,0.000000,4232.307617,4231.282227,4079.487061,4076.923096,4209.743652,0.000000,4.000000,95.000000,,,,0.000000,4.000000,4.000000,4.000000,4.000000,4.000000,100.000000,,,,,,,,,,,,,,,,,,,,,,,,,,,,,,,,,,,,,,,,,,,,,,,,,,,,,,,,,,,,,,,
1656263177.196966,1656263177.217890,36.000000,0.000000,4255.384766,4231.794922,4092.820557,4094.871826,4216.922852,0.000000,4.000000,95.000000,,,,0.000000,4.000000,4.000000,4.000000,4.000000,4.000000,100.000000,,,,,,,,,,,,,,,,,,,,,,,,,,,,,,,,,,,,,,,3.491298,2.342857,1.422850,2.275270,0.748389,1.162592,0.900678,1.967722,1.228009,0.966102,6.323208,10.839861,6.846316,2.228816,0.623894,1.047181,1.970950,1.552802,1.455110,0.664454,3.727515,2.569401,1.159923,1.934636,0.472720
1656263177.204780,1656263177.225804,37.000000,0.000000,4258.974121,4236.922852,4124.615234,4110.256348,4228.205078,0.000000,4.000000,95.000000,,,,0.000000,4.000000,4.000000,4.000000,4.000000,4.000000,100.000000,,,,,,,,,,,,,,,,,,,,,,,,,,,,,,,,,,,,,,,,,,,,,,,,,,,,,,,,,,,,,,,
1656263177.212595,1656263177.233619,38.000000,0.000000,4246.666504,4243.077148,4123.077148,4106.153809,4229.230957,0.000000,4.000000,95.000000,,,,0.000000,4.000000,4.000000,4.000000,4.000000,4.000000,100.000000,,,,,,,,,,,,,,,,,,,,,,,,,,,,,,,,,,,,,,,,,,,,,,,,,,,,,,,,,,,,,,,
1656263177.220410,1656263177.241533,39.000000,0.000000,4247.179688,4237.948730,4107.692383,4107.692383,4229.230957,0.000000,4.000000,95.000000,,,,0.000000,4.000000,4.000000,4.000000,4.000000,4.000000,100.000000,,,,,,,,,,,,,,,,,,,,,,,,,,,,,,,,,,,,,,,,,,,,,,,,,,,,,,,,,,,,,,,
1656263177.228225,1656263177.249347,40.000000,0.000000,4249.230957,4225.128418,4109.230957,4116.410156,4227.692383,0.000000,4.000000,95.000000,,,,0.000000,4.000000,4.000000,4.000000,4.000000,4.000000,100.000000,,,,,,,,,,,,,,,,,,,,,,,,,,,,,,,,,,,,,,,,,,,,,,,,,,,,,,,,,,,,,,,
1656263177.236040,1656263177.257262,41.000000,0.000000,4240.512695,4228.205078,4105.641113,4112.820313,4215.384766,0.000000,4.000000,95.000000,,,,0.000000,4.000000,4.000000,4.000000,4.000000,4.000000,100.000000,,,,,,,,,,,,,,,,,,,,,,,,,,,,,,,,,,,,,,,,,,,,,,,,,,,,,,,,,,,,,,,
1656263177.243854,1656263177.265076,42.000000,0.000000,4241.538574,4242.051270,4094.358887,4107.179688,4215.384766,0.000000,4.000000,95.000000,,,,0.000000,4.000000,4.000000,4.000000,4.000000,4.000000,100.000000,,,,,,,,,,,,,,,,,,,,,,,,,,,,,,,,,,,,,,,,,,,,,,,,,,,,,,,,,,,,,,,
1656263177.251669,1656263177.272990,43.000000,0.000000,4251.794922,4238.461426,4098.974121,4110.256348,4224.102539,0.000000,4.000000,95.000000,,,,0.000000,4.000000,4.000000,4.000000,4.000000,4.000000,100.000000,,,,,,,,,,,,,,,,,,,,,,,,,,,,,,,,,,,,,,,,,,,,,,,,,,,,,,,,,,,,,,,
1656263177.259484,1656263177.280805,44.000000,0.000000,4250.769043,4231.794922,4110.256348,4110.769043,4215.384766,0.000000,4.000000,95.000000,,,,0.000000,4.000000,4.000000,4.000000,4.000000,4.000000,100.000000,,,,,,,,,,,,,,,,,,,,,,,,,,,,,,,,,,,,,,,,,,,,,,,,,,,,,,,,,,,,,,,
1656263177.267298,1656263177.288719,45.000000,0.000000,4237.436035,4241.025879,4106.666504,4107.692383,4205.641113,0.000000,4.000000,95.000000,,,,0.000000,4.000000,4.000000,4.000000,4.000000,4.000000,100.000000,,,,,,,,,,,,,,,,,,,,,,,,,,,,,,,,,,,,,,,,,,,,,,,,,,,,,,,,,,,,,,,
1656263177.275113,1656263177.296533,46.000000,0.000000,4222.051270,4247.179688,4097.948730,4115.897461,4210.769043,0.000000,4.000000,95.000000,,,,0.000000,4.000000,4.000000,4.000000,4.000000,4.000000,100.000000,,,,,,,,,,,,,,,,,,,,,,,,,,,,,,,,,,,,,,,,,,,,,,,,,,,,,,,,,,,,,,,
1656263177.282928,1656263177.304448,47.000000,0.000000,4221.025879,4241.538574,4101.025879,4126.153809,4210.769043,0.000000,4.000000,95.000000,,,,0.000000,4.000000,4.000000,4.000000,4.000000,4.000000,100.000000,,,,,,,,,,,,,,,,,,,,,,,,,,,,,,,,,,,,,,,,,,,,,,,,,,,,,,,,,,,,,,,
1656263177.290743,1656263177.312262,48.000000,0.000000,4242.051270,4238.461426,4102.563965,4114.871582,4213.333496,0.000000,4.000000,95.000000,,,,0.000000,4.000000,4.000000,4.000000,4.000000,4.000000,100.000000,,,,,,,,,,,,,,,,,,,,,,,,,,,,,,,,,,,,,,,,,,,,,,,,,,,,,,,,,,,,,,,
1656263177.298557,1656263177.320176,49.000000,0.000000,4265.128418,4241.025879,4106.666504,4105.128418,4227.179688,0.000000,4.000000,95.000000,,,,0.000000,4.000000,4.000000,4.000000,4.000000,4.000000,100.000000,,,,,,,,,,,,,,,,,,,,,,,,,,,,,,,,,,,,,,,,,,,,,,,,,,,,,,,,,,,,,,,
1656263177.306372,1656263177.327991,50.000000,0.000000,4260.512695,4243.077148,4133.846191,4121.538574,4230.256348,0.000000,4.000000,95.000000,,,,0.000000,4.000000,4.000000,4.000000,4.000000,4.000000,100.000000,,,,,,,,,,,,,,,,,,,,,,,,,,,,,,,,,,,,,,,,,,,,,,,,,,,,,,,,,,,,,,,
1656263177.314187,1656263177.335905,51.000000,0.000000,4243.589844,4244.615234,4154.358887,4128.717773,4223.589844,0.000000,4.000000,95.000000,,,,0.000000,4.000000,4.000000,4.000000,4.000000,4.000000,100.000000,,,,,,,,,,,,,,,,,,,,,,,,,,,,,,,,,,,,,,,,,,,,,,,,,,,,,,,,,,,,,,,
1656263177.322002,1656263177.343720,52.000000,0.000000,4251.282227,4258.461426,4134.871582,4114.358887,4228.205078,0.000000,4.000000,95.000000,,,,0.000000,4.000000,4.000000,4.000000,4.000000,4.000000,100.000000,,,,,,,,,,,,,,,,,,,,,,,,,,,,,,,,,,,,,,,8.463458,2.321946,1.915939,2.098033,0.730307,1.270552,0.990975,2.193377,1.232982,0.975388,6.724747,11.598677,7.993876,1.848806,0.677641,1.069687,2.207766,1.497729,1.444456,0.692888,5.960451,2.472294,1.244190,1.825616,0.516713
1656263177.329816,1656263177.351434,53.000000,0.000000,4274.358887,4262.563965,4114.358887,4107.692383,4241.538574,0.000000,4.000000,95.000000,,,,0.000000,4.000000,4.000000,4.000000,4.000000,4.000000,100.000000,,,,,,,,,,,,,,,,,,,,,,,,,,,,,,,,,,,,,,,,,,,,,,,,,,,,,,,,,,,,,,,
1656263177.337631,1656263177.359248,54.000000,0.000000,4270.769043,4253.846191,4124.615234,4113.333496,4233.846191,0.000000,4.000000,95.000000,,,,0.000000,4.000000,4.000000,4.000000,4.000000,4.000000,100.000000,,,,,,,,,,,,,,,,,,,,,,,,,,,,,,,,,,,,,,,,,,,,,,,,,,,,,,,,,,,,,,,
1656263177.345446,1656263177.366963,55.000000,0.000000,4243.077148,4253.846191,4119.487305,4102.051270,4210.256348,0.000000,4.000000,95.000000,,,,0.000000,4.000000,4.000000,4.000000,4.000000,4.000000,100.000000,,,,,,,,,,,,,,,,,,,,,,,,,,,,,,,,,,,,,,,,,,,,,,,,,,,,,,,,,,,,,,,
1656263177.353261,1656263177.374877,56.000000,0.000000,4238.974121,4248.205078,4105.641113,4087.179443,4207.179688,0.000000,4.000000,95.000000,,,,0.000000,4.000000,4.000000,4.000000,4.000000,4.000000,100.000000,,,,,,,,,,,,,,,,,,,,,,,,,,,,,,,,,,,,,,,,,,,,,,,,,,,,,,,,,,,,,,,
1656263177.361076,1656263177.382692,57.000000,0.000000,4258.974121,4240.000000,4125.641113,4098.461426,4214.358887,0.000000,4.000000,95.000000,,,,0.000000,4.000000,4.000000,4.000000,4.000000,4.000000,100.000000,,,,,,,,,,,,,,,,,,,,,,,,,,,,,,,,,,,,,,,,,,,,,,,,,,,,,,,,,,,,,,,
1656263177.368890,1656263177.390606,58.000000,0.000000,4257.436035,4244.615234,4154.871582,4106.153809,4217.948730,0.000000,4.000000,95.000000,,,,0.000000,4.000000,4.000000,4.000000,4.000000,4.000000,100.000000,,,,,,,,,,,,,,,,,,,,,,,,,,,,,,,,,,,,,,,,,,,,,,,,,,,,,,,,,,,,,,,
1656263177.376705,1656263177.398420,59.000000,0.000000,4252.307617,4247.179688,4155.384766,4098.974121,4241.538574,0.000000,4.000000,95.000000,,,,0.000000,4.000000,4.000000,4.000000,4.000000,4.000000,100.000000,,,,,,,,,,,,,,,,,,,,,,,,,,,,,,,,,,,,,,,,,,,,,,,,,,,,,,,,,,,,,,,
1656263177.384520,1656263177.406335,60.000000,0.000000,4271.282227,4243.077148,4134.871582,4114.871582,4256.922852,0.000000,4.000000,95.000000,,,,0.000000,4.000000,4.000000,4.000000,4.000000,4.000000,100.000000,,,,,,,,,,,,,,,,,,,,,,,,,,,,,,,,,,,,,,,,,,,,,,,,,,,,,,,,,,,,,,,
1656263177.392334,1656263177.414149,61.000000,0.000000,4276.410156,4246.666504,4122.051270,4127.179688,4231.282227,0.000000,4.000000,95.000000,,,,0.000000,4.000000,4.000000,4.000000,4.000000,4.000000,100.000000,,,,,,,,,,,,,,,,,,,,,,,,,,,,,,,,,,,,,,,,,,,,,,,,,,,,,,,,,,,,,,,
1656263177.400149,1656263177.422063,62.000000,0.000000,4257.436035,4254.358887,4124.102539,4104.615234,4213.846191,0.000000,4.000000,95.000000,,,,0.000000,4.000000,4.000000,4.000000,4.000000,4.000000,100.000000,,,,,,,,,,,,,,,,,,,,,,,,,,,,,,,,,,,,,,,,,,,,,,,,,,,,,,,,,,,,,,,
1656263177.407964,1656263177.429878,63.000000,0.000000,4246.666504,4250.256348,4133.846191,4102.051270,4213.846191,0.000000,4.000000,95.000000,,,,0.000000,4.000000,4.000000,4.000000,4.000000,4.000000,100.000000,,,,,,,,,,,,,,,,,,,,,,,,,,,,,,,,,,,,,,,,,,,,,,,,,,,,,,,,,,,,,,,
1656263177.415779,1656263177.437792,64.000000,0.000000,4241.538574,4244.615234,4138.974121,4116.922852,4201.538574,450.000000,4.000000,95.000000,,,,0.000000,4.000000,4.000000,4.000000,4.000000,4.000000,100.000000,,,,,,,,,,,,,,,,,,,,,,,,,,,,,,,,,,,,,,,,,,,,,,,,,,,,,,,,,,,,,,,
1656263177.423593,1656263177.445607,65.000000,0.000000,4238.461426,4247.692383,4134.358887,4098.461426,4195.897461,450.000000,4.000000,95.000000,,,,0.000000,4.000000,4.000000,4.000000,4.000000,4.000000,100.000000,,,,,,,,,,,,,,,,,,,,,,,,,,,,,,,,,,,,,,,,,,,,,,,,,,,,,,,,,,,,,,,
1656263177.431408,1656263177.453521,66.000000,0.000000,4251.794922,4253.846191,4140.000000,4096.922852,4213.333496,16229.000000,4.000000,95.000000,,,,0.000000,4.000000,4.000000,4.000000,4.000000,4.000000,100.000000,,,,,,,,,,,,,,,,,,,,,,,,,,,,,,,,,,,,,,,,,,,,,,,,,,,,,,,,,,,,,,,
1656263177.439223,1656263177.461335,67.000000,0.000000,4265.128418,4246.666504,4149.743652,4130.256348,4232.307617,450.000000,4.000000,95.000000,,,,0.000000,4.000000,4.000000,4.000000,4.000000,4.000000,100.000000,,,,,,,,,,,,,,,,,,,,,,,,,,,,,,,,,,,,,,,,,,,,,,,,,,,,,,,,,,,,,,,
1656263177.447038,1656263177.469250,68.000000,0.000000,4250.769043,4221.025879,4142.563965,4127.179688,4233.333496,16212.000000,4.000000,95.000000,,,,0.000000,4.000000,4.000000,4.000000,4.000000,4.000000,100.000000,1.000000,83.333336,4.000000,4.000000,2.000000,4.000000,4.000000,,,,,,,,,,,,,,,,,,,,,,,,,,,,,,,,19.568102,2.421841,2.321624,1.967581,0.760494,1.498019,1.102107,2.178628,1.234707,1.007930,6.918407,11.531175,8.422906,1.545509,0.752701,1.213238,2.310654,1.479916,1.352337,0.746133,10.826876,2.339875,1.224493,1.708772,0.573481
1656263177.454852,1656263177.477064,69.000000,0.000000,4241.025879,4221.025879,4147.179688,4117.948730,4235.897461,450.000000,4.000000,95.000000,,,,0.000000,4.000000,4.000000,4.000000,4.000000,4.000000,100.000000,,,,,,,,,,,,,,,,,,,,,,,,,,,,,,,,,,,,,,,,,,,,,,,,,,,,,,,,,,,,,,,
1656263177.462667,1656263177.484978,70.000000,0.000000,4256.410156,4241.538574,4162.051270,4135.384766,4237.948730,16175.000000,4.000000,95.000000,,,,0.000000,4.000000,4.000000,4.000000,4.000000,4.000000,100.000000,,,,,,,,,,,,,,,,,,,,,,,,,,,,,,,,,,,,,,,,,,,,,,,,,,,,,,,,,,,,,,,
1656263177.470482,1656263177.492793,71.000000,0.000000,4252.820313,4225.641113,4144.615234,4118.974121,4214.358887,450.000000,4.000000,95.000000,,,,0.000000,4.000000,4.000000,4.000000,4.000000,4.000000,100.000000,,,,,,,,,,,,,,,,,,,,,,,,,,,,,,,,,,,,,,,,,,,,,,,,,,,,,,,,,,,,,,,
1656263177.478297,1656263177.500707,72.000000,0.000000,4232.820313,4211.794922,4129.743652,4097.948730,4194.871582,450.000000,4.000000,95.000000,,,,0.000000,4.000000,4.000000,4.000000,4.000000,4.000000,100.000000,,,,,,,,,,,,,,,,,,,,,,,,,,,,,,,,,,,,,,,,,,,,,,,,,,,,,,,,,,,,,,,
1656263177.486111,1656263177.508521,73.000000,0.000000,4223.589844,4234.358887,4144.615234,4111.794922,4205.641113,16228.000000,4.000000,95.000000,,,,0.000000,4.000000,4.000000,4.000000,4.000000,4.000000,100.000000,,,,,,,,,,,,,,,,,,,,,,,,,,,,,,,,,,,,,,,,,,,,,,,,,,,,,,,,,,,,,,,
1656263177.493926,1656263177.516236,74.000000,0.000000,4211.794922,4242.563965,4143.589844,4107.179688,4212.307617,450.000000,4.000000,95.000000,,,,0.000000,4.000000,4.000000,4.000000,4.000000,4.000000,100.000000,,,,,,,,,,,,,,,,,,,,,,,,,,,,,,,,,,,,,,,,,,,,,,,,,,,,,,,,,,,,,,,
1656263177.501741,1656263177.524050,75.000000,0.000000,4202.563965,4225.641113,4123.077148,4093.846191,4199.487305,16191.000000,4.000000,95.000000,,,,0.000000,4.000000,4.000000,4.000000,4.000000,4.000000,100.000000,,,,,,,,,,,,,,,,,,,,,,,,,,,,,,,,,,,,,,,,,,,,,,,,,,,,,,,,,,,,,,,
1656263177.509556,1656263177.531765,76.000000,0.000000,4219.487305,4231.794922,4128.717773,4115.897461,4196.410156,450.000000,4.000000,95.000000,,,,0.000000,4.000000,4.000000,4.000000,4.000000,4.000000,100.000000,,,,,,,,,,,,,,,,,,,,,,,,,,,,,,,,,,,,,,,,,,,,,,,,,,,,,,,,,,,,,,,
1656263177.517370,1656263177.539679,77.000000,0.000000,4241.538574,4252.820313,4155.897461,4138.974121,4212.307617,450.000000,4.000000,95.000000,,,,0.000000,4.000000,4.000000,4.000000,4.000000,4.000000,100.000000,,,,,,,,,,,,,,,,,,,,,,,,,,,,,,,,,,,,,,,,,,,,,,,,,,,,,,,,,,,,,,,
1656263177.525185,1656263177.547494,78.000000,0.000000,4233.333496,4235.384766,4166.153809,4124.615234,4218.974121,450.000000,4.000000,95.000000,,,,0.000000,4.000000,4.000000,4.000000,4.000000,4.000000,100.000000,,,,,,,,,,,,,,,,,,,,,,,,,,,,,,,,,,,,,,,,,,,,,,,,,,,,,,,,,,,,,,,
1656263177.533000,1656263177.555308,79.000000,0.000000,4212.307617,4211.282227,4160.000000,4102.563965,4198.461426,16191.000000,4.000000,95.000000,,,,0.000000,4.000000,4.000000,4.000000,4.000000,4.000000,100.000000,,,,,,,,,,,,,,,,,,,,,,,,,,,,,,,,,,,,,,,,,,,,,,,,,,,,,,,,,,,,,,,
1656263177.540815,1656263177.563022,80.000000,0.000000,4227.179688,4229.230957,4161.538574,4115.897461,4196.410156,450.000000,4.000000,95.000000,,,,0.000000,4.000000,4.000000,4.000000,4.000000,4.000000,100.000000,,,,,,,,,,,,,,,,,,,,,,,,,,,,,,,,,,,,,,,,,,,,,,,,,,,,,,,,,,,,,,,
1656263177.548629,1656263177.570937,81.000000,0.000000,4243.077148,4252.820313,4169.743652,4141.025879,4224.102539,450.000000,4.000000,95.000000,,,,0.000000,4.000000,4.000000,4.000000,4.000000,4.000000,100.000000,,,,,,,,,,,,,,,,,,,,,,,,,,,,,,,,,,,,,,,,,,,,,,,,,,,,,,,,,,,,,,,
1656263177.556444,1656263177.578751,82.000000,0.000000,4227.179688,4243.077148,4172.820313,4141.025879,4223.077148,450.000000,4.000000,95.000000,,,,0.000000,4.000000,4.000000,4.000000,4.000000,4.000000,100.000000,,,,,,,,,,,,,,,,,,,,,,,,,,,,,,,,,,,,,,,,,,,,,,,,,,,,,,,,,,,,,,,
1656263177.564259,1656263177.586665,83.000000,0.000000,4216.922852,4231.282227,4173.333496,4126.666504,4204.102539,16191.000000,4.000000,95.000000,,,,0.000000,4.000000,4.000000,4.000000,4.000000,4.000000,100.000000,,,,,,,,,,,,,,,,,,,,,,,,,,,,,,,,,,,,,,,,,,,,,,,,,,,,,,,,,,,,,,,
1656263177.572074,1656263177.594480,84.000000,0.000000,4234.871582,4241.538574,4173.333496,4128.717773,4221.538574,450.000000,4.000000,95.000000,,,,0.000000,4.000000,4.000000,4.000000,4.000000,4.000000,100.000000,,,,,,,,,,,,,,,,,,,,,,,,,,,,,,,,,,,,,,,37.175636,2.686937,2.534624,1.922159,0.826163,1.757348,1.159296,1.932140,1.218560,1.072128,6.767988,10.898395,8.043241,1.397660,0.832003,1.470035,2.239289,1.506888,1.208082,0.795481,18.471405,2.263215,1.094710,1.586632,0.630356
1656263177.579888,1656263177.602394,85.000000,0.000000,4254.358887,4246.666504,4166.153809,4131.794922,4243.589844,450.000000,4.000000,95.000000,,,,0.000000,4.000000,4.000000,4.000000,4.000000,4.000000,100.000000,,,,,,,,,,,,,,,,,,,,,,,,,,,,,,,,,,,,,,,,,,,,,,,,,,,,,,,,,,,,,,,
1656263177.587703,1656263177.610209,86.000000,0.000000,4241.538574,4233.846191,4149.743652,4110.256348,4216.410156,450.000000,4.000000,95.000000,,,,0.000000,4.000000,4.000000,4.000000,4.000000,4.000000,100.000000,,,,,,,,,,,,,,,,,,,,,,,,,,,,,,,,,,,,,,,,,,,,,,,,,,,,,,,,,,,,,,,
1656263177.595518,1656263177.618123,87.000000,0.000000,4217.948730,4234.358887,4150.769043,4103.077148,4191.794922,16191.000000,4.000000,95.000000,,,,0.000000,4.000000,4.000000,4.000000,4.000000,4.000000,100.000000,,,,,,,,,,,,,,,,,,,,,,,,,,,,,,,,,,,,,,,,,,,,,,,,,,,,,,,,,,,,,,,
1656263177.603333,1656263177.625937,88.000000,0.000000,4229.230957,4239.487305,4151.794922,4126.666504,4218.974121,450.000000,4.000000,95.000000,,,,0.000000,4.000000,4.000000,4.000000,4.000000,4.000000,100.000000,,,,,,,,,,,,,,,,,,,,,,,,,,,,,,,,,,,,,,,,,,,,,,,,,,,,,,,,,,,,,,,
1656263177.611147,1656263177.633852,89.000000,0.000000,4249.230957,4226.666504,4127.692383,4136.410156,4238.461426,450.000000,4.000000,95.000000,,,,0.000000,4.000000,4.000000,4.000000,4.000000,4.000000,100.000000,,,,,,,,,,,,,,,,,,,,,,,,,,,,,,,,,,,,,,,,,,,,,,,,,,,,,,,,,,,,,,,
1656263177.618962,1656263177.641666,90.000000,0.000000,4232.820313,4231.794922,4124.615234,4118.461426,4221.538574,450.000000,4.000000,95.000000,,,,0.000000,4.000000,4.000000,4.000000,4.000000,4.000000,100.000000,,,,,,,,,,,,,,,,,,,,,,,,,,,,,,,,,,,,,,,,,,,,,,,,,,,,,,,,,,,,,,,
1656263177.626777,1656263177.649580,91.000000,0.000000,4216.410156,4259.487305,4144.102539,4123.077148,4207.179688,16191.000000,4.000000,95.000000,,,,0.000000,4.000000,4.000000,4.000000,4.000000,4.000000,100.000000,,,,,,,,,,,,,,,,,,,,,,,,,,,,,,,,,,,,,,,,,,,,,,,,,,,,,,,,,,,,,,,
1656263177.634591,1656263177.657395,92.000000,0.000000,4233.333496,4262.051270,4140.000000,4147.692383,4214.871582,450.000000,4.000000,95.000000,,,,0.000000,4.000000,4.000000,4.000000,4.000000,4.000000,100.000000,,,,,,,,,,,,,,,,,,,,,,,,,,,,,,,,,,,,,,,,,,,,,,,,,,,,,,,,,,,,,,,
1656263177.642406,1656263177.665309,93.000000,0.000000,4231.794922,4243.589844,4124.615234,4141.025879,4217.436035,450.000000,4.000000,95.000000,,,,0.000000,4.000000,4.000000,4.000000,4.000000,4.000000,100.000000,,,,,,,,,,,,,,,,,,,,,,,,,,,,,,,,,,,,,,,,,,,,,,,,,,,,,,,,,,,,,,,
1656263177.650221,1656263177.673123,94.000000,0.000000,4215.897461,4232.307617,4117.948730,4113.846191,4206.666504,450.000000,4.000000,95.000000,,,,0.000000,4.000000,4.000000,4.000000,4.000000,4.000000,100.000000,,,,,,,,,,,,,,,,,,,,,,,,,,,,,,,,,,,,,,,,,,,,,,,,,,,,,,,,,,,,,,,
1656263177.658036,1656263177.681038,95.000000,0.000000,4222.051270,4223.589844,4108.205078,4114.358887,4203.589844,16191.000000,4.000000,95.000000,,,,0.000000,4.000000,4.000000,4.000000,4.000000,4.000000,100.000000,,,,,,,,,,,,,,,,,,,,,,,,,,,,,,,,,,,,,,,,,,,,,,,,,,,,,,,,,,,,,,,
1656263177.665851,1656263177.688852,96.000000,0.000000,4219.487305,4217.436035,4093.333252,4128.205078,4204.102539,450.000000,4.000000,95.000000,,,,0.000000,4.000000,4.000000,4.000000,4.000000,4.000000,100.000000,,,,,,,,,,,,,,,,,,,,,,,,,,,,,,,,,,,,,,,,,,,,,,,,,,,,,,,,,,,,,,,
1656263177.673665,1656263177.696567,97.000000,0.000000,4198.461426,4224.102539,4080.000000,4120.512695,4188.205078,450.000000,4.000000,95.000000,,,,0.000000,4.000000,4.000000,4.000000,4.000000,4.000000,100.000000,,,,,,,,,,,,,,,,,,,,,,,,,,,,,,,,,,,,,,,,,,,,,,,,,,,,,,,,,,,,,,,
1656263177.681480,1656263177.704481,98.000000,0.000000,4203.077148,4235.897461,4073.846191,4109.230957,4170.256348,450.000000,4.000000,95.000000,,,,0.000000,4.000000,4.000000,4.000000,4.000000,4.000000,100.000000,,,,,,,,,,,,,,,,,,,,,,,,,,,,,,,,,,,,,,,,,,,,,,,,,,,,,,,,,,,,,,,
1656263177.689295,1656263177.712295,99.000000,0.000000,4212.307617,4237.436035,4081.025635,4102.563965,4172.307617,16191.000000,4.000000,95.000000,,,,0.000000,4.000000,4.000000,4.000000,4.000000,4.000000,100.000000,,,,,,,,,,,,,,,,,,,,,,,,,,,,,,,,,,,,,,,,,,,,,,,,,,,,,,,,,,,,,,,
1656263177.697110,1656263177.720210,100.000000,0.000000,4189.230957,4228.205078,4088.205078,4096.922852,4175.384766,450.000000,4.000000,95.000000,,,,0.000000,4.000000,4.000000,4.000000,4.000000,4.000000,100.000000,,,,,,,,,,,,,,,,,,,,,,,,,,,,,,,,,,,,,,,57.965416,3.100012,2.538981,1.950545,0.918674,1.946704,1.125220,1.553361,1.175208,1.160369,6.286010,10.062029,7.020744,1.435460,0.900397,1.789623,2.024951,1.564175,1.055683,0.819840,27.473152,2.298767,0.948461,1.470467,0.677726
1656263177.704924,1656263177.728024,101.000000,0.000000,4181.538574,4220.512695,4090.256348,4101.025879,4169.743652,450.000000,4.000000,95.000000,,,,0.000000,4.000000,4.000000,4.000000,4.000000,4.000000,100.000000,,,,,,,,,,,,,,,,,,,,,,,,,,,,,,,,,,,,,,,,,,,,,,,,,,,,,,,,,,,,,,,
1656263177.712739,1656263177.735938,102.000000,0.000000,4208.717773,4218.974121,4098.461426,4110.769043,4179.487305,450.000000,4.000000,95.000000,,,,0.000000,4.000000,4.000000,4.000000,4.000000,4.000000,100.000000,,,,,,,,,,,,,,,,,,,,,,,,,,,,,,,,,,,,,,,,,,,,,,,,,,,,,,,,,,,,,,,
1656263177.720554,1656263177.743753,103.000000,0.000000,4223.589844,4227.692383,4103.589844,4110.256348,4193.846191,16191.000000,4.000000,95.000000,,,,0.000000,4.000000,4.000000,4.000000,4.000000,4.000000,100.000000,,,,,,,,,,,,,,,,,,,,,,,,,,,,,,,,,,,,,,,,,,,,,,,,,,,,,,,,,,,,,,,
1656263177.728369,1656263177.751667,104.000000,0.000000,4210.769043,4235.384766,4108.205078,4098.974121,4180.512695,450.000000,4.000000,95.000000,,,,0.000000,4.000000,4.000000,4.000000,4.000000,4.000000,100.000000,,,,,,,,,,,,,,,,,,,,,,,,,,,,,,,,,,,,,,,,,,,,,,,,,,,,,,,,,,,,,,,
1656263177.736183,1656263177.759481,105.000000,0.000000,4208.205078,4238.461426,4129.230957,4097.436035,4175.897461,450.000000,4.000000,95.000000,,,,0.000000,4.000000,4.000000,4.000000,4.000000,4.000000,100.000000,,,,,,,,,,,,,,,,,,,,,,,,,,,,,,,,,,,,,,,,,,,,,,,,,,,,,,,,,,,,,,,
1656263177.743998,1656263177.767396,106.000000,0.000000,4226.666504,4238.461426,4126.153809,4094.871826,4206.153809,450.000000,4.000000,95.000000,,,,0.000000,4.000000,4.000000,4.000000,4.000000,4.000000,100.000000,,,,,,,,,,,,,,,,,,,,,,,,,,,,,,,,,,,,,,,,,,,,,,,,,,,,,,,,,,,,,,,
1656263177.751813,1656263177.775210,107.000000,0.000000,4230.256348,4230.769043,4090.256348,4086.666748,4220.000000,16191.000000,4.000000,95.000000,,,,0.000000,4.000000,4.000000,4.000000,4.000000,4.000000,100.000000,,,,,,,,,,,,,,,,,,,,,,,,,,,,,,,,,,,,,,,,,,,,,,,,,,,,,,,,,,,,,,,
1656263177.759627,1656263177.783025,108.000000,0.000000,4221.538574,4235.897461,4080.000000,4094.358887,4205.128418,450.000000,4.000000,95.000000,,,,0.000000,4.000000,4.000000,4.000000,4.000000,4.000000,100.000000,,,,,,,,,,,,,,,,,,,,,,,,,,,,,,,,,,,,,,,,,,,,,,,,,,,,,,,,,,,,,,,
1656263177.767442,1656263177.790739,109.000000,0.000000,4220.512695,4251.282227,4100.000000,4099.487305,4204.102539,450.000000,4.000000,95.000000,,,,0.000000,4.000000,4.000000,4.000000,4.000000,4.000000,100.000000,,,,,,,,,,,,,,,,,,,,,,,,,,,,,,,,,,,,,,,,,,,,,,,,,,,,,,,,,,,,,,,
1656263177.775257,1656263177.798653,110.000000,0.000000,4233.333496,4254.871582,4115.384766,4074.358887,4219.487305,450.000000,4.000000,95.000000,,,,0.000000,4.000000,4.000000,4.000000,4.000000,4.000000,100.000000,,,,,,,,,,,,,,,,,,,,,,,,,,,,,,,,,,,,,,,,,,,,,,,,,,,,,,,,,,,,,,,
1656263177.783072,1656263177.806468,111.000000,0.000000,4243.077148,4257.436035,4119.487305,4055.384521,4219.487305,16191.000000,4.000000,95.000000,,,,0.000000,4.000000,4.000000,4.000000,4.000000,4.000000,100.000000,,,,,,,,,,,,,,,,,,,,,,,,,,,,,,,,,,,,,,,,,,,,,,,,,,,,,,,,,,,,,,,
1656263177.790887,1656263177.814282,112.000000,0.000000,4247.692383,4253.333496,4118.461426,4069.743652,4215.384766,450.000000,4.000000,95.000000,,,,0.000000,4.000000,4.000000,4.000000,4.000000,4.000000,100.000000,,,,,,,,,,,,,,,,,,,,,,,,,,,,,,,,,,,,,,,,,,,,,,,,,,,,,,,,,,,,,,,
1656263177.798701,1656263177.821997,113.000000,0.000000,4267.179688,4247.179688,4133.333496,4087.692383,4228.717773,450.000000,4.000000,95.000000,,,,0.000000,4.000000,4.000000,4.000000,4.000000,4.000000,100.000000,,,,,,,,,,,,,,,,,,,,,,,,,,,,,,,,,,,,,,,,,,,,,,,,,,,,,,,,,,,,,,,
1656263177.806516,1656263177.829911,114.000000,0.000000,4273.846191,4253.846191,4162.051270,4098.974121,4237.948730,450.000000,4.000000,95.000000,,,,0.000000,4.000000,4.000000,4.000000,4.000000,4.000000,100.000000,,,,,,,,,,,,,,,,,,,,,,,,,,,,,,,,,,,,,,,,,,,,,,,,,,,,,,,,,,,,,,,
1656263177.814331,1656263177.837825,115.000000,0.000000,4259.487305,4251.794922,4169.230957,4105.128418,4238.974121,16191.000000,4.000000,95.000000,,,,0.000000,4.000000,4.000000,4.000000,4.000000,4.000000,100.000000,,,,,,,,,,,,,,,,,,,,,,,,,,,,,,,,,,,,,,,,,,,,,,,,,,,,,,,,,,,,,,,
1656263177.822146,1656263177.845640,116.000000,0.000000,4259.487305,4247.179688,4145.128418,4086.666748,4239.487305,450.000000,4.000000,95.000000,,,,0.000000,4.000000,4.000000,4.000000,4.000000,4.000000,100.000000,,,,,,,,,,,,,,,,,,,,,,,,,,,,,,,,,,,,,,,76.142792,3.569231,2.406024,2.008311,1.031189,2.026195,1.017998,1.178992,1.104647,1.252898,5.583747,9.180437,5.668079,1.618801,0.946895,2.025700,1.733762,1.620638,0.937454,0.821031,35.251156,2.415573,0.928496,1.374442,0.714464
1656263177.829960,1656263177.853554,117.000000,0.000000,4262.051270,4254.358887,4127.692383,4056.923096,4232.307617,450.000000,4.000000,95.000000,,,,0.000000,4.000000,4.000000,4.000000,4.000000,4.000000,100.000000,,,,,,,,,,,,,,,,,,,,,,,,,,,,,,,,,,,,,,,,,,,,,,,,,,,,,,,,,,,,,,,
1656263177.837775,1656263177.861368,118.000000,0.000000,4265.641113,4252.307617,4141.538574,4060.512939,4237.436035,450.000000,4.000000,95.000000,,,,0.000000,4.000000,4.000000,4.000000,4.000000,4.000000,100.000000,,,,,,,,,,,,,,,,,,,,,,,,,,,,,,,,,,,,,,,,,,,,,,,,,,,,,,,,,,,,,,,
1656263177.845590,1656263177.869283,119.000000,0.000000,4277.436035,4245.641113,4168.717773,4079.487061,4243.589844,16191.000000,4.000000,95.000000,,,,0.000000,4.000000,4.000000,4.000000,4.000000,4.000000,100.000000,,,,,,,,,,,,,,,,,,,,,,,,,,,,,,,,,,,,,,,,,,,,,,,,,,,,,,,,,,,,,,,
1656263177.853404,1656263177.877097,120.000000,0.000000,4273.846191,4258.461426,4183.589844,4072.820557,4227.692383,450.000000,4.000000,95.000000,,,,0.000000,4.000000,4.000000,4.000000,4.000000,4.000000,100.000000,,,,,,,,,,,,,,,,,,,,,,,,,,,,,,,,,,,,,,,,,,,,,,,,,,,,,,,,,,,,,,,
1656263177.861219,1656263177.885011,121.000000,0.000000,4267.179688,4270.769043,4177.948730,4074.358887,4237.436035,450.000000,4.000000,95.000000,,,,0.000000,4.000000,4.000000,4.000000,4.000000,4.000000,100.000000,,,,,,,,,,,,,,,,,,,,,,,,,,,,,,,,,,,,,,,,,,,,,,,,,,,,,,,,,,,,,,,
1656263177.869034,1656263177.892826,122.000000,0.000000,4277.436035,4252.820313,4163.589844,4074.871826,4257.948730,450.000000,4.000000,95.000000,,,,0.000000,4.000000,4.000000,4.000000,4.000000,4.000000,100.000000,,,,,,,,,,,,,,,,,,,,,,,,,,,,,,,,,,,,,,,,,,,,,,,,,,,,,,,,,,,,,,,
1656263177.876849,1656263177.900640,123.000000,0.000000,4278.461426,4236.922852,4156.922852,4053.333252,4238.974121,16191.000000,4.000000,95.000000,,,,0.000000,4.000000,4.000000,4.000000,4.000000,4.000000,100.000000,,,,,,,,,,,,,,,,,,,,,,,,,,,,,,,,,,,,,,,,,,,,,,,,,,,,,,,,,,,,,,,
1656263177.884663,1656263177.908355,124.000000,0.000000,4260.512695,4246.666504,4152.820313,4045.641113,4223.077148,450.000000,4.000000,95.000000,,,,0.000000,4.000000,4.000000,4.000000,4.000000,4.000000,100.000000,,,,,,,,,,,,,,,,,,,,,,,,,,,,,,,,,,,,,,,,,,,,,,,,,,,,,,,,,,,,,,,
1656263177.892478,1656263177.916169,125.000000,0.000000,4256.410156,4248.205078,4140.512695,4056.410156,4232.307617,450.000000,4.000000,95.000000,,,,0.000000,4.000000,4.000000,4.000000,4.000000,4.000000,100.000000,,,,,,,,,,,,,,,,,,,,,,,,,,,,,,,,,,,,,,,,,,,,,,,,,,,,,,,,,,,,,,,
1656263177.900293,1656263177.923884,126.000000,0.000000,4275.897461,4236.410156,4124.615234,4058.461426,4234.358887,450.000000,4.000000,95.000000,,,,0.000000,4.000000,4.000000,4.000000,4.000000,4.000000,100.000000,,,,,,,,,,,,,,,,,,,,,,,,,,,,,,,,,,,,,,,,,,,,,,,,,,,,,,,,,,,,,,,
1656263177.908108,1656263177.931698,127.000000,0.000000,4274.358887,4238.974121,4117.436035,4043.589844,4238.461426,243.000000,4.000000,95.000000,,,,0.000000,4.000000,4.000000,4.000000,4.000000,4.000000,100.000000,,,,,,,,,,,,,,,,,,,,,,,,,,,,,,,,,,,,,,,,,,,,,,,,,,,,,,,,,,,,,,,
1656263177.915923,1656263177.939413,0.000000,0.000000,4249.743652,4243.077148,4131.282227,4033.846191,4245.128418,450.000000,4.000000,95.000000,,,,0.000000,4.000000,4.000000,4.000000,4.000000,4.000000,100.000000,,,,,,,,,,,,,,,,,,,,,,,,,,,,,,,,,,,,,,,,,,,,,,,,,,,,,,,,,,,,,,,
1656263177.923737,1656263177.947327,1.000000,0.000000,4253.846191,4234.358887,4145.128418,4038.461426,4237.436035,450.000000,4.000000,95.000000,,,,0.000000,4.000000,4.000000,4.000000,4.000000,4.000000,100.000000,,,,,,,,,,,,,,,,,,,,,,,,,,,,,,,,,,,,,,,,,,,,,,,,,,,,,,,,,,,,,,,
1656263177.931552,1656263177.955141,2.000000,0.000000,4276.410156,4232.820313,4134.871582,4038.974365,4235.384766,16214.000000,4.000000,95.000000,,,,0.000000,4.000000,4.000000,4.000000,4.000000,4.000000,100.000000,,,,,,,,,,,,,,,,,,,,,,,,,,,,,,,,,,,,,,,,,,,,,,,,,,,,,,,,,,,,,,,
1656263177.939367,1656263177.963056,3.000000,0.000000,4272.820313,4240.512695,4115.897461,4041.538574,4243.589844,450.000000,4.000000,95.000000,,,,0.000000,4.000000,4.000000,4.000000,4.000000,4.000000,100.000000,,,,,,,,,,,,,,,,,,,,,,,,,,,,,,,,,,,,,,,,,,,,,,,,,,,,,,,,,,,,,,,
1656263177.947182,1656263177.970870,4.000000,0.000000,4253.846191,4235.384766,4104.102539,4046.153809,4228.205078,16151.000000,4.000000,95.000000,,,,0.000000,4.000000,4.000000,4.000000,4.000000,4.000000,100.000000,1.000000,100.000000,4.000000,4.000000,4.000000,4.000000,4.000000,,,,,,,,,,,,,,,,,,,,,,,,,,,,,,,,85.228836,3.896297,2.248898,2.033348,1.150898,2.017442,0.891316,0.920784,1.022312,1.322287,4.910928,8.297445,4.317337,1.849850,0.968509,2.123408,1.469446,1.650488,0.884466,0.821505,39.050549,2.522221,1.133297,1.309972,0.749618
1656263177.954996,1656263177.978784,5.000000,0.000000,4252.307617,4233.333496,4104.615234,4046.153809,4215.897461,450.000000,4.000000,95.000000,,,,0.000000,4.000000,4.000000,4.000000,4.000000,4.000000,100.000000,,,,,,,,,,,,,,,,,,,,,,,,,,,,,,,,,,,,,,,,,,,,,,,,,,,,,,,,,,,,,,,
1656263177.962811,1656263177.986599,6.000000,0.000000,4270.256348,4251.282227,4108.205078,4049.743652,4235.384766,16183.000000,4.000000,95.000000,,,,0.000000,4.000000,4.000000,4.000000,4.000000,4.000000,100.000000,,,,,,,,,,,,,,,,,,,,,,,,,,,,,,,,,,,,,,,,,,,,,,,,,,,,,,,,,,,,,,,
1656263177.970626,1656263177.994513,7.000000,0.000000,4276.922852,4256.410156,4096.410156,4063.076904,4242.563965,450.000000,4.000000,95.000000,,,,0.000000,4.000000,4.000000,4.000000,4.000000,4.000000,100.000000,,,,,,,,,,,,,,,,,,,,,,,,,,,,,,,,,,,,,,,,,,,,,,,,,,,,,,,,,,,,,,,
1656263177.978440,1656263178.002327,8.000000,0.000000,4266.666504,4246.153809,4081.025635,4060.000000,4224.615234,450.000000,4.000000,95.000000,,,,0.000000,4.000000,4.000000,4.000000,4.000000,4.000000,100.000000,,,,,,,,,,,,,,,,,,,,,,,,,,,,,,,,,,,,,,,,,,,,,,,,,,,,,,,,,,,,,,,
1656263177.986255,1656263178.010242,9.000000,0.000000,4256.922852,4248.205078,4084.615479,4045.128174,4212.307617,16180.000000,4.000000,95.000000,,,,0.000000,4.000000,4.000000,4.000000,4.000000,4.000000,100.000000,,,,,,,,,,,,,,,,,,,,,,,,,,,,,,,,,,,,,,,,,,,,,,,,,,,,,,,,,,,,,,,
1656263177.994070,1656263178.018156,10.000000,0.000000,4261.025879,4261.025879,4101.538574,4045.641113,4220.512695,450.000000,4.000000,95.000000,,,,0.000000,4.000000,4.000000,4.000000,4.000000,4.000000,100.000000,,,,,,,,,,,,,,,,,,,,,,,,,,,,,,,,,,,,,,,,,,,,,,,,,,,,,,,,,,,,,,,
1656263178.001885,1656263178.025971,11.000000,0.000000,4275.384766,4262.051270,4108.205078,4050.256348,4231.794922,16194.000000,4.000000,95.000000,,,,0.000000,4.000000,4.000000,4.000000,4.000000,4.000000,100.000000,,,,,,,,,,,,,,,,,,,,,,,,,,,,,,,,,,,,,,,,,,,,,,,,,,,,,,,,,,,,,,,
1656263178.009699,1656263178.033785,12.000000,0.000000,4281.538574,4254.871582,4106.153809,4043.589844,4227.692383,450.000000,4.000000,95.000000,,,,0.000000,4.000000,4.000000,4.000000,4.000000,4.000000,100.000000,,,,,,,,,,,,,,,,,,,,,,,,,,,,,,,,,,,,,,,,,,,,,,,,,,,,,,,,,,,,,,,
1656263178.017514,1656263178.041499,13.000000,0.000000,4267.179688,4254.358887,4114.358887,4038.974365,4222.563965,450.000000,4.000000,95.000000,,,,0.000000,4.000000,4.000000,4.000000,4.000000,4.000000,100.000000,,,,,,,,,,,,,,,,,,,,,,,,,,,,,,,,,,,,,,,,,,,,,,,,,,,,,,,,,,,,,,,
1656263178.025329,1656263178.049314,14.000000,0.000000,4250.769043,4252.307617,4114.358887,4044.615479,4221.025879,450.000000,4.000000,95.000000,,,,0.000000,4.000000,4.000000,4.000000,4.000000,4.000000,100.000000,,,,,,,,,,,,,,,,,,,,,,,,,,,,,,,,,,,,,,,,,,,,,,,,,,,,,,,,,,,,,,,
1656263178.033144,1656263178.057028,15.000000,0.000000,4267.179688,4257.436035,4102.051270,4058.974365,4220.512695,16194.000000,4.000000,95.000000,,,,0.000000,4.000000,4.000000,4.000000,4.000000,4.000000,100.000000,,,,,,,,,,,,,,,,,,,,,,,,,,,,,,,,,,,,,,,,,,,,,,,,,,,,,,,,,,,,,,,
1656263178.040959,1656263178.064843,16.000000,0.000000,4289.743652,4270.256348,4105.128418,4083.589844,4233.846191,0.000000,4.000000,95.000000,,,,0.000000,4.000000,4.000000,4.000000,4.000000,4.000000,100.000000,,,,,,,,,,,,,,,,,,,,,,,,,,,,,,,,,,,,,,,,,,,,,,,,,,,,,,,,,,,,,,,
1656263178.048773,1656263178.072557,17.000000,0.000000,4276.922852,4269.230957,4100.512695,4081.025635,4235.897461,0.000000,4.000000,95.000000,,,,0.000000,4.000000,4.000000,4.000000,4.000000,4.000000,100.000000,,,,,,,,,,,,,,,,,,,,,,,,,,,,,,,,,,,,,,,,,,,,,,,,,,,,,,,,,,,,,,,
1656263178.056588,1656263178.080372,18.000000,0.000000,4260.000000,4265.128418,4076.923096,4048.205078,4213.333496,0.000000,4.000000,95.000000,,,,0.000000,4.000000,4.000000,4.000000,4.000000,4.000000,100.000000,,,,,,,,,,,,,,,,,,,,,,,,,,,,,,,,,,,,,,,,,,,,,,,,,,,,,,,,,,,,,,,
1656263178.064403,1656263178.088086,19.000000,0.000000,4274.358887,4254.871582,4072.820557,4049.743652,4221.025879,0.000000,4.000000,95.000000,,,,0.000000,4.000000,4.000000,4.000000,4.000000,4.000000,100.000000,,,,,,,,,,,,,,,,,,,,,,,,,,,,,,,,,,,,,,,,,,,,,,,,,,,,,,,,,,,,,,,
1656263178.072217,1656263178.095901,20.000000,0.000000,4285.128418,4227.692383,4076.923096,4077.435791,4245.128418,0.000000,4.000000,95.000000,,,,0.000000,4.000000,4.000000,4.000000,4.000000,4.000000,100.000000,,,,,,,,,,,,,,,,,,,,,,,,,,,,,,,,,,,,,,,82.055008,3.922948,2.151615,1.973965,1.261163,1.991777,0.784576,0.819430,0.949462,1.337231,4.515574,7.342591,3.251217,2.022898,0.972859,2.029344,1.306512,1.645902,0.916858,0.844193,37.527306,2.543738,1.539406,1.284519,0.796733
1656263178.080032,1656263178.103615,21.000000,0.000000,4278.974121,4231.794922,4062.564209,4075.897461,4236.922852,0.000000,4.000000,95.000000,,,,0.000000,4.000000,4.000000,4.000000,4.000000,4.000000,100.000000,,,,,,,,,,,,,,,,,,,,,,,,,,,,,,,,,,,,,,,,,,,,,,,,,,,,,,,,,,,,,,,
1656263178.087847,1656263178.111529,22.000000,0.000000,4282.563965,4266.153809,4055.384521,4050.256348,4229.230957,0.000000,4.000000,95.000000,,,,0.000000,4.000000,4.000000,4.000000,4.000000,4.000000,100.000000,,,,,,,,,,,,,,,,,,,,,,,,,,,,,,,,,,,,,,,,,,,,,,,,,,,,,,,,,,,,,,,
1656263178.095662,1656263178.119344,23.000000,0.000000,4289.743652,4267.692383,4063.589844,4045.641113,4238.461426,0.000000,4.000000,95.000000,,,,0.000000,4.000000,4.000000,4.000000,4.000000,4.000000,100.000000,,,,,,,,,,,,,,,,,,,,,,,,,,,,,,,,,,,,,,,,,,,,,,,,,,,,,,,,,,,,,,,
1656263178.103476,1656263178.127258,24.000000,0.000000,4293.846191,4253.333496,4068.205078,4072.820557,4238.461426,0.000000,4.000000,95.000000,,,,0.000000,4.000000,4.000000,4.000000,4.000000,4.000000,100.000000,,,,,,,,,,,,,,,,,,,,,,,,,,,,,,,,,,,,,,,,,,,,,,,,,,,,,,,,,,,,,,,
1656263178.111291,1656263178.135073,25.000000,0.000000,4291.794922,4251.794922,4070.769287,4091.794922,4242.051270,0.000000,4.000000,95.000000,,,,0.000000,4.000000,4.000000,4.000000,4.000000,4.000000,100.000000,,,,,,,,,,,,,,,,,,,,,,,,,,,,,,,,,,,,,,,,,,,,,,,,,,,,,,,,,,,,,,,
1656263178.119106,1656263178.142987,26.000000,0.000000,4292.307617,4241.538574,4080.512939,4088.718018,4258.461426,0.000000,4.000000,95.000000,,,,0.000000,4.000000,4.000000,4.000000,4.000000,4.000000,100.000000,,,,,,,,,,,,,,,,,,,,,,,,,,,,,,,,,,,,,,,,,,,,,,,,,,,,,,,,,,,,,,,
1656263178.126921,1656263178.150901,27.000000,0.000000,4291.794922,4232.820313,4086.666748,4078.461426,4253.333496,0.000000,4.000000,95.000000,,,,0.000000,4.000000,4.000000,4.000000,4.000000,4.000000,100.000000,,,,,,,,,,,,,,,,,,,,,,,,,,,,,,,,,,,,,,,,,,,,,,,,,,,,,,,,,,,,,,,
1656263178.134735,1656263178.158716,28.000000,0.000000,4281.025879,4243.077148,4077.948730,4074.358887,4226.153809,0.000000,4.000000,95.000000,,,,0.000000,4.000000,4.000000,4.000000,4.000000,4.000000,100.000000,,,,,,,,,,,,,,,,,,,,,,,,,,,,,,,,,,,,,,,,,,,,,,,,,,,,,,,,,,,,,,,
1656263178.142550,1656263178.166530,29.000000,0.000000,4275.897461,4248.717773,4071.794922,4070.769287,4214.358887,0.000000,4.000000,95.000000,,,,0.000000,4.000000,4.000000,4.000000,4.000000,4.000000,100.000000,,,,,,,,,,,,,,,,,,,,,,,,,,,,,,,,,,,,,,,,,,,,,,,,,,,,,,,,,,,,,,,
1656263178.150365,1656263178.174344,30.000000,0.000000,4274.358887,4241.025879,4084.615479,4068.205078,4215.897461,0.000000,4.000000,95.000000,,,,0.000000,4.000000,4.000000,4.000000,4.000000,4.000000,100.000000,,,,,,,,,,,,,,,,,,,,,,,,,,,,,,,,,,,,,,,,,,,,,,,,,,,,,,,,,,,,,,,
1656263178.158180,1656263178.182059,31.000000,0.000000,4274.358887,4246.153809,4105.641113,4089.230713,4231.794922,0.000000,4.000000,95.000000,,,,0.000000,4.000000,4.000000,4.000000,4.000000,4.000000,100.000000,,,,,,,,,,,,,,,,,,,,,,,,,,,,,,,,,,,,,,,,,,,,,,,,,,,,,,,,,,,,,,,
1656263178.165994,1656263178.189973,32.000000,0.000000,4285.128418,4258.461426,4107.692383,4104.615234,4252.820313,0.000000,4.000000,95.000000,,,,0.000000,4.000000,4.000000,4.000000,4.000000,4.000000,100.000000,,,,,,,,,,,,,,,,,,,,,,,,,,,,,,,,,,,,,,,,,,,,,,,,,,,,,,,,,,,,,,,
1656263178.173809,1656263178.197788,33.000000,0.000000,4292.820313,4271.794922,4104.615234,4090.769287,4245.128418,0.000000,4.000000,95.000000,,,,0.000000,4.000000,4.000000,4.000000,4.000000,4.000000,100.000000,,,,,,,,,,,,,,,,,,,,,,,,,,,,,,,,,,,,,,,,,,,,,,,,,,,,,,,,,,,,,,,
1656263178.181624,1656263178.205702,34.000000,0.000000,4286.666504,4288.717773,4113.333496,4090.769287,4232.307617,0.000000,4.000000,95.000000,,,,0.000000,4.000000,4.000000,4.000000,4.000000,4.000000,100.000000,,,,,,,,,,,,,,,,,,,,,,,,,,,,,,,,,,,,,,,,,,,,,,,,,,,,,,,,,,,,,,,
1656263178.189439,1656263178.213516,35.000000,0.000000,4275.384766,4273.333496,4105.128418,4098.974121,4238.461426,0.000000,4.000000,95.000000,,,,0.000000,4.000000,4.000000,4.000000,4.000000,4.000000,100.000000,,,,,,,,,,,,,,,,,,,,,,,,,,,,,,,,,,,,,,,,,,,,,,,,,,,,,,,,,,,,,,,
1656263178.197253,1656263178.221331,36.000000,0.000000,4271.282227,4249.743652,4086.666748,4088.718018,4242.563965,0.000000,4.000000,95.000000,,,,0.000000,4.000000,4.000000,4.000000,4.000000,4.000000,100.000000,,,,,,,,,,,,,,,,,,,,,,,,,,,,,,,,,,,,,,,67.855484,3.564643,2.127597,1.807341,1.343905,2.044003,0.715638,0.836874,0.903305,1.279360,4.634198,6.234272,2.652218,2.070813,0.974820,1.833680,1.277853,1.608407,1.036001,0.894492,31.313334,2.426791,2.000152,1.285865,0.862228
1656263178.205068,1656263178.229045,37.000000,0.000000,4270.256348,4261.025879,4072.307617,4083.076904,4241.025879,0.000000,4.000000,95.000000,,,,0.000000,4.000000,4.000000,4.000000,4.000000,4.000000,100.000000,,,,,,,,,,,,,,,,,,,,,,,,,,,,,,,,,,,,,,,,,,,,,,,,,,,,,,,,,,,,,,,
1656263178.212883,1656263178.236760,38.000000,0.000000,4270.256348,4261.538574,4059.487061,4090.769287,4247.179688,0.000000,4.000000,95.000000,,,,0.000000,4.000000,4.000000,4.000000,4.000000,4.000000,100.000000,,,,,,,,,,,,,,,,,,,,,,,,,,,,,,,,,,,,,,,,,,,,,,,,,,,,,,,,,,,,,,,
1656263178.220698,1656263178.244574,39.000000,0.000000,4275.384766,4244.615234,4070.256348,4091.281982,4246.666504,0.000000,4.000000,95.000000,,,,0.000000,4.000000,4.000000,4.000000,4.000000,4.000000,100.000000,,,,,,,,,,,,,,,,,,,,,,,,,,,,,,,,,,,,,,,,,,,,,,,,,,,,,,,,,,,,,,,
1656263178.228512,1656263178.252289,40.000000,0.000000,4276.410156,4251.282227,4102.051270,4089.743652,4239.487305,0.000000,4.000000,95.000000,,,,0.000000,4.000000,4.000000,4.000000,4.000000,4.000000,100.000000,,,,,,,,,,,,,,,,,,,,,,,,,,,,,,,,,,,,,,,,,,,,,,,,,,,,,,,,,,,,,,,
1656263178.236327,1656263178.260103,41.000000,0.000000,4276.922852,4264.102539,4121.025879,4091.281982,4243.589844,0.000000,4.000000,95.000000,,,,0.000000,4.000000,4.000000,4.000000,4.000000,4.000000,100.000000,,,,,,,,,,,,,,,,,,,,,,,,,,,,,,,,,,,,,,,,,,,,,,,,,,,,,,,,,,,,,,,
1656263178.244142,1656263178.267818,42.000000,0.000000,4282.563965,4263.589844,4120.000000,4092.820557,4242.563965,0.000000,4.000000,95.000000,,,,0.000000,4.000000,4.000000,4.000000,4.000000,4.000000,100.000000,,,,,,,,,,,,,,,,,,,,,,,,,,,,,,,,,,,,,,,,,,,,,,,,,,,,,,,,,,,,,,,
1656263178.251957,1656263178.275632,43.000000,0.000000,4287.692383,4268.205078,4116.410156,4097.948730,4239.487305,0.000000,4.000000,95.000000,,,,0.000000,4.000000,4.000000,4.000000,4.000000,4.000000,100.000000,,,,,,,,,,,,,,,,,,,,,,,,,,,,,,,,,,,,,,,,,,,,,,,,,,,,,,,,,,,,,,,
1656263178.259771,1656263178.283346,44.000000,0.000000,4288.205078,4275.897461,4121.025879,4112.307617,4246.666504,0.000000,4.000000,95.000000,,,,0.000000,4.000000,4.000000,4.000000,4.000000,4.000000,100.000000,,,,,,,,,,,,,,,,,,,,,,,,,,,,,,,,,,,,,,,,,,,,,,,,,,,,,,,,,,,,,,,
1656263178.267586,1656263178.291161,45.000000,0.000000,4278.974121,4270.769043,4133.846191,4117.436035,4242.563965,0.000000,4.000000,95.000000,,,,0.000000,4.000000,4.000000,4.000000,4.000000,4.000000,100.000000,,,,,,,,,,,,,,,,,,,,,,,,,,,,,,,,,,,,,,,,,,,,,,,,,,,,,,,,,,,,,,,
1656263178.275401,1656263178.298875,46.000000,0.000000,4269.743652,4260.000000,4142.563965,4100.512695,4228.717773,0.000000,4.000000,95.000000,,,,0.000000,4.000000,4.000000,4.000000,4.000000,4.000000,100.000000,,,,,,,,,,,,,,,,,,,,,,,,,,,,,,,,,,,,,,,,,,,,,,,,,,,,,,,,,,,,,,,
1656263178.283216,1656263178.306790,47.000000,0.000000,4283.589844,4252.307617,4137.436035,4103.077148,4239.487305,0.000000,4.000000,95.000000,,,,0.000000,4.000000,4.000000,4.000000,4.000000,4.000000,100.000000,,,,,,,,,,,,,,,,,,,,,,,,,,,,,,,,,,,,,,,,,,,,,,,,,,,,,,,,,,,,,,,
1656263178.291030,1656263178.314604,48.000000,0.000000,4298.461426,4256.922852,4136.410156,4122.563965,4251.794922,0.000000,4.000000,95.000000,,,,0.000000,4.000000,4.000000,4.000000,4.000000,4.000000,100.000000,,,,,,,,,,,,,,,,,,,,,,,,,,,,,,,,,,,,,,,,,,,,,,,,,,,,,,,,,,,,,,,
1656263178.298845,1656263178.322518,49.000000,0.000000,4279.487305,4261.025879,4132.307617,4116.410156,4233.333496,0.000000,4.000000,95.000000,,,,0.000000,4.000000,4.000000,4.000000,4.000000,4.000000,100.000000,,,,,,,,,,,,,,,,,,,,,,,,,,,,,,,,,,,,,,,,,,,,,,,,,,,,,,,,,,,,,,,
1656263178.306660,1656263178.330333,50.000000,0.000000,4260.000000,4243.077148,4112.307617,4109.230957,4223.589844,0.000000,4.000000,95.000000,,,,0.000000,4.000000,4.000000,4.000000,4.000000,4.000000,100.000000,,,,,,,,,,,,,,,,,,,,,,,,,,,,,,,,,,,,,,,,,,,,,,,,,,,,,,,,,,,,,,,
1656263178.314475,1656263178.338247,51.000000,0.000000,4268.717773,4233.333496,4107.179688,4113.846191,4234.358887,0.000000,4.000000,95.000000,,,,0.000000,4.000000,4.000000,4.000000,4.000000,4.000000,100.000000,,,,,,,,,,,,,,,,,,,,,,,,,,,,,,,,,,,,,,,,,,,,,,,,,,,,,,,,,,,,,,,
1656263178.322289,1656263178.346062,52.000000,0.000000,4276.922852,4250.256348,4118.974121,4102.051270,4236.922852,0.000000,4.000000,95.000000,,,,0.000000,4.000000,4.000000,4.000000,4.000000,4.000000,100.000000,,,,,,,,,,,,,,,,,,,,,,,,,,,,,,,,,,,,,,,47.982307,2.900660,2.115954,1.541111,1.388330,2.246145,0.683613,0.893274,0.897429,1.155289,5.372086,5.064185,2.556536,1.977636,0.987009,1.578824,1.357523,1.546375,1.223787,0.960694,22.826300,2.181710,2.303492,1.283933,0.941751
1656263178.330104,1656263178.353976,53.000000,0.000000,4271.282227,4261.025879,4130.256348,4093.333252,4241.025879,0.000000,4.000000,95.000000,,,,0.000000,4.000000,4.000000,4.000000,4.000000,4.000000,100.000000,,,,,,,,,,,,,,,,,,,,,,,,,,,,,,,,,,,,,,,,,,,,,,,,,,,,,,,,,,,,,,,
1656263178.337919,1656263178.361790,54.000000,0.000000,4282.563965,4242.563965,4144.615234,4105.128418,4264.102539,0.000000,4.000000,95.000000,,,,0.000000,4.000000,4.000000,4.000000,4.000000,4.000000,100.000000,,,,,,,,,,,,,,,,,,,,,,,,,,,,,,,,,,,,,,,,,,,,,,,,,,,,,,,,,,,,,,,
1656263178.345734,1656263178.369705,55.000000,0.000000,4295.897461,4227.179688,4134.358887,4111.282227,4256.922852,0.000000,4.000000,95.000000,,,,0.000000,4.000000,4.000000,4.000000,4.000000,4.000000,100.000000,,,,,,,,,,,,,,,,,,,,,,,,,,,,,,,,,,,,,,,,,,,,,,,,,,,,,,,,,,,,,,,
1656263178.353548,1656263178.377519,56.000000,0.000000,4277.948730,4232.820313,4103.077148,4105.641113,4215.897461,0.000000,4.000000,95.000000,,,,0.000000,4.000000,4.000000,4.000000,4.000000,4.000000,100.000000,,,,,,,,,,,,,,,,,,,,,,,,,,,,,,,,,,,,,,,,,,,,,,,,,,,,,,,,,,,,,,,
1656263178.361363,1656263178.385433,57.000000,0.000000,4261.538574,4241.538574,4106.153809,4106.666504,4225.641113,0.000000,4.000000,95.000000,,,,0.000000,4.000000,4.000000,4.000000,4.000000,4.000000,100.000000,,,,,,,,,,,,,,,,,,,,,,,,,,,,,,,,,,,,,,,,,,,,,,,,,,,,,,,,,,,,,,,
1656263178.369178,1656263178.393248,58.000000,0.000000,4262.563965,4246.666504,4124.102539,4120.512695,4248.205078,0.000000,4.000000,95.000000,,,,0.000000,4.000000,4.000000,4.000000,4.000000,4.000000,100.000000,,,,,,,,,,,,,,,,,,,,,,,,,,,,,,,,,,,,,,,,,,,,,,,,,,,,,,,,,,,,,,,
1656263178.376993,1656263178.400962,59.000000,0.000000,4264.615234,4255.897461,4115.897461,4126.666504,4228.717773,0.000000,4.000000,95.000000,,,,0.000000,4.000000,4.000000,4.000000,4.000000,4.000000,100.000000,,,,,,,,,,,,,,,,,,,,,,,,,,,,,,,,,,,,,,,,,,,,,,,,,,,,,,,,,,,,,,,
1656263178.384807,1656263178.408777,60.000000,0.000000,4274.871582,4248.205078,4105.641113,4115.897461,4227.692383,0.000000,4.000000,95.000000,,,,0.000000,4.000000,4.000000,4.000000,4.000000,4.000000,100.000000,,,,,,,,,,,,,,,,,,,,,,,,,,,,,,,,,,,,,,,,,,,,,,,,,,,,,,,,,,,,,,,
1656263178.392622,1656263178.416491,61.000000,0.000000,4283.589844,4233.333496,4092.307617,4116.922852,4248.717773,0.000000,4.000000,95.000000,,,,0.000000,4.000000,4.000000,4.000000,4.000000,4.000000,100.000000,,,,,,,,,,,,,,,,,,,,,,,,,,,,,,,,,,,,,,,,,,,,,,,,,,,,,,,,,,,,,,,
1656263178.400437,1656263178.424405,62.000000,0.000000,4274.871582,4253.846191,4065.641113,4134.358887,4235.897461,0.000000,4.000000,95.000000,,,,0.000000,4.000000,4.000000,4.000000,4.000000,4.000000,100.000000,,,,,,,,,,,,,,,,,,,,,,,,,,,,,,,,,,,,,,,,,,,,,,,,,,,,,,,,,,,,,,,
1656263178.408252,1656263178.432220,63.000000,0.000000,4258.974121,4263.077148,4053.846191,4132.307617,4214.358887,0.000000,4.000000,95.000000,,,,0.000000,4.000000,4.000000,4.000000,4.000000,4.000000,100.000000,,,,,,,,,,,,,,,,,,,,,,,,,,,,,,,,,,,,,,,,,,,,,,,,,,,,,,,,,,,,,,,
1656263178.416066,1656263178.440134,64.000000,0.000000,4251.282227,4236.922852,4055.897461,4112.307617,4223.077148,450.000000,4.000000,95.000000,,,,0.000000,4.000000,4.000000,4.000000,4.000000,4.000000,100.000000,,,,,,,,,,,,,,,,,,,,,,,,,,,,,,,,,,,,,,,,,,,,,,,,,,,,,,,,,,,,,,,
1656263178.423881,1656263178.448048,65.000000,0.000000,4257.436035,4248.717773,4070.769287,4111.794922,4228.205078,450.000000,4.000000,95.000000,,,,0.000000,4.000000,4.000000,4.000000,4.000000,4.000000,100.000000,,,,,,,,,,,,,,,,,,,,,,,,,,,,,,,,,,,,,,,,,,,,,,,,,,,,,,,,,,,,,,,
1656263178.431696,1656263178.455863,66.000000,0.000000,4274.358887,4282.051270,4116.410156,4123.077148,4227.179688,16226.000000,4.000000,95.000000,,,,0.000000,4.000000,4.000000,4.000000,4.000000,4.000000,100.000000,,,,,,,,,,,,,,,,,,,,,,,,,,,,,,,,,,,,,,,,,,,,,,,,,,,,,,,,,,,,,,,
1656263178.439510,1656263178.463677,67.000000,0.000000,4283.589844,4262.563965,4155.897461,4116.922852,4238.461426,450.000000,4.000000,95.000000,,,,0.000000,4.000000,4.000000,4.000000,4.000000,4.000000,100.000000,,,,,,,,,,,,,,,,,,,,,,,,,,,,,,,,,,,,,,,,,,,,,,,,,,,,,,,,,,,,,,,
1656263178.447325,1656263178.471592,68.000000,0.000000,4273.846191,4230.769043,4156.410156,4111.794922,4239.487305,16179.000000,4.000000,95.000000,,,,0.000000,4.000000,4.000000,4.000000,4.000000,4.000000,100.000000,1.000000,100.000000,4.000000,4.000000,4.000000,4.000000,4.000000,,,,,,,,,,,,,,,,,,,,,,,,,,,,,,,,28.841354,2.117471,2.030033,1.218681,1.391317,2.604672,0.672997,0.952729,0.934268,0.996259,6.659282,4.121250,2.859948,1.779821,1.010374,1.374753,1.468732,1.495247,1.446709,1.021823,14.797965,1.856806,2.298350,1.254158,1.018610
1656263178.455140,1656263178.479406,69.000000,0.000000,4261.025879,4245.641113,4154.871582,4118.974121,4225.641113,450.000000,4.000000,95.000000,,,,0.000000,4.000000,4.000000,4.000000,4.000000,4.000000,100.000000,,,,,,,,,,,,,,,,,,,,,,,,,,,,,,,,,,,,,,,,,,,,,,,,,,,,,,,,,,,,,,,
1656263178.462955,1656263178.487320,70.000000,0.000000,4255.897461,4266.153809,4146.666504,4111.794922,4216.410156,16185.000000,4.000000,95.000000,,,,0.000000,4.000000,4.000000,4.000000,4.000000,4.000000,100.000000,,,,,,,,,,,,,,,,,,,,,,,,,,,,,,,,,,,,,,,,,,,,,,,,,,,,,,,,,,,,,,,
1656263178.470770,1656263178.495235,71.000000,0.000000,4252.307617,4257.948730,4116.410156,4107.692383,4218.461426,450.000000,4.000000,95.000000,,,,0.000000,4.000000,4.000000,4.000000,4.000000,4.000000,100.000000,,,,,,,,,,,,,,,,,,,,,,,,,,,,,,,,,,,,,,,,,,,,,,,,,,,,,,,,,,,,,,,
1656263178.478584,1656263178.503049,72.000000,0.000000,4256.922852,4248.717773,4097.948730,4131.794922,4226.666504,450.000000,4.000000,95.000000,,,,0.000000,4.000000,4.000000,4.000000,4.000000,4.000000,100.000000,,,,,,,,,,,,,,,,,,,,,,,,,,,,,,,,,,,,,,,,,,,,,,,,,,,,,,,,,,,,,,,
1656263178.486399,1656263178.510963,73.000000,0.000000,4260.512695,4251.282227,4091.281982,4133.333496,4224.102539,16194.000000,4.000000,95.000000,,,,0.000000,4.000000,4.000000,4.000000,4.000000,4.000000,100.000000,,,,,,,,,,,,,,,,,,,,,,,,,,,,,,,,,,,,,,,,,,,,,,,,,,,,,,,,,,,,,,,
1656263178.494214,1656263178.518778,74.000000,0.000000,4261.538574,4257.436035,4087.692383,4110.769043,4214.871582,450.000000,4.000000,95.000000,,,,0.000000,4.000000,4.000000,4.000000,4.000000,4.000000,100.000000,,,,,,,,,,,,,,,,,,,,,,,,,,,,,,,,,,,,,,,,,,,,,,,,,,,,,,,,,,,,,,,
1656263178.502029,1656263178.526692,75.000000,0.000000,4255.384766,4255.384766,4084.615479,4116.922852,4205.641113,16196.000000,4.000000,95.000000,,,,0.000000,4.000000,4.000000,4.000000,4.000000,4.000000,100.000000,,,,,,,,,,,,,,,,,,,,,,,,,,,,,,,,,,,,,,,,,,,,,,,,,,,,,,,,,,,,,,,
1656263178.509843,1656263178.534506,76.000000,0.000000,4241.538574,4243.077148,4082.564209,4119.487305,4202.563965,450.000000,4.000000,95.000000,,,,0.000000,4.000000,4.000000,4.000000,4.000000,4.000000,100.000000,,,,,,,,,,,,,,,,,,,,,,,,,,,,,,,,,,,,,,,,,,,,,,,,,,,,,,,,,,,,,,,
1656263178.517658,1656263178.542421,77.000000,0.000000,4250.256348,4251.794922,4101.538574,4101.025879,4220.000000,450.000000,4.000000,95.000000,,,,0.000000,4.000000,4.000000,4.000000,4.000000,4.000000,100.000000,,,,,,,,,,,,,,,,,,,,,,,,,,,,,,,,,,,,,,,,,,,,,,,,,,,,,,,,,,,,,,,
1656263178.525473,1656263178.550235,78.000000,0.000000,4258.461426,4267.692383,4129.230957,4100.000000,4220.000000,450.000000,4.000000,95.000000,,,,0.000000,4.000000,4.000000,4.000000,4.000000,4.000000,100.000000,,,,,,,,,,,,,,,,,,,,,,,,,,,,,,,,,,,,,,,,,,,,,,,,,,,,,,,,,,,,,,,
1656263178.533287,1656263178.558149,79.000000,0.000000,4251.282227,4256.922852,4132.307617,4109.743652,4199.487305,16196.000000,4.000000,95.000000,,,,0.000000,4.000000,4.000000,4.000000,4.000000,4.000000,100.000000,,,,,,,,,,,,,,,,,,,,,,,,,,,,,,,,,,,,,,,,,,,,,,,,,,,,,,,,,,,,,,,
1656263178.541102,1656263178.565964,80.000000,0.000000,4258.974121,4246.666504,4116.922852,4114.871582,4217.948730,450.000000,4.000000,95.000000,,,,0.000000,4.000000,4.000000,4.000000,4.000000,4.000000,100.000000,,,,,,,,,,,,,,,,,,,,,,,,,,,,,,,,,,,,,,,,,,,,,,,,,,,,,,,,,,,,,,,
1656263178.548917,1656263178.573878,81.000000,0.000000,4264.615234,4247.179688,4108.205078,4121.538574,4249.230957,450.000000,4.000000,95.000000,,,,0.000000,4.000000,4.000000,4.000000,4.000000,4.000000,100.000000,,,,,,,,,,,,,,,,,,,,,,,,,,,,,,,,,,,,,,,,,,,,,,,,,,,,,,,,,,,,,,,
1656263178.556732,1656263178.581693,82.000000,0.000000,4255.897461,4241.025879,4100.512695,4130.256348,4235.897461,450.000000,4.000000,95.000000,,,,0.000000,4.000000,4.000000,4.000000,4.000000,4.000000,100.000000,,,,,,,,,,,,,,,,,,,,,,,,,,,,,,,,,,,,,,,,,,,,,,,,,,,,,,,,,,,,,,,
1656263178.564546,1656263178.589607,83.000000,0.000000,4262.051270,4244.615234,4086.666748,4128.205078,4218.461426,16196.000000,4.000000,95.000000,,,,0.000000,4.000000,4.000000,4.000000,4.000000,4.000000,100.000000,,,,,,,,,,,,,,,,,,,,,,,,,,,,,,,,,,,,,,,,,,,,,,,,,,,,,,,,,,,,,,,
1656263178.572361,1656263178.597521,84.000000,0.000000,4257.436035,4256.922852,4078.974365,4108.205078,4216.922852,450.000000,4.000000,95.000000,,,,0.000000,4.000000,4.000000,4.000000,4.000000,4.000000,100.000000,,,,,,,,,,,,,,,,,,,,,,,,,,,,,,,,,,,,,,,15.156999,1.397753,1.830108,0.913363,1.354771,3.043269,0.679438,1.041661,1.004406,0.843698,8.270118,3.628211,3.387378,1.549641,1.032083,1.242373,1.550721,1.501814,1.655138,1.056720,9.143065,1.521596,1.992516,1.200066,1.070282
1656263178.580176,1656263178.605336,85.000000,0.000000,4224.615234,4258.461426,4083.076904,4087.692383,4203.077148,450.000000,4.000000,95.000000,,,,0.000000,4.000000,4.000000,4.000000,4.000000,4.000000,100.000000,,,,,,,,,,,,,,,,,,,,,,,,,,,,,,,,,,,,,,,,,,,,,,,,,,,,,,,,,,,,,,,
1656263178.587991,1656263178.613250,86.000000,0.000000,4225.128418,4256.410156,4074.871826,4083.589844,4202.563965,450.000000,4.000000,95.000000,,,,0.000000,4.000000,4.000000,4.000000,4.000000,4.000000,100.000000,,,,,,,,,,,,,,,,,,,,,,,,,,,,,,,,,,,,,,,,,,,,,,,,,,,,,,,,,,,,,,,
1656263178.595806,1656263178.621064,87.000000,0.000000,4244.615234,4250.256348,4072.307617,4085.641113,4214.871582,16196.000000,4.000000,95.000000,,,,0.000000,4.000000,4.000000,4.000000,4.000000,4.000000,100.000000,,,,,,,,,,,,,,,,,,,,,,,,,,,,,,,,,,,,,,,,,,,,,,,,,,,,,,,,,,,,,,,
1656263178.603620,1656263178.628879,88.000000,0.000000,4240.000000,4246.666504,4120.000000,4091.794922,4210.256348,450.000000,4.000000,95.000000,,,,0.000000,4.000000,4.000000,4.000000,4.000000,4.000000,100.000000,,,,,,,,,,,,,,,,,,,,,,,,,,,,,,,,,,,,,,,,,,,,,,,,,,,,,,,,,,,,,,,
1656263178.611435,1656263178.636793,89.000000,0.000000,4238.461426,4255.384766,4164.615234,4104.615234,4204.102539,450.000000,4.000000,95.000000,,,,0.000000,4.000000,4.000000,4.000000,4.000000,4.000000,100.000000,,,,,,,,,,,,,,,,,,,,,,,,,,,,,,,,,,,,,,,,,,,,,,,,,,,,,,,,,,,,,,,
1656263178.619250,1656263178.644707,90.000000,0.000000,4249.743652,4263.077148,4147.692383,4115.384766,4210.769043,450.000000,4.000000,95.000000,,,,0.000000,4.000000,4.000000,4.000000,4.000000,4.000000,100.000000,,,,,,,,,,,,,,,,,,,,,,,,,,,,,,,,,,,,,,,,,,,,,,,,,,,,,,,,,,,,,,,
1656263178.627065,1656263178.652522,91.000000,0.000000,4247.179688,4257.436035,4109.230957,4110.769043,4208.717773,16196.000000,4.000000,95.000000,,,,0.000000,4.000000,4.000000,4.000000,4.000000,4.000000,100.000000,,,,,,,,,,,,,,,,,,,,,,,,,,,,,,,,,,,,,,,,,,,,,,,,,,,,,,,,,,,,,,,
1656263178.634879,1656263178.660436,92.000000,0.000000,4237.948730,4238.974121,4100.000000,4101.538574,4202.051270,450.000000,4.000000,95.000000,,,,0.000000,4.000000,4.000000,4.000000,4.000000,4.000000,100.000000,,,,,,,,,,,,,,,,,,,,,,,,,,,,,,,,,,,,,,,,,,,,,,,,,,,,,,,,,,,,,,,
1656263178.642694,1656263178.668250,93.000000,0.000000,4248.205078,4232.307617,4109.743652,4101.025879,4212.820313,450.000000,4.000000,95.000000,,,,0.000000,4.000000,4.000000,4.000000,4.000000,4.000000,100.000000,,,,,,,,,,,,,,,,,,,,,,,,,,,,,,,,,,,,,,,,,,,,,,,,,,,,,,,,,,,,,,,
1656263178.650509,1656263178.676165,94.000000,0.000000,4257.948730,4257.436035,4113.846191,4100.512695,4221.538574,450.000000,4.000000,95.000000,,,,0.000000,4.000000,4.000000,4.000000,4.000000,4.000000,100.000000,,,,,,,,,,,,,,,,,,,,,,,,,,,,,,,,,,,,,,,,,,,,,,,,,,,,,,,,,,,,,,,
1656263178.658323,1656263178.683979,95.000000,0.000000,4249.230957,4272.820313,4103.589844,4104.102539,4214.358887,16196.000000,4.000000,95.000000,,,,0.000000,4.000000,4.000000,4.000000,4.000000,4.000000,100.000000,,,,,,,,,,,,,,,,,,,,,,,,,,,,,,,,,,,,,,,,,,,,,,,,,,,,,,,,,,,,,,,
1656263178.666138,1656263178.691893,96.000000,0.000000,4237.948730,4245.128418,4092.820557,4105.641113,4211.282227,450.000000,4.000000,95.000000,,,,0.000000,4.000000,4.000000,4.000000,4.000000,4.000000,100.000000,,,,,,,,,,,,,,,,,,,,,,,,,,,,,,,,,,,,,,,,,,,,,,,,,,,,,,,,,,,,,,,
1656263178.673953,1656263178.699708,97.000000,0.000000,4250.769043,4237.948730,4106.153809,4101.025879,4219.487305,450.000000,4.000000,95.000000,,,,0.000000,4.000000,4.000000,4.000000,4.000000,4.000000,100.000000,,,,,,,,,,,,,,,,,,,,,,,,,,,,,,,,,,,,,,,,,,,,,,,,,,,,,,,,,,,,,,,
1656263178.681768,1656263178.707622,98.000000,0.000000,4278.461426,4266.153809,4124.102539,4098.974121,4216.410156,450.000000,4.000000,95.000000,,,,0.000000,4.000000,4.000000,4.000000,4.000000,4.000000,100.000000,,,,,,,,,,,,,,,,,,,,,,,,,,,,,,,,,,,,,,,,,,,,,,,,,,,,,,,,,,,,,,,
1656263178.689582,1656263178.715437,99.000000,0.000000,4269.230957,4253.846191,4117.948730,4091.794922,4191.282227,16196.000000,4.000000,95.000000,,,,0.000000,4.000000,4.000000,4.000000,4.000000,4.000000,100.000000,,,,,,,,,,,,,,,,,,,,,,,,,,,,,,,,,,,,,,,,,,,,,,,,,,,,,,,,,,,,,,,
1656263178.697397,1656263178.723351,100.000000,0.000000,4245.128418,4232.820313,4123.077148,4089.743652,4197.436035,450.000000,4.000000,95.000000,,,,0.000000,4.000000,4.000000,4.000000,4.000000,4.000000,100.000000,,,,,,,,,,,,,,,,,,,,,,,,,,,,,,,,,,,,,,,8.166383,0.857754,1.536571,0.704373,1.281891,3.444731,0.707907,1.193578,1.086668,0.736199,9.736793,3.760861,3.944757,1.385822,1.033725,1.165620,1.591838,1.576625,1.789231,1.058359,6.269151,1.222263,1.507197,1.149719,1.082904
1656263178.705212,1656263178.731165,101.000000,0.000000,4265.128418,4246.666504,4151.794922,4099.487305,4245.641113,450.000000,4.000000,95.000000,,,,0.000000,4.000000,4.000000,4.000000,4.000000,4.000000,100.000000,,,,,,,,,,,,,,,,,,,,,,,,,,,,,,,,,,,,,,,,,,,,,,,,,,,,,,,,,,,,,,,
1656263178.713027,1656263178.739080,102.000000,0.000000,4289.743652,4254.871582,4164.615234,4111.282227,4256.922852,450.000000,4.000000,95.000000,,,,0.000000,4.000000,4.000000,4.000000,4.000000,4.000000,100.000000,,,,,,,,,,,,,,,,,,,,,,,,,,,,,,,,,,,,,,,,,,,,,,,,,,,,,,,,,,,,,,,
1656263178.720842,1656263178.746894,103.000000,0.000000,4276.410156,4260.512695,4151.282227,4115.384766,4228.717773,16196.000000,4.000000,95.000000,,,,0.000000,4.000000,4.000000,4.000000,4.000000,4.000000,100.000000,,,,,,,,,,,,,,,,,,,,,,,,,,,,,,,,,,,,,,,,,,,,,,,,,,,,,,,,,,,,,,,
1656263178.728656,1656263178.754808,104.000000,0.000000,4265.641113,4265.641113,4137.948730,4102.051270,4220.000000,450.000000,4.000000,95.000000,,,,0.000000,4.000000,4.000000,4.000000,4.000000,4.000000,100.000000,,,,,,,,,,,,,,,,,,,,,,,,,,,,,,,,,,,,,,,,,,,,,,,,,,,,,,,,,,,,,,,
1656263178.736471,1656263178.762623,105.000000,0.000000,4281.538574,4260.000000,4137.948730,4094.358887,4229.743652,450.000000,4.000000,95.000000,,,,0.000000,4.000000,4.000000,4.000000,4.000000,4.000000,100.000000,,,,,,,,,,,,,,,,,,,,,,,,,,,,,,,,,,,,,,,,,,,,,,,,,,,,,,,,,,,,,,,
1656263178.744286,1656263178.770537,106.000000,0.000000,4284.615234,4264.102539,4131.282227,4108.717773,4223.589844,450.000000,4.000000,95.000000,,,,0.000000,4.000000,4.000000,4.000000,4.000000,4.000000,100.000000,,,,,,,,,,,,,,,,,,,,,,,,,,,,,,,,,,,,,,,,,,,,,,,,,,,,,,,,,,,,,,,
1656263178.752100,1656263178.778351,107.000000,0.000000,4267.179688,4272.820313,4121.025879,4114.358887,4208.205078,16196.000000,4.000000,95.000000,,,,0.000000,4.000000,4.000000,4.000000,4.000000,4.000000,100.000000,,,,,,,,,,,,,,,,,,,,,,,,,,,,,,,,,,,,,,,,,,,,,,,,,,,,,,,,,,,,,,,
1656263178.759915,1656263178.786266,108.000000,0.000000,4263.589844,4264.102539,4122.051270,4096.922852,4218.461426,450.000000,4.000000,95.000000,,,,0.000000,4.000000,4.000000,4.000000,4.000000,4.000000,100.000000,,,,,,,,,,,,,,,,,,,,,,,,,,,,,,,,,,,,,,,,,,,,,,,,,,,,,,,,,,,,,,,
1656263178.767730,1656263178.794080,109.000000,0.000000,4258.974121,4255.897461,4129.230957,4097.436035,4238.461426,450.000000,4.000000,95.000000,,,,0.000000,4.000000,4.000000,4.000000,4.000000,4.000000,100.000000,,,,,,,,,,,,,,,,,,,,,,,,,,,,,,,,,,,,,,,,,,,,,,,,,,,,,,,,,,,,,,,
1656263178.775545,1656263178.801994,110.000000,0.000000,4250.769043,4257.436035,4145.641113,4115.384766,4225.128418,450.000000,4.000000,95.000000,,,,0.000000,4.000000,4.000000,4.000000,4.000000,4.000000,100.000000,,,,,,,,,,,,,,,,,,,,,,,,,,,,,,,,,,,,,,,,,,,,,,,,,,,,,,,,,,,,,,,
1656263178.783359,1656263178.809909,111.000000,0.000000,4246.666504,4241.025879,4151.794922,4113.846191,4193.846191,16196.000000,4.000000,95.000000,,,,0.000000,4.000000,4.000000,4.000000,4.000000,4.000000,100.000000,,,,,,,,,,,,,,,,,,,,,,,,,,,,,,,,,,,,,,,,,,,,,,,,,,,,,,,,,,,,,,,
1656263178.791174,1656263178.817723,112.000000,0.000000,4236.922852,4235.384766,4124.102539,4097.948730,4185.641113,450.000000,4.000000,95.000000,,,,0.000000,4.000000,4.000000,4.000000,4.000000,4.000000,100.000000,,,,,,,,,,,,,,,,,,,,,,,,,,,,,,,,,,,,,,,,,,,,,,,,,,,,,,,,,,,,,,,
1656263178.798989,1656263178.825637,113.000000,0.000000,4242.563965,4266.666504,4102.051270,4094.358887,4193.333496,450.000000,4.000000,95.000000,,,,0.000000,4.000000,4.000000,4.000000,4.000000,4.000000,100.000000,,,,,,,,,,,,,,,,,,,,,,,,,,,,,,,,,,,,,,,,,,,,,,,,,,,,,,,,,,,,,,,
1656263178.806804,1656263178.833452,114.000000,0.000000,4259.487305,4279.487305,4109.743652,4098.974121,4200.000000,450.000000,4.000000,95.000000,,,,0.000000,4.000000,4.000000,4.000000,4.000000,4.000000,100.000000,,,,,,,,,,,,,,,,,,,,,,,,,,,,,,,,,,,,,,,,,,,,,,,,,,,,,,,,,,,,,,,
1656263178.814618,1656263178.841266,115.000000,0.000000,4263.589844,4260.000000,4120.000000,4099.487305,4212.820313,16196.000000,4.000000,95.000000,,,,0.000000,4.000000,4.000000,4.000000,4.000000,4.000000,100.000000,,,,,,,,,,,,,,,,,,,,,,,,,,,,,,,,,,,,,,,,,,,,,,,,,,,,,,,,,,,,,,,
1656263178.822433,1656263178.849181,116.000000,0.000000,4269.230957,4256.922852,4109.743652,4109.230957,4220.000000,450.000000,4.000000,95.000000,,,,0.000000,4.000000,4.000000,4.000000,4.000000,4.000000,100.000000,,,,,,,,,,,,,,,,,,,,,,,,,,,,,,,,,,,,,,,5.772637,0.545273,1.215240,0.650217,1.176546,3.692141,0.755041,1.400869,1.151833,0.698583,10.615123,4.792887,4.484192,1.379198,1.005570,1.107765,1.594567,1.703285,1.803247,1.032105,5.103241,1.006518,1.009445,1.139981,1.060967
1656263178.830248,1656263178.856995,117.000000,0.000000,4268.717773,4257.948730,4101.025879,4106.153809,4204.102539,450.000000,4.000000,95.000000,,,,0.000000,4.000000,4.000000,4.000000,4.000000,4.000000,100.000000,,,,,,,,,,,,,,,,,,,,,,,,,,,,,,,,,,,,,,,,,,,,,,,,,,,,,,,,,,,,,,,
1656263178.838063,1656263178.864909,118.000000,0.000000,4262.051270,4245.641113,4109.230957,4084.615479,4202.563965,450.000000,4.000000,95.000000,,,,0.000000,4.000000,4.000000,4.000000,4.000000,4.000000,100.000000,,,,,,,,,,,,,,,,,,,,,,,,,,,,,,,,,,,,,,,,,,,,,,,,,,,,,,,,,,,,,,,
1656263178.845877,1656263178.872724,119.000000,0.000000,4271.282227,4252.307617,4115.384766,4088.718018,4220.000000,16196.000000,4.000000,95.000000,,,,0.000000,4.000000,4.000000,4.000000,4.000000,4.000000,100.000000,,,,,,,,,,,,,,,,,,,,,,,,,,,,,,,,,,,,,,,,,,,,,,,,,,,,,,,,,,,,,,,
1656263178.853692,1656263178.880638,120.000000,0.000000,4268.717773,4257.436035,4113.846191,4102.051270,4212.820313,450.000000,4.000000,95.000000,,,,0.000000,4.000000,4.000000,4.000000,4.000000,4.000000,100.000000,,,,,,,,,,,,,,,,,,,,,,,,,,,,,,,,,,,,,,,,,,,,,,,,,,,,,,,,,,,,,,,
1656263178.861507,1656263178.888552,121.000000,0.000000,4252.820313,4246.666504,4124.615234,4092.820557,4203.589844,450.000000,4.000000,95.000000,,,,0.000000,4.000000,4.000000,4.000000,4.000000,4.000000,100.000000,,,,,,,,,,,,,,,,,,,,,,,,,,,,,,,,,,,,,,,,,,,,,,,,,,,,,,,,,,,,,,,
1656263178.869322,1656263178.896367,122.000000,0.000000,4269.743652,4253.846191,4134.358887,4093.333252,4210.769043,450.000000,4.000000,95.000000,,,,0.000000,4.000000,4.000000,4.000000,4.000000,4.000000,100.000000,,,,,,,,,,,,,,,,,,,,,,,,,,,,,,,,,,,,,,,,,,,,,,,,,,,,,,,,,,,,,,,
1656263178.877136,1656263178.904181,123.000000,0.000000,4288.205078,4273.846191,4118.974121,4120.512695,4216.410156,16196.000000,4.000000,95.000000,,,,0.000000,4.000000,4.000000,4.000000,4.000000,4.000000,100.000000,,,,,,,,,,,,,,,,,,,,,,,,,,,,,,,,,,,,,,,,,,,,,,,,,,,,,,,,,,,,,,,
1656263178.884951,1656263178.911896,124.000000,0.000000,4272.307617,4267.179688,4114.358887,4128.717773,4213.333496,450.000000,4.000000,95.000000,,,,0.000000,4.000000,4.000000,4.000000,4.000000,4.000000,100.000000,,,,,,,,,,,,,,,,,,,,,,,,,,,,,,,,,,,,,,,,,,,,,,,,,,,,,,,,,,,,,,,
1656263178.892766,1656263178.919810,125.000000,0.000000,4268.717773,4250.256348,4126.153809,4111.794922,4211.794922,450.000000,4.000000,95.000000,,,,0.000000,4.000000,4.000000,4.000000,4.000000,4.000000,100.000000,,,,,,,,,,,,,,,,,,,,,,,,,,,,,,,,,,,,,,,,,,,,,,,,,,,,,,,,,,,,,,,
1656263178.900581,1656263178.927724,126.000000,0.000000,4287.692383,4263.589844,4126.666504,4105.128418,4216.410156,450.000000,4.000000,95.000000,,,,0.000000,4.000000,4.000000,4.000000,4.000000,4.000000,100.000000,,,,,,,,,,,,,,,,,,,,,,,,,,,,,,,,,,,,,,,,,,,,,,,,,,,,,,,,,,,,,,,
1656263178.908395,1656263178.935539,127.000000,0.000000,4299.487305,4277.436035,4129.230957,4102.563965,4233.333496,243.000000,4.000000,95.000000,,,,0.000000,4.000000,4.000000,4.000000,4.000000,4.000000,100.000000,,,,,,,,,,,,,,,,,,,,,,,,,,,,,,,,,,,,,,,,,,,,,,,,,,,,,,,,,,,,,,,
1656263178.916210,1656263178.943453,0.000000,0.000000,4317.948730,4268.205078,4138.974121,4104.102539,4260.000000,450.000000,4.000000,95.000000,,,,0.000000,4.000000,4.000000,4.000000,4.000000,4.000000,100.000000,,,,,,,,,,,,,,,,,,,,,,,,,,,,,,,,,,,,,,,,,,,,,,,,,,,,,,,,,,,,,,,
1656263178.924025,1656263178.951267,1.000000,0.000000,4350.769043,4255.384766,4123.589844,4109.230957,4272.820313,450.000000,4.000000,95.000000,,,,0.000000,4.000000,4.000000,4.000000,4.000000,4.000000,100.000000,,,,,,,,,,,,,,,,,,,,,,,,,,,,,,,,,,,,,,,,,,,,,,,,,,,,,,,,,,,,,,,
1656263178.931840,1656263178.959182,2.000000,0.000000,4380.000000,4253.846191,4095.897461,4105.641113,4277.948730,16189.000000,4.000000,95.000000,,,,0.000000,4.000000,4.000000,4.000000,4.000000,4.000000,100.000000,,,,,,,,,,,,,,,,,,,,,,,,,,,,,,,,,,,,,,,,,,,,,,,,,,,,,,,,,,,,,,,
1656263178.939654,1656263178.966996,3.000000,0.000000,4409.230957,4264.102539,4093.333252,4116.410156,4302.563965,450.000000,4.000000,95.000000,,,,0.000000,4.000000,4.000000,4.000000,4.000000,4.000000,100.000000,,,,,,,,,,,,,,,,,,,,,,,,,,,,,,,,,,,,,,,,,,,,,,,,,,,,,,,,,,,,,,,
1656263178.947469,1656263178.974810,4.000000,0.000000,4461.538574,4269.230957,4099.487305,4131.282227,4345.128418,16134.000000,4.000000,95.000000,,,,0.000000,4.000000,4.000000,4.000000,4.000000,4.000000,100.000000,1.000000,100.000000,4.000000,4.000000,4.000000,4.000000,4.000000,,,,,,,,,,,,,,,,,,,,,,,,,,,,,,,,4.783999,0.440401,0.940340,0.748475,1.049104,3.700644,0.805818,1.613085,1.172702,0.737669,10.885212,6.896640,5.128862,1.554847,0.953314,1.001549,1.579911,1.854333,1.691332,0.984769,4.182206,0.910826,0.641189,1.194639,1.026341
1656263178.955284,1656263178.982725,5.000000,0.000000,4519.487305,4264.615234,4112.820313,4123.589844,4380.000000,450.000000,4.000000,95.000000,,,,0.000000,4.000000,4.000000,4.000000,4.000000,4.000000,100.000000,,,,,,,,,,,,,,,,,,,,,,,,,,,,,,,,,,,,,,,,,,,,,,,,,,,,,,,,,,,,,,,
1656263178.963099,1656263178.990539,6.000000,0.000000,4548.717773,4265.641113,4135.897461,4117.948730,4393.333496,16166.000000,4.000000,95.000000,,,,0.000000,4.000000,4.000000,4.000000,4.000000,4.000000,100.000000,,,,,,,,,,,,,,,,,,,,,,,,,,,,,,,,,,,,,,,,,,,,,,,,,,,,,,,,,,,,,,,
1656263178.970913,1656263178.998453,7.000000,0.000000,4554.358887,4267.692383,4152.307617,4122.051270,4398.461426,450.000000,4.000000,95.000000,,,,0.000000,4.000000,4.000000,4.000000,4.000000,4.000000,100.000000,,,,,,,,,,,,,,,,,,,,,,,,,,,,,,,,,,,,,,,,,,,,,,,,,,,,,,,,,,,,,,,
1656263178.978728,1656263179.006268,8.000000,0.000000,4559.487305,4259.487305,4152.307617,4119.487305,4395.897461,450.000000,4.000000,95.000000,,,,0.000000,4.000000,4.000000,4.000000,4.000000,4.000000,100.000000,,,,,,,,,,,,,,,,,,,,,,,,,,,,,,,,,,,,,,,,,,,,,,,,,,,,,,,,,,,,,,,
1656263178.986543,1656263179.014182,9.000000,0.000000,4552.820313,4257.948730,4138.974121,4116.410156,4375.384766,16151.000000,4.000000,95.000000,,,,0.000000,4.000000,4.000000,4.000000,4.000000,4.000000,100.000000,,,,,,,,,,,,,,,,,,,,,,,,,,,,,,,,,,,,,,,,,,,,,,,,,,,,,,,,,,,,,,,
1656263178.994358,1656263179.021997,10.000000,0.000000,4530.769043,4272.307617,4148.205078,4128.205078,4360.000000,450.000000,4.000000,95.000000,,,,0.000000,4.000000,4.000000,4.000000,4.000000,4.000000,100.000000,,,,,,,,,,,,,,,,,,,,,,,,,,,,,,,,,,,,,,,,,,,,,,,,,,,,,,,,,,,,,,,
1656263179.002172,1656263179.029911,11.000000,0.000000,4517.436035,4271.794922,4177.436035,4137.948730,4365.128418,16178.000000,4.000000,95.000000,,,,0.000000,4.000000,4.000000,4.000000,4.000000,4.000000,100.000000,,,,,,,,,,,,,,,,,,,,,,,,,,,,,,,,,,,,,,,,,,,,,,,,,,,,,,,,,,,,,,,
1656263179.009987,1656263179.037725,12.000000,0.000000,4497.436035,4248.205078,4171.794922,4126.666504,4360.000000,450.000000,4.000000,95.000000,,,,0.000000,4.000000,4.000000,4.000000,4.000000,4.000000,100.000000,,,,,,,,,,,,,,,,,,,,,,,,,,,,,,,,,,,,,,,,,,,,,,,,,,,,,,,,,,,,,,,
1656263179.017802,1656263179.045640,13.000000,0.000000,4471.282227,4237.948730,4142.051270,4116.410156,4341.025879,450.000000,4.000000,95.000000,,,,0.000000,4.000000,4.000000,4.000000,4.000000,4.000000,100.000000,,,,,,,,,,,,,,,,,,,,,,,,,,,,,,,,,,,,,,,,,,,,,,,,,,,,,,,,,,,,,,,
1656263179.025617,1656263179.053454,14.000000,0.000000,4449.743652,4250.769043,4143.589844,4122.051270,4315.384766,450.000000,4.000000,95.000000,,,,0.000000,4.000000,4.000000,4.000000,4.000000,4.000000,100.000000,,,,,,,,,,,,,,,,,,,,,,,,,,,,,,,,,,,,,,,,,,,,,,,,,,,,,,,,,,,,,,,
1656263179.033431,1656263179.061168,15.000000,0.000000,4420.512695,4256.922852,4160.512695,4130.769043,4283.589844,16178.000000,4.000000,95.000000,,,,0.000000,4.000000,4.000000,4.000000,4.000000,4.000000,100.000000,,,,,,,,,,,,,,,,,,,,,,,,,,,,,,,,,,,,,,,,,,,,,,,,,,,,,,,,,,,,,,,
1656263179.041246,1656263179.069083,16.000000,0.000000,4393.846191,4251.794922,4151.282227,4129.230957,4269.230957,0.000000,4.000000,95.000000,,,,0.000000,4.000000,4.000000,4.000000,4.000000,4.000000,100.000000,,,,,,,,,,,,,,,,,,,,,,,,,,,,,,,,,,,,,,,,,,,,,,,,,,,,,,,,,,,,,,,
1656263179.049061,1656263179.076997,17.000000,0.000000,4374.358887,4247.179688,4130.769043,4119.487305,4263.589844,0.000000,4.000000,95.000000,,,,0.000000,4.000000,4.000000,4.000000,4.000000,4.000000,100.000000,,,,,,,,,,,,,,,,,,,,,,,,,,,,,,,,,,,,,,,,,,,,,,,,,,,,,,,,,,,,,,,
1656263179.056876,1656263179.084811,18.000000,0.000000,4348.205078,4240.000000,4135.897461,4117.948730,4254.871582,0.000000,4.000000,95.000000,,,,0.000000,4.000000,4.000000,4.000000,4.000000,4.000000,100.000000,,,,,,,,,,,,,,,,,,,,,,,,,,,,,,,,,,,,,,,,,,,,,,,,,,,,,,,,,,,,,,,
1656263179.064690,1656263179.092726,19.000000,0.000000,4330.769043,4238.461426,4154.871582,4119.487305,4254.358887,0.000000,4.000000,95.000000,,,,0.000000,4.000000,4.000000,4.000000,4.000000,4.000000,100.000000,,,,,,,,,,,,,,,,,,,,,,,,,,,,,,,,,,,,,,,,,,,,,,,,,,,,,,,,,,,,,,,
1656263179.072505,1656263179.100540,20.000000,0.000000,4335.897461,4240.512695,4157.948730,4111.282227,4253.333496,0.000000,4.000000,95.000000,,,,0.000000,4.000000,4.000000,4.000000,4.000000,4.000000,100.000000,,,,,,,,,,,,,,,,,,,,,,,,,,,,,,,,,,,,,,,3.454074,0.518163,0.749820,0.933460,0.921365,3.475754,0.842171,1.766594,1.137954,0.839691,10.737749,9.915100,5.986064,1.864304,0.897545,0.861070,1.596732,2.008727,1.488967,0.922879,2.909271,0.955221,0.455895,1.311623,1.008968
1656263179.080320,1656263179.108455,21.000000,0.000000,4337.948730,4249.743652,4155.384766,4104.102539,4247.179688,0.000000,4.000000,95.000000,,,,0.000000,4.000000,4.000000,4.000000,4.000000,4.000000,100.000000,,,,,,,,,,,,,,,,,,,,,,,,,,,,,,,,,,,,,,,,,,,,,,,,,,,,,,,,,,,,,,,
1656263179.088135,1656263179.116269,22.000000,0.000000,4320.512695,4261.538574,4157.436035,4109.743652,4237.436035,0.000000,4.000000,95.000000,,,,0.000000,4.000000,4.000000,4.000000,4.000000,4.000000,100.000000,,,,,,,,,,,,,,,,,,,,,,,,,,,,,,,,,,,,,,,,,,,,,,,,,,,,,,,,,,,,,,,
1656263179.095949,1656263179.124183,23.000000,0.000000,4302.051270,4251.794922,4149.743652,4118.974121,4227.179688,0.000000,4.000000,95.000000,,,,0.000000,4.000000,4.000000,4.000000,4.000000,4.000000,100.000000,,,,,,,,,,,,,,,,,,,,,,,,,,,,,,,,,,,,,,,,,,,,,,,,,,,,,,,,,,,,,,,
1656263179.103764,1656263179.131998,24.000000,0.000000,4286.153809,4230.256348,4126.666504,4111.794922,4218.974121,0.000000,4.000000,95.000000,,,,0.000000,4.000000,4.000000,4.000000,4.000000,4.000000,100.000000,,,,,,,,,,,,,,,,,,,,,,,,,,,,,,,,,,,,,,,,,,,,,,,,,,,,,,,,,,,,,,,
1656263179.111579,1656263179.139912,25.000000,0.000000,4259.487305,4222.051270,4108.205078,4100.000000,4202.563965,0.000000,4.000000,95.000000,,,,0.000000,4.000000,4.000000,4.000000,4.000000,4.000000,100.000000,,,,,,,,,,,,,,,,,,,,,,,,,,,,,,,,,,,,,,,,,,,,,,,,,,,,,,,,,,,,,,,
1656263179.119393,1656263179.147726,26.000000,0.000000,4246.153809,4233.846191,4106.153809,4115.384766,4186.153809,0.000000,4.000000,95.000000,,,,0.000000,4.000000,4.000000,4.000000,4.000000,4.000000,100.000000,,,,,,,,,,,,,,,,,,,,,,,,,,,,,,,,,,,,,,,,,,,,,,,,,,,,,,,,,,,,,,,
1656263179.127208,1656263179.155641,27.000000,0.000000,4255.384766,4236.922852,4115.897461,4137.436035,4188.717773,0.000000,4.000000,95.000000,,,,0.000000,4.000000,4.000000,4.000000,4.000000,4.000000,100.000000,,,,,,,,,,,,,,,,,,,,,,,,,,,,,,,,,,,,,,,,,,,,,,,,,,,,,,,,,,,,,,,
1656263179.135023,1656263179.163455,28.000000,0.000000,4260.512695,4224.615234,4134.871582,4119.487305,4195.384766,0.000000,4.000000,95.000000,,,,0.000000,4.000000,4.000000,4.000000,4.000000,4.000000,100.000000,,,,,,,,,,,,,,,,,,,,,,,,,,,,,,,,,,,,,,,,,,,,,,,,,,,,,,,,,,,,,,,
1656263179.142838,1656263179.171369,29.000000,0.000000,4256.922852,4225.128418,4147.179688,4094.358887,4192.820313,0.000000,4.000000,95.000000,,,,0.000000,4.000000,4.000000,4.000000,4.000000,4.000000,100.000000,,,,,,,,,,,,,,,,,,,,,,,,,,,,,,,,,,,,,,,,,,,,,,,,,,,,,,,,,,,,,,,
1656263179.150653,1656263179.179184,30.000000,0.000000,4248.205078,4238.974121,4136.922852,4110.256348,4196.922852,0.000000,4.000000,95.000000,,,,0.000000,4.000000,4.000000,4.000000,4.000000,4.000000,100.000000,,,,,,,,,,,,,,,,,,,,,,,,,,,,,,,,,,,,,,,,,,,,,,,,,,,,,,,,,,,,,,,
1656263179.158467,1656263179.187098,31.000000,0.000000,4245.128418,4242.051270,4124.615234,4125.641113,4199.487305,0.000000,4.000000,95.000000,,,,0.000000,4.000000,4.000000,4.000000,4.000000,4.000000,100.000000,,,,,,,,,,,,,,,,,,,,,,,,,,,,,,,,,,,,,,,,,,,,,,,,,,,,,,,,,,,,,,,
1656263179.166282,1656263179.194912,32.000000,0.000000,4256.410156,4227.179688,4125.128418,4114.358887,4195.384766,0.000000,4.000000,95.000000,,,,0.000000,4.000000,4.000000,4.000000,4.000000,4.000000,100.000000,,,,,,,,,,,,,,,,,,,,,,,,,,,,,,,,,,,,,,,,,,,,,,,,,,,,,,,,,,,,,,,
1656263179.174097,1656263179.202827,33.000000,0.000000,4266.666504,4231.282227,4133.333496,4113.846191,4203.589844,0.000000,4.000000,95.000000,,,,0.000000,4.000000,4.000000,4.000000,4.000000,4.000000,100.000000,,,,,,,,,,,,,,,,,,,,,,,,,,,,,,,,,,,,,,,,,,,,,,,,,,,,,,,,,,,,,,,
1656263179.181912,1656263179.210641,34.000000,0.000000,4267.179688,4257.948730,4145.641113,4134.358887,4216.410156,0.000000,4.000000,95.000000,,,,0.000000,4.000000,4.000000,4.000000,4.000000,4.000000,100.000000,,,,,,,,,,,,,,,,,,,,,,,,,,,,,,,,,,,,,,,,,,,,,,,,,,,,,,,,,,,,,,,
1656263179.189726,1656263179.218555,35.000000,0.000000,4264.102539,4263.589844,4163.077148,4150.256348,4217.948730,0.000000,4.000000,95.000000,,,,0.000000,4.000000,4.000000,4.000000,4.000000,4.000000,100.000000,,,,,,,,,,,,,,,,,,,,,,,,,,,,,,,,,,,,,,,,,,,,,,,,,,,,,,,,,,,,,,,
1656263179.197541,1656263179.226370,36.000000,0.000000,4264.615234,4244.102539,4174.358887,4150.769043,4220.000000,0.000000,4.000000,95.000000,,,,0.000000,4.000000,4.000000,4.000000,4.000000,4.000000,100.000000,,,,,,,,,,,,,,,,,,,,,,,,,,,,,,,,,,,,,,,3.528572,0.869525,0.657789,1.115981,0.821305,3.057058,0.838162,1.821100,1.056901,0.977384,10.373655,13.167048,6.935992,2.213646,0.864876,0.720711,1.657212,2.133454,1.262737,0.852976,2.375731,1.182771,0.415487,1.469308,1.026942
1656263179.205356,1656263179.234284,37.000000,0.000000,4262.051270,4228.717773,4161.025879,4131.794922,4225.641113,0.000000,4.000000,95.000000,,,,0.000000,4.000000,4.000000,4.000000,4.000000,4.000000,100.000000,,,,,,,,,,,,,,,,,,,,,,,,,,,,,,,,,,,,,,,,,,,,,,,,,,,,,,,,,,,,,,,
1656263179.213170,1656263179.242199,38.000000,0.000000,4255.897461,4230.769043,4141.025879,4101.025879,4218.974121,0.000000,4.000000,95.000000,,,,0.000000,4.000000,4.000000,4.000000,4.000000,4.000000,100.000000,,,,,,,,,,,,,,,,,,,,,,,,,,,,,,,,,,,,,,,,,,,,,,,,,,,,,,,,,,,,,,,
1656263179.220985,1656263179.250013,39.000000,0.000000,4250.256348,4245.128418,4139.487305,4102.051270,4208.205078,0.000000,4.000000,95.000000,,,,0.000000,4.000000,4.000000,4.000000,4.000000,4.000000,100.000000,,,,,,,,,,,,,,,,,,,,,,,,,,,,,,,,,,,,,,,,,,,,,,,,,,,,,,,,,,,,,,,
1656263179.228800,1656263179.257927,40.000000,0.000000,4244.615234,4253.333496,4142.563965,4120.512695,4203.077148,0.000000,4.000000,95.000000,,,,0.000000,4.000000,4.000000,4.000000,4.000000,4.000000,100.000000,,,,,,,,,,,,,,,,,,,,,,,,,,,,,,,,,,,,,,,,,,,,,,,,,,,,,,,,,,,,,,,
1656263179.236615,1656263179.265742,41.000000,0.000000,4237.436035,4250.769043,4143.077148,4107.179688,4201.538574,0.000000,4.000000,95.000000,,,,0.000000,4.000000,4.000000,4.000000,4.000000,4.000000,100.000000,,,,,,,,,,,,,,,,,,,,,,,,,,,,,,,,,,,,,,,,,,,,,,,,,,,,,,,,,,,,,,,
1656263179.244429,1656263179.273656,42.000000,0.000000,4228.205078,4244.615234,4147.692383,4093.333252,4197.948730,0.000000,4.000000,95.000000,,,,0.000000,4.000000,4.000000,4.000000,4.000000,4.000000,100.000000,,,,,,,,,,,,,,,,,,,,,,,,,,,,,,,,,,,,,,,,,,,,,,,,,,,,,,,,,,,,,,,
1656263179.252244,1656263179.281470,43.000000,0.000000,4235.384766,4240.000000,4152.307617,4114.871582,4193.333496,0.000000,4.000000,95.000000,,,,0.000000,4.000000,4.000000,4.000000,4.000000,4.000000,100.000000,,,,,,,,,,,,,,,,,,,,,,,,,,,,,,,,,,,,,,,,,,,,,,,,,,,,,,,,,,,,,,,
1656263179.260059,1656263179.289385,44.000000,0.000000,4247.179688,4243.589844,4161.538574,4141.025879,4195.384766,0.000000,4.000000,95.000000,,,,0.000000,4.000000,4.000000,4.000000,4.000000,4.000000,100.000000,,,,,,,,,,,,,,,,,,,,,,,,,,,,,,,,,,,,,,,,,,,,,,,,,,,,,,,,,,,,,,,
1656263179.267874,1656263179.297199,45.000000,0.000000,4241.025879,4251.794922,4170.256348,4142.051270,4201.538574,0.000000,4.000000,95.000000,,,,0.000000,4.000000,4.000000,4.000000,4.000000,4.000000,100.000000,,,,,,,,,,,,,,,,,,,,,,,,,,,,,,,,,,,,,,,,,,,,,,,,,,,,,,,,,,,,,,,
1656263179.275689,1656263179.305113,46.000000,0.000000,4243.589844,4252.307617,4166.153809,4136.922852,4211.794922,0.000000,4.000000,95.000000,,,,0.000000,4.000000,4.000000,4.000000,4.000000,4.000000,100.000000,,,,,,,,,,,,,,,,,,,,,,,,,,,,,,,,,,,,,,,,,,,,,,,,,,,,,,,,,,,,,,,
1656263179.283503,1656263179.312928,47.000000,0.000000,4250.769043,4243.589844,4163.589844,4134.871582,4214.358887,0.000000,4.000000,95.000000,,,,0.000000,4.000000,4.000000,4.000000,4.000000,4.000000,100.000000,,,,,,,,,,,,,,,,,,,,,,,,,,,,,,,,,,,,,,,,,,,,,,,,,,,,,,,,,,,,,,,
1656263179.291318,1656263179.320842,48.000000,0.000000,4240.000000,4235.384766,4181.025879,4129.230957,4202.563965,0.000000,4.000000,95.000000,,,,0.000000,4.000000,4.000000,4.000000,4.000000,4.000000,100.000000,,,,,,,,,,,,,,,,,,,,,,,,,,,,,,,,,,,,,,,,,,,,,,,,,,,,,,,,,,,,,,,
1656263179.299133,1656263179.328656,49.000000,0.000000,4250.769043,4242.563965,4205.641113,4134.358887,4212.820313,0.000000,4.000000,95.000000,,,,0.000000,4.000000,4.000000,4.000000,4.000000,4.000000,100.000000,,,,,,,,,,,,,,,,,,,,,,,,,,,,,,,,,,,,,,,,,,,,,,,,,,,,,,,,,,,,,,,
