title:david_g_Neutral, start timestamp:1656266151.360934, stop timestamp:1656266156.395188, headset type:INSIGHT, headset serial:A2D201AE, headset firmware:932, channels:84, sampling rate:eeg_128;pm_0.1;pow_8, samples:644       , version:2.1, 
Timestamp,EEG.Counter,EEG.Interpolated,EEG.AF3,EEG.T7,EEG.Pz,EEG.T8,EEG.AF4,EEG.RawCq,EEG.Battery,EEG.BatteryPercent,MarkerIndex,MarkerType,MarkerValueInt,EEG.MarkerHardware,CQ.AF3,CQ.T7,CQ.Pz,CQ.T8,CQ.AF4,CQ.Overall,EQ.SampleRateQuality,EQ.OVERALL,EQ.AF3,EQ.T7,EQ.Pz,EQ.T8,EQ.AF4,PM.Engagement.IsActive,PM.Engagement.Scaled,PM.Engagement.Raw,PM.Engagement.Min,PM.Engagement.Max,PM.Excitement.IsActive,PM.Excitement.Scaled,PM.Excitement.Raw,PM.Excitement.Min,PM.Excitement.Max,PM.LongTermExcitement,PM.Stress.IsActive,PM.Stress.Scaled,PM.Stress.Raw,PM.Stress.Min,PM.Stress.Max,PM.Relaxation.IsActive,PM.Relaxation.Scaled,PM.Relaxation.Raw,PM.Relaxation.Min,PM.Relaxation.Max,PM.Interest.IsActive,PM.Interest.Scaled,PM.Interest.Raw,PM.Interest.Min,PM.Interest.Max,PM.Focus.IsActive,PM.Focus.Scaled,PM.Focus.Raw,PM.Focus.Min,PM.Focus.Max,POW.AF3.Theta,POW.AF3.Alpha,POW.AF3.BetaL,POW.AF3.BetaH,POW.AF3.Gamma,POW.T7.Theta,POW.T7.Alpha,POW.T7.BetaL,POW.T7.BetaH,POW.T7.Gamma,POW.Pz.Theta,POW.Pz.Alpha,POW.Pz.BetaL,POW.Pz.BetaH,POW.Pz.Gamma,POW.T8.Theta,POW.T8.Alpha,POW.T8.BetaL,POW.T8.BetaH,POW.T8.Gamma,POW.AF4.Theta,POW.AF4.Alpha,POW.AF4.BetaL,POW.AF4.BetaH,POW.AF4.Gamma
1656266151.360934,79.000000,0.000000,4302.563965,4246.666504,4078.974365,4102.051270,4226.666504,16245.000000,4.000000,91.000000,,,,0.000000,4.000000,4.000000,0.000000,4.000000,4.000000,66.666664,,,,,,,,,,,,,,,,,,,,,,,,,,,,,,,,,,,,,,,,,,,,,,,,,,,,,,,,,,,,,,,
1656266151.368848,80.000000,0.000000,4274.358887,4242.051270,4085.641113,4092.820557,4222.051270,450.000000,4.000000,91.000000,,,,0.000000,4.000000,4.000000,0.000000,4.000000,4.000000,66.666664,,,,,,,,,,,,,,,,,,,,,,,,,,,,,,,,,,,,,,,,,,,,,,,,,,,,,,,,,,,,,,,
1656266151.376662,81.000000,0.000000,4260.000000,4231.282227,4084.102539,4093.333252,4209.230957,450.000000,4.000000,91.000000,,,,0.000000,4.000000,4.000000,0.000000,4.000000,4.000000,66.666664,,,,,,,,,,,,,,,,,,,,,,,,,,,,,,,,,,,,,,,,,,,,,,,,,,,,,,,,,,,,,,,
1656266151.384577,82.000000,0.000000,4271.794922,4232.307617,4092.307617,4103.589844,4210.769043,450.000000,4.000000,91.000000,,,,0.000000,4.000000,4.000000,0.000000,4.000000,4.000000,66.666664,,,,,,,,,,,,,,,,,,,,,,,,,,,,,,,,,,,,,,,,,,,,,,,,,,,,,,,,,,,,,,,
1656266151.392391,83.000000,0.000000,4287.179688,4235.897461,4100.000000,4111.282227,4231.282227,16245.000000,4.000000,91.000000,,,,0.000000,4.000000,4.000000,0.000000,4.000000,4.000000,66.666664,,,,,,,,,,,,,,,,,,,,,,,,,,,,,,,,,,,,,,,,,,,,,,,,,,,,,,,,,,,,,,,
1656266151.400305,84.000000,0.000000,4300.000000,4243.589844,4094.871826,4110.256348,4251.282227,450.000000,4.000000,91.000000,,,,0.000000,4.000000,4.000000,0.000000,4.000000,4.000000,66.666664,,,,,,,,,,,,,,,,,,,,,,,,,,,,,,,,,,,,,,,,,,,,,,,,,,,,,,,,,,,,,,,
1656266151.408120,85.000000,0.000000,4301.025879,4248.717773,4094.871826,4109.230957,4252.307617,450.000000,4.000000,91.000000,,,,0.000000,4.000000,4.000000,0.000000,4.000000,4.000000,66.666664,,,,,,,,,,,,,,,,,,,,,,,,,,,,,,,,,,,,,,,,,,,,,,,,,,,,,,,,,,,,,,,
1656266151.415934,86.000000,0.000000,4295.384766,4242.563965,4095.384521,4115.384766,4239.487305,450.000000,4.000000,91.000000,,,,0.000000,4.000000,4.000000,0.000000,4.000000,4.000000,66.666664,,,,,,,,,,,,,,,,,,,,,,,,,,,,,,,,,,,,,,,,,,,,,,,,,,,,,,,,,,,,,,,
1656266151.423649,87.000000,0.000000,4300.512695,4243.589844,4091.281982,4120.512695,4240.000000,16245.000000,4.000000,91.000000,,,,0.000000,4.000000,4.000000,0.000000,4.000000,4.000000,66.666664,,,,,,,,,,,,,,,,,,,,,,,,,,,,,,,,,,,,,,,,,,,,,,,,,,,,,,,,,,,,,,,
1656266151.431463,88.000000,0.000000,4304.102539,4253.333496,4089.743652,4116.410156,4244.102539,450.000000,4.000000,91.000000,,,,0.000000,4.000000,4.000000,0.000000,4.000000,4.000000,66.666664,,,,,,,,,,,,,,,,,,,,,,,,,,,,,,,,,,,,,,,,,,,,,,,,,,,,,,,,,,,,,,,
1656266151.439178,89.000000,0.000000,4288.205078,4253.846191,4087.692383,4108.717773,4235.897461,450.000000,4.000000,91.000000,,,,0.000000,4.000000,4.000000,0.000000,4.000000,4.000000,66.666664,,,,,,,,,,,,,,,,,,,,,,,,,,,,,,,,,,,,,,,,,,,,,,,,,,,,,,,,,,,,,,,
1656266151.446992,90.000000,0.000000,4277.948730,4247.692383,4086.153809,4107.179688,4228.205078,450.000000,4.000000,91.000000,,,,0.000000,4.000000,4.000000,0.000000,4.000000,4.000000,66.666664,,,,,,,,,,,,,,,,,,,,,,,,,,,,,,,,,,,,,,,,,,,,,,,,,,,,,,,,,,,,,,,
1656266151.454706,91.000000,0.000000,4289.230957,4245.128418,4075.897461,4109.743652,4225.128418,16245.000000,4.000000,91.000000,,,,0.000000,4.000000,4.000000,0.000000,4.000000,4.000000,66.666664,,,,,,,,,,,,,,,,,,,,,,,,,,,,,,,,,,,,,,,32.997967,4.907107,1.183151,0.672070,0.727119,2.307808,1.050122,0.437182,0.842452,0.774825,0.706460,3.481206,0.950443,1.224356,0.498346,3.786789,1.222880,1.499560,0.625562,0.478066,19.619907,3.131384,1.282614,0.625101,1.314958
1656266151.462521,92.000000,0.000000,4282.051270,4245.641113,4061.025635,4106.153809,4214.871582,450.000000,4.000000,91.000000,,,,0.000000,4.000000,4.000000,0.000000,4.000000,4.000000,66.666664,,,,,,,,,,,,,,,,,,,,,,,,,,,,,,,,,,,,,,,,,,,,,,,,,,,,,,,,,,,,,,,
1656266151.470235,93.000000,0.000000,4256.410156,4241.538574,4070.769287,4105.128418,4203.589844,450.000000,4.000000,91.000000,,,,0.000000,4.000000,4.000000,0.000000,4.000000,4.000000,66.666664,,,,,,,,,,,,,,,,,,,,,,,,,,,,,,,,,,,,,,,,,,,,,,,,,,,,,,,,,,,,,,,
1656266151.477950,94.000000,0.000000,4258.461426,4235.384766,4097.436035,4113.846191,4202.051270,450.000000,4.000000,91.000000,,,,0.000000,4.000000,4.000000,0.000000,4.000000,4.000000,66.666664,,,,,,,,,,,,,,,,,,,,,,,,,,,,,,,,,,,,,,,,,,,,,,,,,,,,,,,,,,,,,,,
1656266151.485764,95.000000,0.000000,4281.025879,4239.487305,4107.692383,4115.897461,4205.641113,16245.000000,4.000000,91.000000,,,,0.000000,4.000000,4.000000,0.000000,4.000000,4.000000,66.666664,,,,,,,,,,,,,,,,,,,,,,,,,,,,,,,,,,,,,,,,,,,,,,,,,,,,,,,,,,,,,,,
1656266151.493479,96.000000,0.000000,4276.410156,4242.563965,4095.897461,4095.897461,4204.102539,450.000000,4.000000,91.000000,,,,0.000000,4.000000,4.000000,0.000000,4.000000,4.000000,66.666664,,,,,,,,,,,,,,,,,,,,,,,,,,,,,,,,,,,,,,,,,,,,,,,,,,,,,,,,,,,,,,,
1656266151.501293,97.000000,0.000000,4255.897461,4235.384766,4092.820557,4084.102539,4194.871582,450.000000,4.000000,91.000000,,,,0.000000,4.000000,4.000000,0.000000,4.000000,4.000000,66.666664,,,,,,,,,,,,,,,,,,,,,,,,,,,,,,,,,,,,,,,,,,,,,,,,,,,,,,,,,,,,,,,
1656266151.509008,98.000000,0.000000,4253.333496,4233.333496,4094.358887,4096.410156,4194.871582,450.000000,4.000000,91.000000,,,,0.000000,4.000000,4.000000,0.000000,4.000000,4.000000,66.666664,,,,,,,,,,,,,,,,,,,,,,,,,,,,,,,,,,,,,,,,,,,,,,,,,,,,,,,,,,,,,,,
1656266151.516822,99.000000,0.000000,4264.615234,4225.641113,4079.487061,4099.487305,4204.102539,16245.000000,4.000000,91.000000,,,,0.000000,4.000000,4.000000,0.000000,4.000000,4.000000,66.666664,,,,,,,,,,,,,,,,,,,,,,,,,,,,,,,,,,,,,,,,,,,,,,,,,,,,,,,,,,,,,,,
1656266151.524637,100.000000,0.000000,4285.128418,4221.538574,4082.051270,4096.410156,4208.205078,450.000000,4.000000,91.000000,,,,0.000000,4.000000,4.000000,0.000000,4.000000,4.000000,66.666664,,,,,,,,,,,,,,,,,,,,,,,,,,,,,,,,,,,,,,,,,,,,,,,,,,,,,,,,,,,,,,,
1656266151.532351,101.000000,0.000000,4298.974121,4244.102539,4105.641113,4102.563965,4214.358887,450.000000,4.000000,91.000000,,,,0.000000,4.000000,4.000000,0.000000,4.000000,4.000000,66.666664,,,,,,,,,,,,,,,,,,,,,,,,,,,,,,,,,,,,,,,,,,,,,,,,,,,,,,,,,,,,,,,
1656266151.540265,102.000000,0.000000,4296.922852,4255.384766,4102.563965,4108.205078,4228.205078,450.000000,4.000000,91.000000,,,,0.000000,4.000000,4.000000,0.000000,4.000000,4.000000,66.666664,,,,,,,,,,,,,,,,,,,,,,,,,,,,,,,,,,,,,,,,,,,,,,,,,,,,,,,,,,,,,,,
1656266151.548080,103.000000,0.000000,4294.871582,4237.948730,4080.000000,4111.282227,4233.333496,16245.000000,4.000000,91.000000,,,,0.000000,4.000000,4.000000,0.000000,4.000000,4.000000,66.666664,,,,,,,,,,,,,,,,,,,,,,,,,,,,,,,,,,,,,,,,,,,,,,,,,,,,,,,,,,,,,,,
1656266151.555894,104.000000,0.000000,4285.128418,4234.871582,4069.743652,4106.153809,4215.897461,450.000000,4.000000,91.000000,,,,0.000000,4.000000,4.000000,0.000000,4.000000,4.000000,66.666664,,,,,,,,,,,,,,,,,,,,,,,,,,,,,,,,,,,,,,,,,,,,,,,,,,,,,,,,,,,,,,,
1656266151.563709,105.000000,0.000000,4270.769043,4246.666504,4066.666748,4090.769287,4203.077148,450.000000,4.000000,91.000000,,,,0.000000,4.000000,4.000000,0.000000,4.000000,4.000000,66.666664,,,,,,,,,,,,,,,,,,,,,,,,,,,,,,,,,,,,,,,,,,,,,,,,,,,,,,,,,,,,,,,
1656266151.571423,106.000000,0.000000,4279.487305,4244.615234,4063.076904,4083.076904,4213.846191,450.000000,4.000000,91.000000,,,,0.000000,4.000000,4.000000,0.000000,4.000000,4.000000,66.666664,,,,,,,,,,,,,,,,,,,,,,,,,,,,,,,,,,,,,,,,,,,,,,,,,,,,,,,,,,,,,,,
1656266151.579238,107.000000,0.000000,4283.589844,4241.025879,4064.615479,4090.256348,4216.922852,16245.000000,4.000000,91.000000,,,,0.000000,4.000000,4.000000,0.000000,4.000000,4.000000,66.666664,,,,,,,,,,,,,,,,,,,,,,,,,,,,,,,,,,,,,,,38.572842,5.720184,1.456863,0.685101,0.774052,2.959104,1.690311,0.555167,0.934505,0.750468,0.695940,4.791685,1.160149,1.541629,0.567715,3.716241,1.717562,1.816774,0.530598,0.495820,22.629219,3.524033,1.448712,0.642032,1.253097
1656266151.586952,108.000000,0.000000,4268.717773,4250.769043,4078.974365,4091.794922,4210.769043,450.000000,4.000000,91.000000,,,,0.000000,4.000000,4.000000,0.000000,4.000000,4.000000,66.666664,,,,,,,,,,,,,,,,,,,,,,,,,,,,,,,,,,,,,,,,,,,,,,,,,,,,,,,,,,,,,,,
1656266151.594766,109.000000,0.000000,4266.666504,4253.333496,4102.563965,4089.743652,4216.922852,450.000000,4.000000,91.000000,,,,0.000000,4.000000,4.000000,0.000000,4.000000,4.000000,66.666664,,,,,,,,,,,,,,,,,,,,,,,,,,,,,,,,,,,,,,,,,,,,,,,,,,,,,,,,,,,,,,,
1656266151.602481,110.000000,0.000000,4268.205078,4246.153809,4114.358887,4093.846191,4211.282227,450.000000,4.000000,91.000000,,,,0.000000,4.000000,4.000000,0.000000,4.000000,4.000000,66.666664,,,,,,,,,,,,,,,,,,,,,,,,,,,,,,,,,,,,,,,,,,,,,,,,,,,,,,,,,,,,,,,
1656266151.610295,111.000000,0.000000,4270.769043,4256.410156,4110.256348,4103.589844,4206.153809,16245.000000,4.000000,91.000000,,,,0.000000,4.000000,4.000000,0.000000,4.000000,4.000000,66.666664,,,,,,,,,,,,,,,,,,,,,,,,,,,,,,,,,,,,,,,,,,,,,,,,,,,,,,,,,,,,,,,
1656266151.618010,112.000000,0.000000,4282.051270,4268.205078,4106.153809,4105.641113,4215.384766,450.000000,4.000000,91.000000,,,,0.000000,4.000000,4.000000,0.000000,4.000000,4.000000,66.666664,,,,,,,,,,,,,,,,,,,,,,,,,,,,,,,,,,,,,,,,,,,,,,,,,,,,,,,,,,,,,,,
1656266151.625824,113.000000,0.000000,4272.820313,4255.384766,4105.128418,4094.358887,4213.333496,450.000000,4.000000,91.000000,,,,0.000000,4.000000,4.000000,0.000000,4.000000,4.000000,66.666664,,,,,,,,,,,,,,,,,,,,,,,,,,,,,,,,,,,,,,,,,,,,,,,,,,,,,,,,,,,,,,,
1656266151.633539,114.000000,0.000000,4255.384766,4248.717773,4102.563965,4089.230713,4209.230957,450.000000,4.000000,91.000000,,,,0.000000,4.000000,4.000000,0.000000,4.000000,4.000000,66.666664,,,,,,,,,,,,,,,,,,,,,,,,,,,,,,,,,,,,,,,,,,,,,,,,,,,,,,,,,,,,,,,
1656266151.641453,115.000000,0.000000,4271.282227,4262.051270,4101.025879,4096.410156,4216.922852,16245.000000,4.000000,91.000000,,,,0.000000,4.000000,4.000000,0.000000,4.000000,4.000000,66.666664,,,,,,,,,,,,,,,,,,,,,,,,,,,,,,,,,,,,,,,,,,,,,,,,,,,,,,,,,,,,,,,
1656266151.649267,116.000000,0.000000,4293.333496,4255.897461,4095.897461,4099.487305,4224.102539,450.000000,4.000000,91.000000,,,,0.000000,4.000000,4.000000,0.000000,4.000000,4.000000,66.666664,,,,,,,,,,,,,,,,,,,,,,,,,,,,,,,,,,,,,,,,,,,,,,,,,,,,,,,,,,,,,,,
1656266151.657082,117.000000,0.000000,4291.794922,4232.307617,4076.410156,4095.897461,4231.282227,450.000000,4.000000,91.000000,,,,0.000000,4.000000,4.000000,0.000000,4.000000,4.000000,66.666664,,,,,,,,,,,,,,,,,,,,,,,,,,,,,,,,,,,,,,,,,,,,,,,,,,,,,,,,,,,,,,,
1656266151.664796,118.000000,0.000000,4287.179688,4242.563965,4056.410156,4095.897461,4243.077148,450.000000,4.000000,91.000000,,,,0.000000,4.000000,4.000000,0.000000,4.000000,4.000000,66.666664,,,,,,,,,,,,,,,,,,,,,,,,,,,,,,,,,,,,,,,,,,,,,,,,,,,,,,,,,,,,,,,
1656266151.672511,119.000000,0.000000,4285.128418,4261.025879,4052.820557,4095.384521,4241.025879,16245.000000,4.000000,91.000000,,,,0.000000,4.000000,4.000000,0.000000,4.000000,4.000000,66.666664,,,,,,,,,,,,,,,,,,,,,,,,,,,,,,,,,,,,,,,,,,,,,,,,,,,,,,,,,,,,,,,
1656266151.680325,120.000000,0.000000,4281.025879,4246.153809,4065.128174,4092.307617,4222.563965,450.000000,4.000000,91.000000,,,,0.000000,4.000000,4.000000,0.000000,4.000000,4.000000,66.666664,,,,,,,,,,,,,,,,,,,,,,,,,,,,,,,,,,,,,,,,,,,,,,,,,,,,,,,,,,,,,,,
1656266151.688040,121.000000,0.000000,4276.922852,4232.307617,4073.846191,4091.794922,4207.692383,450.000000,4.000000,91.000000,,,,0.000000,4.000000,4.000000,0.000000,4.000000,4.000000,66.666664,,,,,,,,,,,,,,,,,,,,,,,,,,,,,,,,,,,,,,,,,,,,,,,,,,,,,,,,,,,,,,,
1656266151.695854,122.000000,0.000000,4264.615234,4236.922852,4081.025635,4087.692383,4203.589844,450.000000,4.000000,91.000000,,,,0.000000,4.000000,4.000000,0.000000,4.000000,4.000000,66.666664,,,,,,,,,,,,,,,,,,,,,,,,,,,,,,,,,,,,,,,,,,,,,,,,,,,,,,,,,,,,,,,
1656266151.703669,123.000000,0.000000,4256.410156,4241.025879,4102.051270,4086.153809,4208.717773,16245.000000,4.000000,91.000000,,,,0.000000,4.000000,4.000000,0.000000,4.000000,4.000000,66.666664,,,,,,,,,,,,,,,,,,,,,,,,,,,,,,,,,,,,,,,39.239689,6.049214,1.720470,0.770040,0.812356,3.930529,2.474173,0.708778,0.981853,0.720368,0.693918,6.573011,1.353126,1.793372,0.630876,3.698385,2.463048,2.141888,0.454027,0.495738,23.211884,3.690483,1.605992,0.707428,1.160575
1656266151.711383,124.000000,0.000000,4263.589844,4244.102539,4112.820313,4087.179443,4206.153809,450.000000,4.000000,91.000000,,,,0.000000,4.000000,4.000000,0.000000,4.000000,4.000000,66.666664,,,,,,,,,,,,,,,,,,,,,,,,,,,,,,,,,,,,,,,,,,,,,,,,,,,,,,,,,,,,,,,
1656266151.719098,125.000000,0.000000,4268.205078,4249.230957,4106.153809,4086.666748,4190.769043,450.000000,4.000000,91.000000,,,,0.000000,4.000000,4.000000,0.000000,4.000000,4.000000,66.666664,,,,,,,,,,,,,,,,,,,,,,,,,,,,,,,,,,,,,,,,,,,,,,,,,,,,,,,,,,,,,,,
1656266151.726912,126.000000,0.000000,4265.128418,4251.282227,4103.589844,4088.205078,4192.307617,450.000000,4.000000,91.000000,,,,0.000000,4.000000,4.000000,0.000000,4.000000,4.000000,66.666664,,,,,,,,,,,,,,,,,,,,,,,,,,,,,,,,,,,,,,,,,,,,,,,,,,,,,,,,,,,,,,,
1656266151.734627,127.000000,0.000000,4269.743652,4248.717773,4098.461426,4087.692383,4214.358887,242.000000,4.000000,91.000000,,,,0.000000,4.000000,4.000000,0.000000,4.000000,4.000000,66.666664,,,,,,,,,,,,,,,,,,,,,,,,,,,,,,,,,,,,,,,,,,,,,,,,,,,,,,,,,,,,,,,
1656266151.742441,0.000000,0.000000,4284.615234,4244.102539,4085.128174,4084.615479,4221.025879,450.000000,4.000000,91.000000,,,,0.000000,4.000000,4.000000,0.000000,4.000000,4.000000,66.666664,,,,,,,,,,,,,,,,,,,,,,,,,,,,,,,,,,,,,,,,,,,,,,,,,,,,,,,,,,,,,,,
1656266151.750155,1.000000,0.000000,4290.256348,4250.769043,4077.435791,4088.718018,4219.487305,450.000000,4.000000,91.000000,,,,0.000000,4.000000,4.000000,0.000000,4.000000,4.000000,66.666664,,,,,,,,,,,,,,,,,,,,,,,,,,,,,,,,,,,,,,,,,,,,,,,,,,,,,,,,,,,,,,,
1656266151.757970,2.000000,0.000000,4287.179688,4260.000000,4069.230713,4089.743652,4230.769043,16220.000000,4.000000,91.000000,,,,0.000000,4.000000,4.000000,0.000000,4.000000,4.000000,66.666664,,,,,,,,,,,,,,,,,,,,,,,,,,,,,,,,,,,,,,,,,,,,,,,,,,,,,,,,,,,,,,,
1656266151.765684,3.000000,0.000000,4294.358887,4250.256348,4054.358887,4085.641113,4236.922852,450.000000,4.000000,91.000000,,,,0.000000,4.000000,4.000000,0.000000,4.000000,4.000000,66.666664,,,,,,,,,,,,,,,,,,,,,,,,,,,,,,,,,,,,,,,,,,,,,,,,,,,,,,,,,,,,,,,
1656266151.773499,4.000000,0.000000,4296.410156,4233.846191,4045.128174,4089.230713,4238.461426,16198.000000,4.000000,91.000000,,,,0.000000,4.000000,4.000000,0.000000,4.000000,4.000000,66.666664,,,,,,,,,,,,,,,,,,,,,,,,,,,,,,,,,,,,,,,,,,,,,,,,,,,,,,,,,,,,,,,
1656266151.781213,5.000000,0.000000,4280.512695,4238.974121,4052.820557,4093.333252,4240.512695,450.000000,4.000000,91.000000,,,,0.000000,4.000000,4.000000,4.000000,4.000000,4.000000,100.000000,,,,,,,,,,,,,,,,,,,,,,,,,,,,,,,,,,,,,,,,,,,,,,,,,,,,,,,,,,,,,,,
1656266151.789028,6.000000,0.000000,4280.512695,4252.820313,4071.281982,4092.820557,4235.897461,16186.000000,4.000000,91.000000,,,,0.000000,4.000000,4.000000,4.000000,4.000000,4.000000,100.000000,,,,,,,,,,,,,,,,,,,,,,,,,,,,,,,,,,,,,,,,,,,,,,,,,,,,,,,,,,,,,,,
1656266151.796742,7.000000,0.000000,4293.333496,4246.666504,4084.615479,4091.281982,4234.871582,450.000000,4.000000,91.000000,,,,0.000000,4.000000,4.000000,4.000000,4.000000,4.000000,100.000000,,,,,,,,,,,,,,,,,,,,,,,,,,,,,,,,,,,,,,,,,,,,,,,,,,,,,,,,,,,,,,,
1656266151.804557,8.000000,0.000000,4290.769043,4247.692383,4096.922852,4091.281982,4241.025879,450.000000,4.000000,91.000000,,,,0.000000,4.000000,4.000000,4.000000,4.000000,4.000000,100.000000,,,,,,,,,,,,,,,,,,,,,,,,,,,,,,,,,,,,,,,,,,,,,,,,,,,,,,,,,,,,,,,
1656266151.812271,9.000000,0.000000,4278.974121,4263.589844,4112.307617,4099.487305,4233.333496,16194.000000,4.000000,91.000000,,,,0.000000,4.000000,4.000000,4.000000,4.000000,4.000000,100.000000,,,,,,,,,,,,,,,,,,,,,,,,,,,,,,,,,,,,,,,,,,,,,,,,,,,,,,,,,,,,,,,
1656266151.820185,10.000000,0.000000,4276.410156,4261.538574,4116.922852,4110.256348,4223.589844,450.000000,4.000000,91.000000,,,,0.000000,4.000000,4.000000,4.000000,4.000000,4.000000,100.000000,,,,,,,,,,,,,,,,,,,,,,,,,,,,,,,,,,,,,,,,,,,,,,,,,,,,,,,,,,,,,,,
1656266151.828000,11.000000,0.000000,4283.077148,4249.230957,4106.153809,4104.102539,4228.205078,16186.000000,4.000000,91.000000,,,,0.000000,4.000000,4.000000,4.000000,4.000000,4.000000,100.000000,1.000000,33.333332,4.000000,2.000000,0.000000,2.000000,2.000000,,,,,,,,,,,,,,,,,,,,,,,,,,,,,,,,34.759224,5.881208,1.898882,0.926398,0.829911,4.997128,3.201164,0.867090,0.971272,0.680705,0.737399,8.645298,1.479039,1.945241,0.662891,3.946160,3.337541,2.429602,0.414156,0.475946,21.249071,3.664799,1.695157,0.802618,1.044332
1656266151.835914,12.000000,0.000000,4288.205078,4253.846191,4090.256348,4084.615479,4231.282227,450.000000,4.000000,91.000000,,,,0.000000,4.000000,4.000000,4.000000,4.000000,4.000000,100.000000,,,,,,,,,,,,,,,,,,,,,,,,,,,,,,,,,,,,,,,,,,,,,,,,,,,,,,,,,,,,,,,
1656266151.843729,13.000000,0.000000,4295.384766,4260.000000,4089.743652,4079.487061,4243.077148,450.000000,4.000000,91.000000,,,,0.000000,4.000000,4.000000,4.000000,4.000000,4.000000,100.000000,,,,,,,,,,,,,,,,,,,,,,,,,,,,,,,,,,,,,,,,,,,,,,,,,,,,,,,,,,,,,,,
1656266151.851443,14.000000,0.000000,4290.256348,4256.922852,4099.487305,4083.076904,4250.256348,450.000000,4.000000,91.000000,,,,0.000000,4.000000,4.000000,4.000000,4.000000,4.000000,100.000000,,,,,,,,,,,,,,,,,,,,,,,,,,,,,,,,,,,,,,,,,,,,,,,,,,,,,,,,,,,,,,,
1656266151.859258,15.000000,0.000000,4281.025879,4264.102539,4105.128418,4084.615479,4234.358887,16186.000000,4.000000,91.000000,,,,0.000000,4.000000,4.000000,4.000000,4.000000,4.000000,100.000000,,,,,,,,,,,,,,,,,,,,,,,,,,,,,,,,,,,,,,,,,,,,,,,,,,,,,,,,,,,,,,,
1656266151.866972,16.000000,0.000000,4291.282227,4274.871582,4102.563965,4092.820557,4231.282227,0.000000,4.000000,91.000000,,,,0.000000,4.000000,4.000000,4.000000,4.000000,4.000000,100.000000,,,,,,,,,,,,,,,,,,,,,,,,,,,,,,,,,,,,,,,,,,,,,,,,,,,,,,,,,,,,,,,
1656266151.874786,17.000000,0.000000,4292.820313,4261.538574,4089.743652,4093.846191,4238.974121,0.000000,4.000000,91.000000,,,,0.000000,4.000000,4.000000,4.000000,4.000000,4.000000,100.000000,,,,,,,,,,,,,,,,,,,,,,,,,,,,,,,,,,,,,,,,,,,,,,,,,,,,,,,,,,,,,,,
1656266151.882501,18.000000,0.000000,4280.000000,4243.077148,4074.871826,4092.307617,4232.307617,0.000000,4.000000,91.000000,,,,0.000000,4.000000,4.000000,4.000000,4.000000,4.000000,100.000000,,,,,,,,,,,,,,,,,,,,,,,,,,,,,,,,,,,,,,,,,,,,,,,,,,,,,,,,,,,,,,,
1656266151.890315,19.000000,0.000000,4284.102539,4246.153809,4062.051270,4094.358887,4231.282227,0.000000,4.000000,91.000000,,,,0.000000,4.000000,4.000000,4.000000,4.000000,4.000000,100.000000,,,,,,,,,,,,,,,,,,,,,,,,,,,,,,,,,,,,,,,,,,,,,,,,,,,,,,,,,,,,,,,
1656266151.898030,20.000000,0.000000,4289.230957,4245.128418,4056.923096,4091.794922,4237.948730,0.000000,4.000000,91.000000,,,,0.000000,4.000000,4.000000,4.000000,4.000000,4.000000,100.000000,,,,,,,,,,,,,,,,,,,,,,,,,,,,,,,,,,,,,,,,,,,,,,,,,,,,,,,,,,,,,,,
1656266151.905844,21.000000,0.000000,4273.333496,4241.025879,4068.718018,4089.230713,4226.666504,0.000000,4.000000,91.000000,,,,0.000000,4.000000,4.000000,4.000000,4.000000,4.000000,100.000000,,,,,,,,,,,,,,,,,,,,,,,,,,,,,,,,,,,,,,,,,,,,,,,,,,,,,,,,,,,,,,,
1656266151.913559,22.000000,0.000000,4265.128418,4248.205078,4082.564209,4088.205078,4212.307617,0.000000,4.000000,91.000000,,,,0.000000,4.000000,4.000000,4.000000,4.000000,4.000000,100.000000,,,,,,,,,,,,,,,,,,,,,,,,,,,,,,,,,,,,,,,,,,,,,,,,,,,,,,,,,,,,,,,
1656266151.921373,23.000000,0.000000,4281.025879,4256.922852,4102.051270,4096.922852,4226.153809,0.000000,4.000000,91.000000,,,,0.000000,4.000000,4.000000,4.000000,4.000000,4.000000,100.000000,,,,,,,,,,,,,,,,,,,,,,,,,,,,,,,,,,,,,,,,,,,,,,,,,,,,,,,,,,,,,,,
1656266151.929088,24.000000,0.000000,4289.743652,4252.307617,4117.948730,4107.179688,4238.974121,0.000000,4.000000,91.000000,,,,0.000000,4.000000,4.000000,4.000000,4.000000,4.000000,100.000000,,,,,,,,,,,,,,,,,,,,,,,,,,,,,,,,,,,,,,,,,,,,,,,,,,,,,,,,,,,,,,,
1656266151.936902,25.000000,0.000000,4282.563965,4240.000000,4112.820313,4096.922852,4226.153809,0.000000,4.000000,91.000000,,,,0.000000,4.000000,4.000000,4.000000,4.000000,4.000000,100.000000,,,,,,,,,,,,,,,,,,,,,,,,,,,,,,,,,,,,,,,,,,,,,,,,,,,,,,,,,,,,,,,
1656266151.944617,26.000000,0.000000,4283.589844,4246.666504,4103.589844,4082.564209,4220.512695,0.000000,4.000000,91.000000,,,,0.000000,4.000000,4.000000,4.000000,4.000000,4.000000,100.000000,,,,,,,,,,,,,,,,,,,,,,,,,,,,,,,,,,,,,,,,,,,,,,,,,,,,,,,,,,,,,,,
1656266151.952431,27.000000,0.000000,4285.128418,4259.487305,4098.461426,4084.102539,4229.743652,0.000000,4.000000,91.000000,,,,0.000000,4.000000,4.000000,4.000000,4.000000,4.000000,100.000000,,,,,,,,,,,,,,,,,,,,,,,,,,,,,,,,,,,,,,,26.697006,5.406294,1.937284,1.121902,0.829796,5.853313,3.651267,0.990932,0.907434,0.635200,0.843575,10.696349,1.505653,1.996946,0.651982,4.487744,4.099817,2.622348,0.410038,0.439788,17.617971,3.596047,1.670100,0.894441,0.915066
1656266151.960146,28.000000,0.000000,4280.512695,4249.230957,4090.769287,4087.692383,4234.871582,0.000000,4.000000,91.000000,,,,0.000000,4.000000,4.000000,4.000000,4.000000,4.000000,100.000000,,,,,,,,,,,,,,,,,,,,,,,,,,,,,,,,,,,,,,,,,,,,,,,,,,,,,,,,,,,,,,,
1656266151.967960,29.000000,0.000000,4282.051270,4233.333496,4080.512939,4088.205078,4234.358887,0.000000,4.000000,91.000000,,,,0.000000,4.000000,4.000000,4.000000,4.000000,4.000000,100.000000,,,,,,,,,,,,,,,,,,,,,,,,,,,,,,,,,,,,,,,,,,,,,,,,,,,,,,,,,,,,,,,
1656266151.975674,30.000000,0.000000,4285.641113,4234.871582,4077.948730,4091.794922,4225.641113,0.000000,4.000000,91.000000,,,,0.000000,4.000000,4.000000,4.000000,4.000000,4.000000,100.000000,,,,,,,,,,,,,,,,,,,,,,,,,,,,,,,,,,,,,,,,,,,,,,,,,,,,,,,,,,,,,,,
1656266151.983489,31.000000,0.000000,4278.461426,4237.436035,4073.333252,4089.230713,4208.717773,0.000000,4.000000,91.000000,,,,0.000000,4.000000,4.000000,4.000000,4.000000,4.000000,100.000000,,,,,,,,,,,,,,,,,,,,,,,,,,,,,,,,,,,,,,,,,,,,,,,,,,,,,,,,,,,,,,,
1656266151.991203,32.000000,0.000000,4265.641113,4225.641113,4057.948730,4073.333252,4205.128418,0.000000,4.000000,91.000000,,,,0.000000,4.000000,4.000000,4.000000,4.000000,4.000000,100.000000,,,,,,,,,,,,,,,,,,,,,,,,,,,,,,,,,,,,,,,,,,,,,,,,,,,,,,,,,,,,,,,
1656266151.999018,33.000000,0.000000,4261.025879,4218.461426,4052.307617,4064.615479,4220.000000,0.000000,4.000000,91.000000,,,,0.000000,4.000000,4.000000,4.000000,4.000000,4.000000,100.000000,,,,,,,,,,,,,,,,,,,,,,,,,,,,,,,,,,,,,,,,,,,,,,,,,,,,,,,,,,,,,,,
1656266152.006732,34.000000,0.000000,4261.025879,4215.897461,4060.000000,4068.718018,4212.307617,0.000000,4.000000,91.000000,,,,0.000000,4.000000,4.000000,4.000000,4.000000,4.000000,100.000000,,,,,,,,,,,,,,,,,,,,,,,,,,,,,,,,,,,,,,,,,,,,,,,,,,,,,,,,,,,,,,,
1656266152.014647,35.000000,0.000000,4250.769043,4211.794922,4058.461426,4061.025635,4176.922852,0.000000,4.000000,91.000000,,,,0.000000,4.000000,4.000000,4.000000,4.000000,4.000000,100.000000,,,,,,,,,,,,,,,,,,,,,,,,,,,,,,,,,,,,,,,,,,,,,,,,,,,,,,,,,,,,,,,
1656266152.022461,36.000000,0.000000,4240.512695,4223.077148,4059.487061,4055.384521,4165.128418,0.000000,4.000000,91.000000,,,,0.000000,4.000000,4.000000,4.000000,4.000000,4.000000,100.000000,,,,,,,,,,,,,,,,,,,,,,,,,,,,,,,,,,,,,,,,,,,,,,,,,,,,,,,,,,,,,,,
1656266152.030375,37.000000,0.000000,4247.179688,4241.538574,4082.564209,4067.692383,4186.153809,0.000000,4.000000,91.000000,,,,0.000000,4.000000,4.000000,4.000000,4.000000,4.000000,100.000000,,,,,,,,,,,,,,,,,,,,,,,,,,,,,,,,,,,,,,,,,,,,,,,,,,,,,,,,,,,,,,,
1656266152.038190,38.000000,0.000000,4257.948730,4245.641113,4100.000000,4073.333252,4201.025879,0.000000,4.000000,91.000000,,,,0.000000,4.000000,4.000000,4.000000,4.000000,4.000000,100.000000,,,,,,,,,,,,,,,,,,,,,,,,,,,,,,,,,,,,,,,,,,,,,,,,,,,,,,,,,,,,,,,
1656266152.045904,39.000000,0.000000,4256.922852,4237.948730,4097.948730,4068.205078,4204.102539,0.000000,4.000000,91.000000,,,,0.000000,4.000000,4.000000,4.000000,4.000000,4.000000,100.000000,,,,,,,,,,,,,,,,,,,,,,,,,,,,,,,,,,,,,,,,,,,,,,,,,,,,,,,,,,,,,,,
1656266152.053719,40.000000,0.000000,4264.615234,4237.948730,4094.871826,4077.948730,4214.871582,0.000000,4.000000,91.000000,,,,0.000000,4.000000,4.000000,4.000000,4.000000,4.000000,100.000000,,,,,,,,,,,,,,,,,,,,,,,,,,,,,,,,,,,,,,,,,,,,,,,,,,,,,,,,,,,,,,,
1656266152.061633,41.000000,0.000000,4285.641113,4242.051270,4101.025879,4102.051270,4235.384766,0.000000,4.000000,91.000000,,,,0.000000,4.000000,4.000000,4.000000,4.000000,4.000000,100.000000,,,,,,,,,,,,,,,,,,,,,,,,,,,,,,,,,,,,,,,,,,,,,,,,,,,,,,,,,,,,,,,
1656266152.069447,42.000000,0.000000,4292.307617,4245.128418,4106.153809,4107.179688,4243.589844,0.000000,4.000000,91.000000,,,,0.000000,4.000000,4.000000,4.000000,4.000000,4.000000,100.000000,,,,,,,,,,,,,,,,,,,,,,,,,,,,,,,,,,,,,,,,,,,,,,,,,,,,,,,,,,,,,,,
1656266152.077162,43.000000,0.000000,4276.922852,4254.358887,4104.102539,4094.871826,4227.692383,0.000000,4.000000,91.000000,,,,0.000000,4.000000,4.000000,4.000000,4.000000,4.000000,100.000000,,,,,,,,,,,,,,,,,,,,,,,,,,,,,,,,,,,,,,,17.748800,4.888992,1.831350,1.295393,0.818489,6.236434,3.682788,1.048162,0.810880,0.591884,1.002418,12.492939,1.460766,1.972565,0.604272,5.118217,4.493262,2.672031,0.425326,0.394872,13.606340,3.626756,1.527727,0.946492,0.788487
1656266152.084976,44.000000,0.000000,4271.282227,4258.461426,4106.666504,4098.461426,4223.077148,0.000000,4.000000,91.000000,,,,0.000000,4.000000,4.000000,4.000000,4.000000,4.000000,100.000000,,,,,,,,,,,,,,,,,,,,,,,,,,,,,,,,,,,,,,,,,,,,,,,,,,,,,,,,,,,,,,,
1656266152.092691,45.000000,0.000000,4290.256348,4249.743652,4108.717773,4105.641113,4250.256348,0.000000,4.000000,91.000000,,,,0.000000,4.000000,4.000000,4.000000,4.000000,4.000000,100.000000,,,,,,,,,,,,,,,,,,,,,,,,,,,,,,,,,,,,,,,,,,,,,,,,,,,,,,,,,,,,,,,
1656266152.100505,46.000000,0.000000,4310.256348,4250.769043,4104.102539,4095.897461,4274.871582,0.000000,4.000000,91.000000,,,,0.000000,4.000000,4.000000,4.000000,4.000000,4.000000,100.000000,,,,,,,,,,,,,,,,,,,,,,,,,,,,,,,,,,,,,,,,,,,,,,,,,,,,,,,,,,,,,,,
1656266152.108220,47.000000,0.000000,4308.205078,4261.025879,4098.461426,4087.692383,4264.615234,0.000000,4.000000,91.000000,,,,0.000000,4.000000,4.000000,4.000000,4.000000,4.000000,100.000000,,,,,,,,,,,,,,,,,,,,,,,,,,,,,,,,,,,,,,,,,,,,,,,,,,,,,,,,,,,,,,,
1656266152.116034,48.000000,0.000000,4290.769043,4256.922852,4096.410156,4087.692383,4235.897461,0.000000,4.000000,91.000000,,,,0.000000,4.000000,4.000000,4.000000,4.000000,4.000000,100.000000,,,,,,,,,,,,,,,,,,,,,,,,,,,,,,,,,,,,,,,,,,,,,,,,,,,,,,,,,,,,,,,
1656266152.123749,49.000000,0.000000,4277.948730,4248.717773,4099.487305,4085.641113,4217.436035,0.000000,4.000000,91.000000,,,,0.000000,4.000000,4.000000,4.000000,4.000000,4.000000,100.000000,,,,,,,,,,,,,,,,,,,,,,,,,,,,,,,,,,,,,,,,,,,,,,,,,,,,,,,,,,,,,,,
1656266152.131563,50.000000,0.000000,4265.641113,4246.666504,4098.461426,4079.487061,4214.358887,0.000000,4.000000,91.000000,,,,0.000000,4.000000,4.000000,4.000000,4.000000,4.000000,100.000000,,,,,,,,,,,,,,,,,,,,,,,,,,,,,,,,,,,,,,,,,,,,,,,,,,,,,,,,,,,,,,,
1656266152.139278,51.000000,0.000000,4257.436035,4243.589844,4098.974121,4073.846191,4221.025879,0.000000,4.000000,91.000000,,,,0.000000,4.000000,4.000000,4.000000,4.000000,4.000000,100.000000,,,,,,,,,,,,,,,,,,,,,,,,,,,,,,,,,,,,,,,,,,,,,,,,,,,,,,,,,,,,,,,
1656266152.147092,52.000000,0.000000,4274.358887,4250.256348,4109.230957,4082.564209,4235.897461,0.000000,4.000000,91.000000,,,,0.000000,4.000000,4.000000,4.000000,4.000000,4.000000,100.000000,,,,,,,,,,,,,,,,,,,,,,,,,,,,,,,,,,,,,,,,,,,,,,,,,,,,,,,,,,,,,,,
1656266152.154806,53.000000,0.000000,4288.717773,4257.948730,4108.205078,4102.563965,4243.589844,0.000000,4.000000,91.000000,,,,0.000000,4.000000,4.000000,4.000000,4.000000,4.000000,100.000000,,,,,,,,,,,,,,,,,,,,,,,,,,,,,,,,,,,,,,,,,,,,,,,,,,,,,,,,,,,,,,,
1656266152.162621,54.000000,0.000000,4279.487305,4255.384766,4098.461426,4109.230957,4230.769043,0.000000,4.000000,91.000000,,,,0.000000,4.000000,4.000000,4.000000,4.000000,4.000000,100.000000,,,,,,,,,,,,,,,,,,,,,,,,,,,,,,,,,,,,,,,,,,,,,,,,,,,,,,,,,,,,,,,
1656266152.170335,55.000000,0.000000,4275.897461,4254.871582,4101.538574,4103.077148,4224.102539,0.000000,4.000000,91.000000,,,,0.000000,4.000000,4.000000,4.000000,4.000000,4.000000,100.000000,,,,,,,,,,,,,,,,,,,,,,,,,,,,,,,,,,,,,,,,,,,,,,,,,,,,,,,,,,,,,,,
1656266152.178250,56.000000,0.000000,4288.717773,4260.512695,4107.692383,4109.230957,4242.051270,0.000000,4.000000,91.000000,,,,0.000000,4.000000,4.000000,4.000000,4.000000,4.000000,100.000000,,,,,,,,,,,,,,,,,,,,,,,,,,,,,,,,,,,,,,,,,,,,,,,,,,,,,,,,,,,,,,,
1656266152.186064,57.000000,0.000000,4285.641113,4256.922852,4097.948730,4109.743652,4249.743652,0.000000,4.000000,91.000000,,,,0.000000,4.000000,4.000000,4.000000,4.000000,4.000000,100.000000,,,,,,,,,,,,,,,,,,,,,,,,,,,,,,,,,,,,,,,,,,,,,,,,,,,,,,,,,,,,,,,
1656266152.193978,58.000000,0.000000,4269.230957,4237.436035,4087.179443,4091.281982,4223.589844,0.000000,4.000000,91.000000,,,,0.000000,4.000000,4.000000,4.000000,4.000000,4.000000,100.000000,,,,,,,,,,,,,,,,,,,,,,,,,,,,,,,,,,,,,,,,,,,,,,,,,,,,,,,,,,,,,,,
1656266152.201793,59.000000,0.000000,4272.307617,4236.410156,4100.512695,4092.820557,4212.820313,0.000000,4.000000,91.000000,,,,0.000000,4.000000,4.000000,4.000000,4.000000,4.000000,100.000000,,,,,,,,,,,,,,,,,,,,,,,,,,,,,,,,,,,,,,,10.358226,4.515179,1.628761,1.384653,0.796581,6.066034,3.304304,1.021776,0.710944,0.559678,1.212605,13.975373,1.427885,1.914607,0.536936,5.545821,4.359624,2.551025,0.442378,0.349754,10.380399,3.792984,1.316592,0.938371,0.680062
1656266152.209707,60.000000,0.000000,4274.358887,4249.230957,4108.717773,4108.717773,4230.769043,0.000000,4.000000,91.000000,,,,0.000000,4.000000,4.000000,4.000000,4.000000,4.000000,100.000000,,,,,,,,,,,,,,,,,,,,,,,,,,,,,,,,,,,,,,,,,,,,,,,,,,,,,,,,,,,,,,,
1656266152.217521,61.000000,0.000000,4258.461426,4239.487305,4092.307617,4096.922852,4236.410156,0.000000,4.000000,91.000000,,,,0.000000,4.000000,4.000000,4.000000,4.000000,4.000000,100.000000,,,,,,,,,,,,,,,,,,,,,,,,,,,,,,,,,,,,,,,,,,,,,,,,,,,,,,,,,,,,,,,
1656266152.225436,62.000000,0.000000,4254.358887,4233.333496,4076.410156,4078.974365,4226.666504,0.000000,4.000000,91.000000,,,,0.000000,4.000000,4.000000,4.000000,4.000000,4.000000,100.000000,,,,,,,,,,,,,,,,,,,,,,,,,,,,,,,,,,,,,,,,,,,,,,,,,,,,,,,,,,,,,,,
1656266152.233250,63.000000,0.000000,4259.487305,4245.128418,4075.384521,4076.410156,4213.846191,0.000000,4.000000,91.000000,,,,0.000000,4.000000,4.000000,4.000000,4.000000,4.000000,100.000000,,,,,,,,,,,,,,,,,,,,,,,,,,,,,,,,,,,,,,,,,,,,,,,,,,,,,,,,,,,,,,,
1656266152.241164,64.000000,0.000000,4252.820313,4242.563965,4089.743652,4081.538574,4210.769043,450.000000,4.000000,91.000000,,,,0.000000,4.000000,4.000000,4.000000,4.000000,4.000000,100.000000,,,,,,,,,,,,,,,,,,,,,,,,,,,,,,,,,,,,,,,,,,,,,,,,,,,,,,,,,,,,,,,
1656266152.248979,65.000000,0.000000,4256.922852,4240.512695,4111.282227,4097.948730,4226.666504,450.000000,4.000000,91.000000,,,,0.000000,4.000000,4.000000,4.000000,4.000000,4.000000,100.000000,,,,,,,,,,,,,,,,,,,,,,,,,,,,,,,,,,,,,,,,,,,,,,,,,,,,,,,,,,,,,,,
1656266152.256793,66.000000,0.000000,4278.461426,4258.461426,4127.179688,4116.410156,4242.563965,16237.000000,4.000000,91.000000,,,,0.000000,4.000000,4.000000,4.000000,4.000000,4.000000,100.000000,,,,,,,,,,,,,,,,,,,,,,,,,,,,,,,,,,,,,,,,,,,,,,,,,,,,,,,,,,,,,,,
1656266152.264508,67.000000,0.000000,4295.897461,4272.307617,4132.307617,4124.102539,4246.666504,450.000000,4.000000,91.000000,,,,0.000000,4.000000,4.000000,4.000000,4.000000,4.000000,100.000000,,,,,,,,,,,,,,,,,,,,,,,,,,,,,,,,,,,,,,,,,,,,,,,,,,,,,,,,,,,,,,,
1656266152.272222,68.000000,0.000000,4304.102539,4272.820313,4131.282227,4124.615234,4256.922852,16220.000000,4.000000,91.000000,,,,0.000000,4.000000,4.000000,4.000000,4.000000,4.000000,100.000000,,,,,,,,,,,,,,,,,,,,,,,,,,,,,,,,,,,,,,,,,,,,,,,,,,,,,,,,,,,,,,,
1656266152.280037,69.000000,0.000000,4292.820313,4274.358887,4130.769043,4115.897461,4258.974121,450.000000,4.000000,91.000000,,,,0.000000,4.000000,4.000000,4.000000,4.000000,4.000000,100.000000,,,,,,,,,,,,,,,,,,,,,,,,,,,,,,,,,,,,,,,,,,,,,,,,,,,,,,,,,,,,,,,
1656266152.287751,70.000000,0.000000,4280.512695,4278.461426,4127.692383,4113.333496,4249.230957,16208.000000,4.000000,91.000000,,,,0.000000,4.000000,4.000000,4.000000,4.000000,4.000000,100.000000,,,,,,,,,,,,,,,,,,,,,,,,,,,,,,,,,,,,,,,,,,,,,,,,,,,,,,,,,,,,,,,
1656266152.295566,71.000000,0.000000,4290.256348,4279.487305,4120.512695,4128.205078,4256.922852,450.000000,4.000000,91.000000,,,,0.000000,4.000000,4.000000,4.000000,4.000000,4.000000,100.000000,,,,,,,,,,,,,,,,,,,,,,,,,,,,,,,,,,,,,,,,,,,,,,,,,,,,,,,,,,,,,,,
1656266152.303280,72.000000,0.000000,4302.051270,4269.230957,4113.846191,4131.282227,4268.717773,450.000000,4.000000,91.000000,,,,0.000000,4.000000,4.000000,4.000000,4.000000,4.000000,100.000000,,,,,,,,,,,,,,,,,,,,,,,,,,,,,,,,,,,,,,,,,,,,,,,,,,,,,,,,,,,,,,,
1656266152.311095,73.000000,0.000000,4285.641113,4247.692383,4098.974121,4112.820313,4256.922852,16204.000000,4.000000,91.000000,,,,0.000000,4.000000,4.000000,4.000000,4.000000,4.000000,100.000000,,,,,,,,,,,,,,,,,,,,,,,,,,,,,,,,,,,,,,,,,,,,,,,,,,,,,,,,,,,,,,,
1656266152.318809,74.000000,0.000000,4269.230957,4241.538574,4082.051270,4100.512695,4242.051270,450.000000,4.000000,91.000000,,,,0.000000,4.000000,4.000000,4.000000,4.000000,4.000000,100.000000,,,,,,,,,,,,,,,,,,,,,,,,,,,,,,,,,,,,,,,,,,,,,,,,,,,,,,,,,,,,,,,
1656266152.326723,75.000000,0.000000,4291.282227,4258.974121,4079.487061,4103.589844,4251.282227,16109.000000,4.000000,91.000000,,,,0.000000,4.000000,4.000000,4.000000,4.000000,4.000000,100.000000,1.000000,33.333332,4.000000,2.000000,0.000000,2.000000,2.000000,,,,,,,,,,,,,,,,,,,,,,,,,,,,,,,,5.746574,4.351925,1.386479,1.362295,0.761865,5.468368,2.686963,0.929892,0.634610,0.542569,1.507549,15.197219,1.487900,1.855978,0.467371,5.548139,3.751560,2.250743,0.451236,0.310817,8.420015,4.060861,1.090186,0.882670,0.602314
1656266152.334538,76.000000,0.000000,4297.436035,4260.000000,4078.461426,4106.666504,4257.436035,450.000000,4.000000,91.000000,,,,0.000000,4.000000,4.000000,4.000000,4.000000,4.000000,100.000000,,,,,,,,,,,,,,,,,,,,,,,,,,,,,,,,,,,,,,,,,,,,,,,,,,,,,,,,,,,,,,,
1656266152.342452,77.000000,0.000000,4268.717773,4245.641113,4075.384521,4100.512695,4240.512695,450.000000,4.000000,91.000000,,,,0.000000,4.000000,4.000000,4.000000,4.000000,4.000000,100.000000,,,,,,,,,,,,,,,,,,,,,,,,,,,,,,,,,,,,,,,,,,,,,,,,,,,,,,,,,,,,,,,
1656266152.350267,78.000000,0.000000,4266.666504,4250.769043,4083.076904,4092.820557,4230.256348,450.000000,4.000000,91.000000,,,,0.000000,4.000000,4.000000,4.000000,4.000000,4.000000,100.000000,,,,,,,,,,,,,,,,,,,,,,,,,,,,,,,,,,,,,,,,,,,,,,,,,,,,,,,,,,,,,,,
1656266152.358081,79.000000,0.000000,4294.871582,4264.615234,4093.846191,4090.256348,4243.589844,16109.000000,4.000000,91.000000,,,,0.000000,4.000000,4.000000,4.000000,4.000000,4.000000,100.000000,,,,,,,,,,,,,,,,,,,,,,,,,,,,,,,,,,,,,,,,,,,,,,,,,,,,,,,,,,,,,,,
1656266152.365795,80.000000,0.000000,4318.461426,4257.948730,4108.717773,4095.384521,4270.256348,450.000000,4.000000,91.000000,,,,0.000000,4.000000,4.000000,4.000000,4.000000,4.000000,100.000000,,,,,,,,,,,,,,,,,,,,,,,,,,,,,,,,,,,,,,,,,,,,,,,,,,,,,,,,,,,,,,,
1656266152.373610,81.000000,0.000000,4332.820313,4248.717773,4129.743652,4104.615234,4288.717773,450.000000,4.000000,91.000000,,,,0.000000,4.000000,4.000000,4.000000,4.000000,4.000000,100.000000,,,,,,,,,,,,,,,,,,,,,,,,,,,,,,,,,,,,,,,,,,,,,,,,,,,,,,,,,,,,,,,
1656266152.381324,82.000000,0.000000,4336.410156,4258.461426,4138.461426,4110.256348,4284.615234,450.000000,4.000000,91.000000,,,,0.000000,4.000000,4.000000,4.000000,4.000000,4.000000,100.000000,,,,,,,,,,,,,,,,,,,,,,,,,,,,,,,,,,,,,,,,,,,,,,,,,,,,,,,,,,,,,,,
1656266152.389139,83.000000,0.000000,4328.717773,4266.666504,4131.794922,4112.307617,4269.743652,16109.000000,4.000000,91.000000,,,,0.000000,4.000000,4.000000,4.000000,4.000000,4.000000,100.000000,,,,,,,,,,,,,,,,,,,,,,,,,,,,,,,,,,,,,,,,,,,,,,,,,,,,,,,,,,,,,,,
1656266152.396853,84.000000,0.000000,4326.153809,4261.025879,4121.538574,4116.410156,4268.717773,450.000000,4.000000,91.000000,,,,0.000000,4.000000,4.000000,4.000000,4.000000,4.000000,100.000000,,,,,,,,,,,,,,,,,,,,,,,,,,,,,,,,,,,,,,,,,,,,,,,,,,,,,,,,,,,,,,,
1656266152.404668,85.000000,0.000000,4327.692383,4257.948730,4107.692383,4114.871582,4278.461426,450.000000,4.000000,91.000000,,,,0.000000,4.000000,4.000000,4.000000,4.000000,4.000000,100.000000,,,,,,,,,,,,,,,,,,,,,,,,,,,,,,,,,,,,,,,,,,,,,,,,,,,,,,,,,,,,,,,
1656266152.412382,86.000000,0.000000,4322.563965,4257.436035,4089.230713,4097.948730,4273.846191,450.000000,4.000000,91.000000,,,,0.000000,4.000000,4.000000,4.000000,4.000000,4.000000,100.000000,,,,,,,,,,,,,,,,,,,,,,,,,,,,,,,,,,,,,,,,,,,,,,,,,,,,,,,,,,,,,,,
1656266152.420197,87.000000,0.000000,4318.974121,4256.410156,4086.666748,4089.743652,4262.051270,16109.000000,4.000000,91.000000,,,,0.000000,4.000000,4.000000,4.000000,4.000000,4.000000,100.000000,,,,,,,,,,,,,,,,,,,,,,,,,,,,,,,,,,,,,,,,,,,,,,,,,,,,,,,,,,,,,,,
1656266152.427911,88.000000,0.000000,4312.820313,4257.436035,4100.512695,4096.922852,4256.922852,450.000000,4.000000,91.000000,,,,0.000000,4.000000,4.000000,4.000000,4.000000,4.000000,100.000000,,,,,,,,,,,,,,,,,,,,,,,,,,,,,,,,,,,,,,,,,,,,,,,,,,,,,,,,,,,,,,,
1656266152.435825,89.000000,0.000000,4302.051270,4252.307617,4105.128418,4094.871826,4255.384766,450.000000,4.000000,91.000000,,,,0.000000,4.000000,4.000000,4.000000,4.000000,4.000000,100.000000,,,,,,,,,,,,,,,,,,,,,,,,,,,,,,,,,,,,,,,,,,,,,,,,,,,,,,,,,,,,,,,
1656266152.443640,90.000000,0.000000,4304.615234,4254.358887,4113.333496,4088.718018,4258.974121,450.000000,4.000000,91.000000,,,,0.000000,4.000000,4.000000,4.000000,4.000000,4.000000,100.000000,,,,,,,,,,,,,,,,,,,,,,,,,,,,,,,,,,,,,,,,,,,,,,,,,,,,,,,,,,,,,,,
1656266152.451454,91.000000,0.000000,4314.871582,4271.282227,4130.256348,4097.436035,4262.051270,16109.000000,4.000000,91.000000,,,,0.000000,4.000000,4.000000,4.000000,4.000000,4.000000,100.000000,,,,,,,,,,,,,,,,,,,,,,,,,,,,,,,,,,,,,,,3.786271,4.361419,1.154881,1.251762,0.714296,4.677547,2.074441,0.806360,0.595257,0.537712,1.923246,16.164690,1.664320,1.802185,0.406272,5.108248,2.974115,1.816090,0.457366,0.283569,7.639638,4.385785,0.894512,0.834518,0.568685
1656266152.459169,92.000000,0.000000,4317.948730,4265.128418,4127.179688,4108.717773,4262.563965,450.000000,4.000000,91.000000,,,,0.000000,4.000000,4.000000,4.000000,4.000000,4.000000,100.000000,,,,,,,,,,,,,,,,,,,,,,,,,,,,,,,,,,,,,,,,,,,,,,,,,,,,,,,,,,,,,,,
1656266152.466883,93.000000,0.000000,4306.153809,4243.589844,4111.794922,4103.077148,4259.487305,450.000000,4.000000,91.000000,,,,0.000000,4.000000,4.000000,4.000000,4.000000,4.000000,100.000000,,,,,,,,,,,,,,,,,,,,,,,,,,,,,,,,,,,,,,,,,,,,,,,,,,,,,,,,,,,,,,,
1656266152.474698,94.000000,0.000000,4289.743652,4251.282227,4111.794922,4101.025879,4246.153809,450.000000,4.000000,91.000000,,,,0.000000,4.000000,4.000000,4.000000,4.000000,4.000000,100.000000,,,,,,,,,,,,,,,,,,,,,,,,,,,,,,,,,,,,,,,,,,,,,,,,,,,,,,,,,,,,,,,
1656266152.482412,95.000000,0.000000,4292.307617,4272.307617,4110.256348,4114.358887,4242.051270,16109.000000,4.000000,91.000000,,,,0.000000,4.000000,4.000000,4.000000,4.000000,4.000000,100.000000,,,,,,,,,,,,,,,,,,,,,,,,,,,,,,,,,,,,,,,,,,,,,,,,,,,,,,,,,,,,,,,
1656266152.490227,96.000000,0.000000,4307.179688,4265.641113,4087.692383,4108.717773,4263.589844,450.000000,4.000000,91.000000,,,,0.000000,4.000000,4.000000,4.000000,4.000000,4.000000,100.000000,,,,,,,,,,,,,,,,,,,,,,,,,,,,,,,,,,,,,,,,,,,,,,,,,,,,,,,,,,,,,,,
1656266152.497941,97.000000,0.000000,4295.897461,4249.230957,4080.000000,4094.871826,4276.410156,450.000000,4.000000,91.000000,,,,0.000000,4.000000,4.000000,4.000000,4.000000,4.000000,100.000000,,,,,,,,,,,,,,,,,,,,,,,,,,,,,,,,,,,,,,,,,,,,,,,,,,,,,,,,,,,,,,,
1656266152.505755,98.000000,0.000000,4275.384766,4252.307617,4095.897461,4104.615234,4257.948730,450.000000,4.000000,91.000000,,,,0.000000,4.000000,4.000000,4.000000,4.000000,4.000000,100.000000,,,,,,,,,,,,,,,,,,,,,,,,,,,,,,,,,,,,,,,,,,,,,,,,,,,,,,,,,,,,,,,
1656266152.513470,99.000000,0.000000,4292.820313,4263.077148,4104.615234,4114.871582,4248.205078,16109.000000,4.000000,91.000000,,,,0.000000,4.000000,4.000000,4.000000,4.000000,4.000000,100.000000,,,,,,,,,,,,,,,,,,,,,,,,,,,,,,,,,,,,,,,,,,,,,,,,,,,,,,,,,,,,,,,
1656266152.521284,100.000000,0.000000,4320.000000,4268.205078,4111.282227,4118.461426,4274.358887,450.000000,4.000000,91.000000,,,,0.000000,4.000000,4.000000,4.000000,4.000000,4.000000,100.000000,,,,,,,,,,,,,,,,,,,,,,,,,,,,,,,,,,,,,,,,,,,,,,,,,,,,,,,,,,,,,,,
1656266152.528999,101.000000,0.000000,4311.794922,4273.333496,4117.436035,4123.589844,4293.333496,450.000000,4.000000,91.000000,,,,0.000000,4.000000,4.000000,4.000000,4.000000,4.000000,100.000000,,,,,,,,,,,,,,,,,,,,,,,,,,,,,,,,,,,,,,,,,,,,,,,,,,,,,,,,,,,,,,,
1656266152.536813,102.000000,0.000000,4294.358887,4279.487305,4118.461426,4114.871582,4276.410156,450.000000,4.000000,91.000000,,,,0.000000,4.000000,4.000000,4.000000,4.000000,4.000000,100.000000,,,,,,,,,,,,,,,,,,,,,,,,,,,,,,,,,,,,,,,,,,,,,,,,,,,,,,,,,,,,,,,
1656266152.544528,103.000000,0.000000,4309.230957,4284.615234,4124.102539,4109.230957,4260.000000,16109.000000,4.000000,91.000000,,,,0.000000,4.000000,4.000000,4.000000,4.000000,4.000000,100.000000,,,,,,,,,,,,,,,,,,,,,,,,,,,,,,,,,,,,,,,,,,,,,,,,,,,,,,,,,,,,,,,
1656266152.552342,104.000000,0.000000,4330.769043,4280.512695,4125.641113,4120.000000,4270.769043,450.000000,4.000000,91.000000,,,,0.000000,4.000000,4.000000,4.000000,4.000000,4.000000,100.000000,,,,,,,,,,,,,,,,,,,,,,,,,,,,,,,,,,,,,,,,,,,,,,,,,,,,,,,,,,,,,,,
1656266152.560057,105.000000,0.000000,4323.077148,4272.820313,4125.128418,4124.615234,4282.051270,450.000000,4.000000,91.000000,,,,0.000000,4.000000,4.000000,4.000000,4.000000,4.000000,100.000000,,,,,,,,,,,,,,,,,,,,,,,,,,,,,,,,,,,,,,,,,,,,,,,,,,,,,,,,,,,,,,,
1656266152.567871,106.000000,0.000000,4305.641113,4270.769043,4130.769043,4121.025879,4271.282227,450.000000,4.000000,91.000000,,,,0.000000,4.000000,4.000000,4.000000,4.000000,4.000000,100.000000,,,,,,,,,,,,,,,,,,,,,,,,,,,,,,,,,,,,,,,,,,,,,,,,,,,,,,,,,,,,,,,
1656266152.575586,107.000000,0.000000,4310.769043,4271.282227,4133.846191,4117.948730,4265.128418,16109.000000,4.000000,91.000000,,,,0.000000,4.000000,4.000000,4.000000,4.000000,4.000000,100.000000,,,,,,,,,,,,,,,,,,,,,,,,,,,,,,,,,,,,,,,3.420034,4.453276,0.964746,1.109230,0.661579,3.977023,1.685372,0.685483,0.589928,0.537183,2.479671,16.839016,1.905636,1.734503,0.356442,4.362212,2.438620,1.341367,0.478739,0.271898,7.581933,4.714824,0.751069,0.850695,0.588784
1656266152.583500,108.000000,0.000000,4325.128418,4275.897461,4130.256348,4114.871582,4275.384766,450.000000,4.000000,91.000000,,,,0.000000,4.000000,4.000000,4.000000,4.000000,4.000000,100.000000,,,,,,,,,,,,,,,,,,,,,,,,,,,,,,,,,,,,,,,,,,,,,,,,,,,,,,,,,,,,,,,
1656266152.591314,109.000000,0.000000,4317.436035,4275.384766,4125.128418,4115.897461,4273.333496,450.000000,4.000000,91.000000,,,,0.000000,4.000000,4.000000,4.000000,4.000000,4.000000,100.000000,,,,,,,,,,,,,,,,,,,,,,,,,,,,,,,,,,,,,,,,,,,,,,,,,,,,,,,,,,,,,,,
1656266152.599229,110.000000,0.000000,4306.153809,4274.358887,4120.000000,4117.948730,4262.563965,450.000000,4.000000,91.000000,,,,0.000000,4.000000,4.000000,4.000000,4.000000,4.000000,100.000000,,,,,,,,,,,,,,,,,,,,,,,,,,,,,,,,,,,,,,,,,,,,,,,,,,,,,,,,,,,,,,,
1656266152.607043,111.000000,0.000000,4301.025879,4276.922852,4109.230957,4116.410156,4256.410156,16109.000000,4.000000,91.000000,,,,0.000000,4.000000,4.000000,4.000000,4.000000,4.000000,100.000000,,,,,,,,,,,,,,,,,,,,,,,,,,,,,,,,,,,,,,,,,,,,,,,,,,,,,,,,,,,,,,,
1656266152.614957,112.000000,0.000000,4290.769043,4272.820313,4104.102539,4115.897461,4249.230957,450.000000,4.000000,91.000000,,,,0.000000,4.000000,4.000000,4.000000,4.000000,4.000000,100.000000,,,,,,,,,,,,,,,,,,,,,,,,,,,,,,,,,,,,,,,,,,,,,,,,,,,,,,,,,,,,,,,
1656266152.622872,113.000000,0.000000,4290.256348,4271.794922,4110.769043,4113.333496,4246.153809,450.000000,4.000000,91.000000,,,,0.000000,4.000000,4.000000,4.000000,4.000000,4.000000,100.000000,,,,,,,,,,,,,,,,,,,,,,,,,,,,,,,,,,,,,,,,,,,,,,,,,,,,,,,,,,,,,,,
1656266152.630686,114.000000,0.000000,4292.820313,4272.307617,4102.051270,4096.922852,4247.179688,450.000000,4.000000,91.000000,,,,0.000000,4.000000,4.000000,4.000000,4.000000,4.000000,100.000000,,,,,,,,,,,,,,,,,,,,,,,,,,,,,,,,,,,,,,,,,,,,,,,,,,,,,,,,,,,,,,,
1656266152.638501,115.000000,0.000000,4287.692383,4269.230957,4091.794922,4086.666748,4244.615234,16109.000000,4.000000,91.000000,,,,0.000000,4.000000,4.000000,4.000000,4.000000,4.000000,100.000000,,,,,,,,,,,,,,,,,,,,,,,,,,,,,,,,,,,,,,,,,,,,,,,,,,,,,,,,,,,,,,,
1656266152.646215,116.000000,0.000000,4291.794922,4269.743652,4107.692383,4104.102539,4244.102539,450.000000,4.000000,91.000000,,,,0.000000,4.000000,4.000000,4.000000,4.000000,4.000000,100.000000,,,,,,,,,,,,,,,,,,,,,,,,,,,,,,,,,,,,,,,,,,,,,,,,,,,,,,,,,,,,,,,
1656266152.654029,117.000000,0.000000,4291.282227,4266.666504,4116.410156,4121.538574,4238.461426,450.000000,4.000000,91.000000,,,,0.000000,4.000000,4.000000,4.000000,4.000000,4.000000,100.000000,,,,,,,,,,,,,,,,,,,,,,,,,,,,,,,,,,,,,,,,,,,,,,,,,,,,,,,,,,,,,,,
1656266152.661744,118.000000,0.000000,4279.487305,4249.743652,4104.615234,4117.948730,4226.153809,450.000000,4.000000,91.000000,,,,0.000000,4.000000,4.000000,4.000000,4.000000,4.000000,100.000000,,,,,,,,,,,,,,,,,,,,,,,,,,,,,,,,,,,,,,,,,,,,,,,,,,,,,,,,,,,,,,,
1656266152.669558,119.000000,0.000000,4281.025879,4240.000000,4105.641113,4113.846191,4221.025879,16109.000000,4.000000,91.000000,,,,0.000000,4.000000,4.000000,4.000000,4.000000,4.000000,100.000000,,,,,,,,,,,,,,,,,,,,,,,,,,,,,,,,,,,,,,,,,,,,,,,,,,,,,,,,,,,,,,,
1656266152.677273,120.000000,0.000000,4295.384766,4252.820313,4122.051270,4118.974121,4225.641113,450.000000,4.000000,91.000000,,,,0.000000,4.000000,4.000000,4.000000,4.000000,4.000000,100.000000,,,,,,,,,,,,,,,,,,,,,,,,,,,,,,,,,,,,,,,,,,,,,,,,,,,,,,,,,,,,,,,
1656266152.685087,121.000000,0.000000,4302.051270,4267.692383,4122.563965,4125.128418,4248.205078,450.000000,4.000000,91.000000,,,,0.000000,4.000000,4.000000,4.000000,4.000000,4.000000,100.000000,,,,,,,,,,,,,,,,,,,,,,,,,,,,,,,,,,,,,,,,,,,,,,,,,,,,,,,,,,,,,,,
1656266152.692802,122.000000,0.000000,4295.384766,4263.589844,4108.205078,4125.641113,4261.025879,450.000000,4.000000,91.000000,,,,0.000000,4.000000,4.000000,4.000000,4.000000,4.000000,100.000000,,,,,,,,,,,,,,,,,,,,,,,,,,,,,,,,,,,,,,,,,,,,,,,,,,,,,,,,,,,,,,,
1656266152.700616,123.000000,0.000000,4290.769043,4247.179688,4097.948730,4113.846191,4240.000000,16109.000000,4.000000,91.000000,,,,0.000000,4.000000,4.000000,4.000000,4.000000,4.000000,100.000000,,,,,,,,,,,,,,,,,,,,,,,,,,,,,,,,,,,,,,,3.720600,4.604817,0.819104,0.998329,0.622895,3.555319,1.627359,0.597341,0.602080,0.534463,3.176025,17.171841,2.161011,1.636176,0.316172,3.607747,2.439397,0.927205,0.527385,0.276960,7.814806,5.034827,0.653668,0.957122,0.665028
1656266152.708331,124.000000,0.000000,4297.948730,4242.563965,4102.051270,4098.461426,4227.692383,450.000000,4.000000,91.000000,,,,0.000000,4.000000,4.000000,4.000000,4.000000,4.000000,100.000000,,,,,,,,,,,,,,,,,,,,,,,,,,,,,,,,,,,,,,,,,,,,,,,,,,,,,,,,,,,,,,,
1656266152.716145,125.000000,0.000000,4297.948730,4253.333496,4117.948730,4102.051270,4246.153809,450.000000,4.000000,91.000000,,,,0.000000,4.000000,4.000000,4.000000,4.000000,4.000000,100.000000,,,,,,,,,,,,,,,,,,,,,,,,,,,,,,,,,,,,,,,,,,,,,,,,,,,,,,,,,,,,,,,
1656266152.723860,126.000000,0.000000,4285.641113,4252.820313,4123.077148,4111.282227,4248.205078,450.000000,4.000000,91.000000,,,,0.000000,4.000000,4.000000,4.000000,4.000000,4.000000,100.000000,,,,,,,,,,,,,,,,,,,,,,,,,,,,,,,,,,,,,,,,,,,,,,,,,,,,,,,,,,,,,,,
1656266152.731674,127.000000,0.000000,4274.871582,4240.512695,4106.666504,4102.051270,4222.051270,242.000000,4.000000,91.000000,,,,0.000000,4.000000,4.000000,4.000000,4.000000,4.000000,100.000000,,,,,,,,,,,,,,,,,,,,,,,,,,,,,,,,,,,,,,,,,,,,,,,,,,,,,,,,,,,,,,,
1656266152.739389,0.000000,0.000000,4266.153809,4243.077148,4091.794922,4093.846191,4209.230957,450.000000,4.000000,91.000000,,,,0.000000,4.000000,4.000000,4.000000,4.000000,4.000000,100.000000,,,,,,,,,,,,,,,,,,,,,,,,,,,,,,,,,,,,,,,,,,,,,,,,,,,,,,,,,,,,,,,
1656266152.747203,1.000000,0.000000,4255.384766,4256.410156,4094.358887,4097.948730,4207.179688,450.000000,4.000000,91.000000,,,,0.000000,4.000000,4.000000,4.000000,4.000000,4.000000,100.000000,,,,,,,,,,,,,,,,,,,,,,,,,,,,,,,,,,,,,,,,,,,,,,,,,,,,,,,,,,,,,,,
1656266152.754917,2.000000,0.000000,4243.589844,4257.436035,4099.487305,4100.000000,4188.717773,16199.000000,4.000000,91.000000,,,,0.000000,4.000000,4.000000,4.000000,4.000000,4.000000,100.000000,,,,,,,,,,,,,,,,,,,,,,,,,,,,,,,,,,,,,,,,,,,,,,,,,,,,,,,,,,,,,,,
1656266152.762732,3.000000,0.000000,4237.436035,4256.922852,4100.000000,4104.102539,4183.077148,450.000000,4.000000,91.000000,,,,0.000000,4.000000,4.000000,4.000000,4.000000,4.000000,100.000000,,,,,,,,,,,,,,,,,,,,,,,,,,,,,,,,,,,,,,,,,,,,,,,,,,,,,,,,,,,,,,,
1656266152.770446,4.000000,0.000000,4242.563965,4262.563965,4094.358887,4107.692383,4202.563965,16188.000000,4.000000,91.000000,,,,0.000000,4.000000,4.000000,4.000000,4.000000,4.000000,100.000000,,,,,,,,,,,,,,,,,,,,,,,,,,,,,,,,,,,,,,,,,,,,,,,,,,,,,,,,,,,,,,,
1656266152.778261,5.000000,0.000000,4244.102539,4253.333496,4084.615479,4106.666504,4212.820313,450.000000,4.000000,91.000000,,,,0.000000,4.000000,4.000000,4.000000,4.000000,4.000000,100.000000,,,,,,,,,,,,,,,,,,,,,,,,,,,,,,,,,,,,,,,,,,,,,,,,,,,,,,,,,,,,,,,
1656266152.785975,6.000000,0.000000,4236.410156,4240.000000,4079.487061,4106.153809,4202.563965,16172.000000,4.000000,91.000000,,,,0.000000,4.000000,4.000000,4.000000,4.000000,4.000000,100.000000,,,,,,,,,,,,,,,,,,,,,,,,,,,,,,,,,,,,,,,,,,,,,,,,,,,,,,,,,,,,,,,
1656266152.793890,7.000000,0.000000,4236.922852,4245.641113,4077.435791,4102.563965,4190.769043,450.000000,4.000000,91.000000,,,,0.000000,4.000000,4.000000,4.000000,4.000000,4.000000,100.000000,,,,,,,,,,,,,,,,,,,,,,,,,,,,,,,,,,,,,,,,,,,,,,,,,,,,,,,,,,,,,,,
1656266152.801704,8.000000,0.000000,4247.179688,4258.974121,4077.435791,4103.589844,4197.436035,450.000000,4.000000,91.000000,,,,0.000000,4.000000,4.000000,4.000000,4.000000,4.000000,100.000000,,,,,,,,,,,,,,,,,,,,,,,,,,,,,,,,,,,,,,,,,,,,,,,,,,,,,,,,,,,,,,,
1656266152.809618,9.000000,0.000000,4250.256348,4251.794922,4080.000000,4100.000000,4204.102539,16155.000000,4.000000,91.000000,,,,0.000000,4.000000,4.000000,4.000000,4.000000,4.000000,100.000000,,,,,,,,,,,,,,,,,,,,,,,,,,,,,,,,,,,,,,,,,,,,,,,,,,,,,,,,,,,,,,,
1656266152.817433,10.000000,0.000000,4237.436035,4235.384766,4084.615479,4087.692383,4190.256348,450.000000,4.000000,91.000000,,,,0.000000,4.000000,4.000000,4.000000,4.000000,4.000000,100.000000,,,,,,,,,,,,,,,,,,,,,,,,,,,,,,,,,,,,,,,,,,,,,,,,,,,,,,,,,,,,,,,
1656266152.825347,11.000000,0.000000,4221.025879,4242.051270,4084.102539,4083.589844,4180.512695,16193.000000,4.000000,91.000000,,,,0.000000,4.000000,4.000000,4.000000,4.000000,4.000000,100.000000,1.000000,33.333332,4.000000,2.000000,0.000000,2.000000,4.000000,,,,,,,,,,,,,,,,,,,,,,,,,,,,,,,,4.270351,4.833961,0.716651,0.953024,0.620979,3.433980,1.847166,0.545654,0.610166,0.528436,3.986188,17.049633,2.386461,1.502785,0.285036,3.127493,2.994520,0.636494,0.600011,0.296336,8.037827,5.335192,0.584273,1.126210,0.787382
1656266152.833161,12.000000,0.000000,4218.974121,4251.282227,4077.435791,4086.153809,4185.641113,450.000000,4.000000,91.000000,,,,0.000000,4.000000,4.000000,4.000000,4.000000,4.000000,100.000000,,,,,,,,,,,,,,,,,,,,,,,,,,,,,,,,,,,,,,,,,,,,,,,,,,,,,,,,,,,,,,,
1656266152.841076,13.000000,0.000000,4236.922852,4246.666504,4088.205078,4100.512695,4193.333496,450.000000,4.000000,91.000000,,,,0.000000,4.000000,4.000000,4.000000,4.000000,4.000000,100.000000,,,,,,,,,,,,,,,,,,,,,,,,,,,,,,,,,,,,,,,,,,,,,,,,,,,,,,,,,,,,,,,
1656266152.848890,14.000000,0.000000,4251.794922,4245.641113,4097.436035,4115.384766,4203.589844,450.000000,4.000000,91.000000,,,,0.000000,4.000000,4.000000,4.000000,4.000000,4.000000,100.000000,,,,,,,,,,,,,,,,,,,,,,,,,,,,,,,,,,,,,,,,,,,,,,,,,,,,,,,,,,,,,,,
1656266152.856804,15.000000,0.000000,4251.282227,4249.743652,4089.230713,4104.615234,4204.615234,16193.000000,4.000000,91.000000,,,,0.000000,4.000000,4.000000,4.000000,4.000000,4.000000,100.000000,,,,,,,,,,,,,,,,,,,,,,,,,,,,,,,,,,,,,,,,,,,,,,,,,,,,,,,,,,,,,,,
1656266152.864619,16.000000,0.000000,4247.179688,4251.794922,4094.358887,4092.820557,4200.000000,0.000000,4.000000,91.000000,,,,0.000000,4.000000,4.000000,4.000000,4.000000,4.000000,100.000000,,,,,,,,,,,,,,,,,,,,,,,,,,,,,,,,,,,,,,,,,,,,,,,,,,,,,,,,,,,,,,,
1656266152.872333,17.000000,0.000000,4243.589844,4249.743652,4112.307617,4106.666504,4211.282227,0.000000,4.000000,91.000000,,,,0.000000,4.000000,4.000000,4.000000,4.000000,4.000000,100.000000,,,,,,,,,,,,,,,,,,,,,,,,,,,,,,,,,,,,,,,,,,,,,,,,,,,,,,,,,,,,,,,
1656266152.880148,18.000000,0.000000,4243.589844,4251.794922,4122.051270,4117.436035,4222.563965,0.000000,4.000000,91.000000,,,,0.000000,4.000000,4.000000,4.000000,4.000000,4.000000,100.000000,,,,,,,,,,,,,,,,,,,,,,,,,,,,,,,,,,,,,,,,,,,,,,,,,,,,,,,,,,,,,,,
1656266152.887862,19.000000,0.000000,4247.179688,4261.025879,4115.897461,4108.205078,4211.282227,0.000000,4.000000,91.000000,,,,0.000000,4.000000,4.000000,4.000000,4.000000,4.000000,100.000000,,,,,,,,,,,,,,,,,,,,,,,,,,,,,,,,,,,,,,,,,,,,,,,,,,,,,,,,,,,,,,,
1656266152.895677,20.000000,0.000000,4242.051270,4265.641113,4100.000000,4105.641113,4202.051270,0.000000,4.000000,91.000000,,,,0.000000,4.000000,4.000000,4.000000,4.000000,4.000000,100.000000,,,,,,,,,,,,,,,,,,,,,,,,,,,,,,,,,,,,,,,,,,,,,,,,,,,,,,,,,,,,,,,
1656266152.903391,21.000000,0.000000,4237.948730,4255.384766,4086.153809,4101.538574,4211.282227,0.000000,4.000000,91.000000,,,,0.000000,4.000000,4.000000,4.000000,4.000000,4.000000,100.000000,,,,,,,,,,,,,,,,,,,,,,,,,,,,,,,,,,,,,,,,,,,,,,,,,,,,,,,,,,,,,,,
1656266152.911206,22.000000,0.000000,4238.974121,4242.563965,4083.076904,4089.743652,4212.307617,0.000000,4.000000,91.000000,,,,0.000000,4.000000,4.000000,4.000000,4.000000,4.000000,100.000000,,,,,,,,,,,,,,,,,,,,,,,,,,,,,,,,,,,,,,,,,,,,,,,,,,,,,,,,,,,,,,,
1656266152.918920,23.000000,0.000000,4236.410156,4252.307617,4084.102539,4093.333252,4200.000000,0.000000,4.000000,91.000000,,,,0.000000,4.000000,4.000000,4.000000,4.000000,4.000000,100.000000,,,,,,,,,,,,,,,,,,,,,,,,,,,,,,,,,,,,,,,,,,,,,,,,,,,,,,,,,,,,,,,
1656266152.926734,24.000000,0.000000,4235.897461,4264.615234,4075.384521,4099.487305,4195.384766,0.000000,4.000000,91.000000,,,,0.000000,4.000000,4.000000,4.000000,4.000000,4.000000,100.000000,,,,,,,,,,,,,,,,,,,,,,,,,,,,,,,,,,,,,,,,,,,,,,,,,,,,,,,,,,,,,,,
1656266152.934449,25.000000,0.000000,4244.615234,4250.769043,4064.615479,4086.153809,4192.307617,0.000000,4.000000,91.000000,,,,0.000000,4.000000,4.000000,4.000000,4.000000,4.000000,100.000000,,,,,,,,,,,,,,,,,,,,,,,,,,,,,,,,,,,,,,,,,,,,,,,,,,,,,,,,,,,,,,,
1656266152.942363,26.000000,0.000000,4261.025879,4235.384766,4072.820557,4084.102539,4190.769043,0.000000,4.000000,91.000000,,,,0.000000,4.000000,4.000000,4.000000,4.000000,4.000000,100.000000,,,,,,,,,,,,,,,,,,,,,,,,,,,,,,,,,,,,,,,,,,,,,,,,,,,,,,,,,,,,,,,
1656266152.950178,27.000000,0.000000,4268.717773,4248.205078,4091.281982,4107.692383,4206.666504,0.000000,4.000000,91.000000,,,,0.000000,4.000000,4.000000,4.000000,4.000000,4.000000,100.000000,,,,,,,,,,,,,,,,,,,,,,,,,,,,,,,,,,,,,,,4.983493,5.078868,0.655998,0.959421,0.666026,3.474682,2.174542,0.527989,0.599948,0.521263,4.787357,16.327723,2.565912,1.341900,0.266934,2.947000,3.828571,0.485871,0.677540,0.324828,8.084291,5.503243,0.537413,1.291569,0.930832
1656266152.958092,28.000000,0.000000,4260.512695,4267.179688,4100.512695,4118.461426,4226.153809,0.000000,4.000000,91.000000,,,,0.000000,4.000000,4.000000,4.000000,4.000000,4.000000,100.000000,,,,,,,,,,,,,,,,,,,,,,,,,,,,,,,,,,,,,,,,,,,,,,,,,,,,,,,,,,,,,,,
1656266152.965906,29.000000,0.000000,4256.922852,4268.717773,4101.538574,4112.307617,4229.743652,0.000000,4.000000,91.000000,,,,0.000000,4.000000,4.000000,4.000000,4.000000,4.000000,100.000000,,,,,,,,,,,,,,,,,,,,,,,,,,,,,,,,,,,,,,,,,,,,,,,,,,,,,,,,,,,,,,,
1656266152.973821,30.000000,0.000000,4265.641113,4261.538574,4100.512695,4113.846191,4231.794922,0.000000,4.000000,91.000000,,,,0.000000,4.000000,4.000000,4.000000,4.000000,4.000000,100.000000,,,,,,,,,,,,,,,,,,,,,,,,,,,,,,,,,,,,,,,,,,,,,,,,,,,,,,,,,,,,,,,
1656266152.981635,31.000000,0.000000,4269.230957,4266.666504,4104.102539,4119.487305,4228.717773,0.000000,4.000000,91.000000,,,,0.000000,4.000000,4.000000,4.000000,4.000000,4.000000,100.000000,,,,,,,,,,,,,,,,,,,,,,,,,,,,,,,,,,,,,,,,,,,,,,,,,,,,,,,,,,,,,,,
1656266152.989549,32.000000,0.000000,4264.615234,4270.769043,4112.307617,4113.333496,4215.384766,0.000000,4.000000,91.000000,,,,0.000000,4.000000,4.000000,4.000000,4.000000,4.000000,100.000000,,,,,,,,,,,,,,,,,,,,,,,,,,,,,,,,,,,,,,,,,,,,,,,,,,,,,,,,,,,,,,,
1656266152.997364,33.000000,0.000000,4272.820313,4262.051270,4109.230957,4104.102539,4222.051270,0.000000,4.000000,91.000000,,,,0.000000,4.000000,4.000000,4.000000,4.000000,4.000000,100.000000,,,,,,,,,,,,,,,,,,,,,,,,,,,,,,,,,,,,,,,,,,,,,,,,,,,,,,,,,,,,,,,
1656266153.005278,34.000000,0.000000,4282.563965,4267.179688,4095.384521,4105.128418,4234.871582,0.000000,4.000000,91.000000,,,,0.000000,4.000000,4.000000,4.000000,4.000000,4.000000,100.000000,,,,,,,,,,,,,,,,,,,,,,,,,,,,,,,,,,,,,,,,,,,,,,,,,,,,,,,,,,,,,,,
1656266153.013093,35.000000,0.000000,4274.358887,4275.897461,4090.256348,4102.563965,4226.153809,0.000000,4.000000,91.000000,,,,0.000000,4.000000,4.000000,4.000000,4.000000,4.000000,100.000000,,,,,,,,,,,,,,,,,,,,,,,,,,,,,,,,,,,,,,,,,,,,,,,,,,,,,,,,,,,,,,,
1656266153.021007,36.000000,0.000000,4277.948730,4265.641113,4090.769287,4095.384521,4232.307617,0.000000,4.000000,91.000000,,,,0.000000,4.000000,4.000000,4.000000,4.000000,4.000000,100.000000,,,,,,,,,,,,,,,,,,,,,,,,,,,,,,,,,,,,,,,,,,,,,,,,,,,,,,,,,,,,,,,
1656266153.028821,37.000000,0.000000,4289.230957,4257.948730,4073.333252,4097.436035,4244.102539,0.000000,4.000000,91.000000,,,,0.000000,4.000000,4.000000,4.000000,4.000000,4.000000,100.000000,,,,,,,,,,,,,,,,,,,,,,,,,,,,,,,,,,,,,,,,,,,,,,,,,,,,,,,,,,,,,,,
1656266153.036536,38.000000,0.000000,4284.102539,4258.461426,4067.692383,4101.538574,4230.769043,0.000000,4.000000,91.000000,,,,0.000000,4.000000,4.000000,4.000000,4.000000,4.000000,100.000000,,,,,,,,,,,,,,,,,,,,,,,,,,,,,,,,,,,,,,,,,,,,,,,,,,,,,,,,,,,,,,,
1656266153.044350,39.000000,0.000000,4277.436035,4260.512695,4096.410156,4103.589844,4233.846191,0.000000,4.000000,91.000000,,,,0.000000,4.000000,4.000000,4.000000,4.000000,4.000000,100.000000,,,,,,,,,,,,,,,,,,,,,,,,,,,,,,,,,,,,,,,,,,,,,,,,,,,,,,,,,,,,,,,
1656266153.052065,40.000000,0.000000,4283.077148,4268.205078,4113.846191,4102.563965,4254.358887,0.000000,4.000000,91.000000,,,,0.000000,4.000000,4.000000,4.000000,4.000000,4.000000,100.000000,,,,,,,,,,,,,,,,,,,,,,,,,,,,,,,,,,,,,,,,,,,,,,,,,,,,,,,,,,,,,,,
1656266153.059879,41.000000,0.000000,4287.179688,4261.538574,4104.615234,4102.563965,4253.333496,0.000000,4.000000,91.000000,,,,0.000000,4.000000,4.000000,4.000000,4.000000,4.000000,100.000000,,,,,,,,,,,,,,,,,,,,,,,,,,,,,,,,,,,,,,,,,,,,,,,,,,,,,,,,,,,,,,,
1656266153.067594,42.000000,0.000000,4287.692383,4250.769043,4102.563965,4104.102539,4245.128418,0.000000,4.000000,91.000000,,,,0.000000,4.000000,4.000000,4.000000,4.000000,4.000000,100.000000,,,,,,,,,,,,,,,,,,,,,,,,,,,,,,,,,,,,,,,,,,,,,,,,,,,,,,,,,,,,,,,
1656266153.075408,43.000000,0.000000,4283.077148,4262.563965,4104.102539,4101.025879,4240.000000,0.000000,4.000000,91.000000,,,,0.000000,4.000000,4.000000,4.000000,4.000000,4.000000,100.000000,,,,,,,,,,,,,,,,,,,,,,,,,,,,,,,,,,,,,,,5.768439,5.224212,0.652831,0.973202,0.746316,3.519124,2.422947,0.532556,0.569919,0.517927,5.428875,14.964899,2.707609,1.165986,0.267069,2.894328,4.546557,0.454500,0.734093,0.356368,7.910079,5.442123,0.540256,1.384488,1.062587
1656266153.083123,44.000000,0.000000,4274.871582,4255.897461,4094.358887,4096.410156,4228.205078,0.000000,4.000000,91.000000,,,,0.000000,4.000000,4.000000,4.000000,4.000000,4.000000,100.000000,,,,,,,,,,,,,,,,,,,,,,,,,,,,,,,,,,,,,,,,,,,,,,,,,,,,,,,,,,,,,,,
1656266153.091037,45.000000,0.000000,4279.487305,4236.922852,4095.897461,4101.025879,4228.205078,0.000000,4.000000,91.000000,,,,0.000000,4.000000,4.000000,4.000000,4.000000,4.000000,100.000000,,,,,,,,,,,,,,,,,,,,,,,,,,,,,,,,,,,,,,,,,,,,,,,,,,,,,,,,,,,,,,,
1656266153.098851,46.000000,0.000000,4290.256348,4253.333496,4108.205078,4111.282227,4234.358887,0.000000,4.000000,91.000000,,,,0.000000,4.000000,4.000000,4.000000,4.000000,4.000000,100.000000,,,,,,,,,,,,,,,,,,,,,,,,,,,,,,,,,,,,,,,,,,,,,,,,,,,,,,,,,,,,,,,
1656266153.106666,47.000000,0.000000,4293.333496,4265.128418,4103.589844,4107.179688,4232.307617,0.000000,4.000000,91.000000,,,,0.000000,4.000000,4.000000,4.000000,4.000000,4.000000,100.000000,,,,,,,,,,,,,,,,,,,,,,,,,,,,,,,,,,,,,,,,,,,,,,,,,,,,,,,,,,,,,,,
1656266153.114380,48.000000,0.000000,4294.358887,4244.102539,4096.922852,4098.974121,4243.589844,0.000000,4.000000,91.000000,,,,0.000000,4.000000,4.000000,4.000000,4.000000,4.000000,100.000000,,,,,,,,,,,,,,,,,,,,,,,,,,,,,,,,,,,,,,,,,,,,,,,,,,,,,,,,,,,,,,,
1656266153.122294,49.000000,0.000000,4291.282227,4251.282227,4094.871826,4103.077148,4253.333496,0.000000,4.000000,91.000000,,,,0.000000,4.000000,4.000000,4.000000,4.000000,4.000000,100.000000,,,,,,,,,,,,,,,,,,,,,,,,,,,,,,,,,,,,,,,,,,,,,,,,,,,,,,,,,,,,,,,
1656266153.130109,50.000000,0.000000,4274.871582,4272.307617,4075.897461,4095.384521,4231.282227,0.000000,4.000000,91.000000,,,,0.000000,4.000000,4.000000,4.000000,4.000000,4.000000,100.000000,,,,,,,,,,,,,,,,,,,,,,,,,,,,,,,,,,,,,,,,,,,,,,,,,,,,,,,,,,,,,,,
1656266153.138023,51.000000,0.000000,4267.179688,4262.563965,4066.666748,4083.589844,4214.358887,0.000000,4.000000,91.000000,,,,0.000000,4.000000,4.000000,4.000000,4.000000,4.000000,100.000000,,,,,,,,,,,,,,,,,,,,,,,,,,,,,,,,,,,,,,,,,,,,,,,,,,,,,,,,,,,,,,,
1656266153.145838,52.000000,0.000000,4266.666504,4262.563965,4078.974365,4082.564209,4224.615234,0.000000,4.000000,91.000000,,,,0.000000,4.000000,4.000000,4.000000,4.000000,4.000000,100.000000,,,,,,,,,,,,,,,,,,,,,,,,,,,,,,,,,,,,,,,,,,,,,,,,,,,,,,,,,,,,,,,
1656266153.153752,53.000000,0.000000,4259.487305,4273.846191,4080.512939,4080.512939,4224.615234,0.000000,4.000000,91.000000,,,,0.000000,4.000000,4.000000,4.000000,4.000000,4.000000,100.000000,,,,,,,,,,,,,,,,,,,,,,,,,,,,,,,,,,,,,,,,,,,,,,,,,,,,,,,,,,,,,,,
1656266153.161566,54.000000,0.000000,4265.128418,4255.897461,4082.051270,4083.589844,4212.307617,0.000000,4.000000,91.000000,,,,0.000000,4.000000,4.000000,4.000000,4.000000,4.000000,100.000000,,,,,,,,,,,,,,,,,,,,,,,,,,,,,,,,,,,,,,,,,,,,,,,,,,,,,,,,,,,,,,,
1656266153.169481,55.000000,0.000000,4267.692383,4238.974121,4084.102539,4096.410156,4212.307617,0.000000,4.000000,91.000000,,,,0.000000,4.000000,4.000000,4.000000,4.000000,4.000000,100.000000,,,,,,,,,,,,,,,,,,,,,,,,,,,,,,,,,,,,,,,,,,,,,,,,,,,,,,,,,,,,,,,
1656266153.177295,56.000000,0.000000,4253.846191,4255.897461,4077.435791,4099.487305,4222.051270,0.000000,4.000000,91.000000,,,,0.000000,4.000000,4.000000,4.000000,4.000000,4.000000,100.000000,,,,,,,,,,,,,,,,,,,,,,,,,,,,,,,,,,,,,,,,,,,,,,,,,,,,,,,,,,,,,,,
1656266153.185209,57.000000,0.000000,4259.487305,4264.102539,4090.769287,4092.307617,4227.692383,0.000000,4.000000,91.000000,,,,0.000000,4.000000,4.000000,4.000000,4.000000,4.000000,100.000000,,,,,,,,,,,,,,,,,,,,,,,,,,,,,,,,,,,,,,,,,,,,,,,,,,,,,,,,,,,,,,,
1656266153.193024,58.000000,0.000000,4275.897461,4254.358887,4120.000000,4095.897461,4224.102539,0.000000,4.000000,91.000000,,,,0.000000,4.000000,4.000000,4.000000,4.000000,4.000000,100.000000,,,,,,,,,,,,,,,,,,,,,,,,,,,,,,,,,,,,,,,,,,,,,,,,,,,,,,,,,,,,,,,
1656266153.200938,59.000000,0.000000,4274.871582,4268.205078,4128.717773,4108.205078,4221.538574,0.000000,4.000000,91.000000,,,,0.000000,4.000000,4.000000,4.000000,4.000000,4.000000,100.000000,,,,,,,,,,,,,,,,,,,,,,,,,,,,,,,,,,,,,,,6.408362,5.134520,0.722862,0.956337,0.830898,3.386167,2.479683,0.543449,0.530878,0.523562,5.808033,13.117807,2.795470,0.998823,0.286395,2.741983,4.866278,0.494434,0.750643,0.386213,7.396622,5.135860,0.614768,1.370805,1.151068
1656266153.208752,60.000000,0.000000,4274.871582,4271.794922,4113.846191,4110.256348,4221.538574,0.000000,4.000000,91.000000,,,,0.000000,4.000000,4.000000,4.000000,4.000000,4.000000,100.000000,,,,,,,,,,,,,,,,,,,,,,,,,,,,,,,,,,,,,,,,,,,,,,,,,,,,,,,,,,,,,,,
1656266153.216467,61.000000,0.000000,4281.538574,4248.717773,4100.512695,4104.102539,4230.769043,0.000000,4.000000,91.000000,,,,0.000000,4.000000,4.000000,4.000000,4.000000,4.000000,100.000000,,,,,,,,,,,,,,,,,,,,,,,,,,,,,,,,,,,,,,,,,,,,,,,,,,,,,,,,,,,,,,,
1656266153.224281,62.000000,0.000000,4270.769043,4252.307617,4095.897461,4105.128418,4246.666504,0.000000,4.000000,91.000000,,,,0.000000,4.000000,4.000000,4.000000,4.000000,4.000000,100.000000,,,,,,,,,,,,,,,,,,,,,,,,,,,,,,,,,,,,,,,,,,,,,,,,,,,,,,,,,,,,,,,
1656266153.231996,63.000000,0.000000,4256.922852,4275.897461,4095.384521,4106.666504,4230.769043,0.000000,4.000000,91.000000,,,,0.000000,4.000000,4.000000,4.000000,4.000000,4.000000,100.000000,,,,,,,,,,,,,,,,,,,,,,,,,,,,,,,,,,,,,,,,,,,,,,,,,,,,,,,,,,,,,,,
1656266153.239810,64.000000,0.000000,4267.692383,4270.256348,4095.384521,4102.051270,4209.230957,450.000000,4.000000,91.000000,,,,0.000000,4.000000,4.000000,4.000000,4.000000,4.000000,100.000000,,,,,,,,,,,,,,,,,,,,,,,,,,,,,,,,,,,,,,,,,,,,,,,,,,,,,,,,,,,,,,,
1656266153.247525,65.000000,0.000000,4283.589844,4250.256348,4084.615479,4109.743652,4235.897461,450.000000,4.000000,91.000000,,,,0.000000,4.000000,4.000000,4.000000,4.000000,4.000000,100.000000,,,,,,,,,,,,,,,,,,,,,,,,,,,,,,,,,,,,,,,,,,,,,,,,,,,,,,,,,,,,,,,
1656266153.255339,66.000000,0.000000,4289.230957,4255.897461,4083.589844,4124.102539,4253.333496,16236.000000,4.000000,91.000000,,,,0.000000,4.000000,4.000000,4.000000,4.000000,4.000000,100.000000,,,,,,,,,,,,,,,,,,,,,,,,,,,,,,,,,,,,,,,,,,,,,,,,,,,,,,,,,,,,,,,
1656266153.263054,67.000000,0.000000,4287.692383,4268.205078,4095.897461,4113.333496,4227.179688,450.000000,4.000000,91.000000,,,,0.000000,4.000000,4.000000,4.000000,4.000000,4.000000,100.000000,,,,,,,,,,,,,,,,,,,,,,,,,,,,,,,,,,,,,,,,,,,,,,,,,,,,,,,,,,,,,,,
1656266153.270968,68.000000,0.000000,4270.769043,4262.051270,4090.769287,4090.769287,4205.128418,16174.000000,4.000000,91.000000,,,,0.000000,4.000000,4.000000,4.000000,4.000000,4.000000,100.000000,,,,,,,,,,,,,,,,,,,,,,,,,,,,,,,,,,,,,,,,,,,,,,,,,,,,,,,,,,,,,,,
1656266153.278782,69.000000,0.000000,4254.871582,4248.717773,4085.641113,4096.410156,4202.563965,450.000000,4.000000,91.000000,,,,0.000000,4.000000,4.000000,4.000000,4.000000,4.000000,100.000000,,,,,,,,,,,,,,,,,,,,,,,,,,,,,,,,,,,,,,,,,,,,,,,,,,,,,,,,,,,,,,,
1656266153.286697,70.000000,0.000000,4257.948730,4245.128418,4098.461426,4106.666504,4207.179688,16210.000000,4.000000,91.000000,,,,0.000000,4.000000,4.000000,4.000000,4.000000,4.000000,100.000000,,,,,,,,,,,,,,,,,,,,,,,,,,,,,,,,,,,,,,,,,,,,,,,,,,,,,,,,,,,,,,,
1656266153.294511,71.000000,0.000000,4248.717773,4248.717773,4097.948730,4088.205078,4203.077148,450.000000,4.000000,91.000000,,,,0.000000,4.000000,4.000000,4.000000,4.000000,4.000000,100.000000,,,,,,,,,,,,,,,,,,,,,,,,,,,,,,,,,,,,,,,,,,,,,,,,,,,,,,,,,,,,,,,
1656266153.302425,72.000000,0.000000,4238.974121,4254.871582,4085.641113,4080.512939,4193.333496,450.000000,4.000000,91.000000,,,,0.000000,4.000000,4.000000,4.000000,4.000000,4.000000,100.000000,,,,,,,,,,,,,,,,,,,,,,,,,,,,,,,,,,,,,,,,,,,,,,,,,,,,,,,,,,,,,,,
1656266153.310240,73.000000,0.000000,4248.205078,4254.358887,4094.871826,4092.820557,4201.538574,16183.000000,4.000000,91.000000,,,,0.000000,4.000000,4.000000,4.000000,4.000000,4.000000,100.000000,,,,,,,,,,,,,,,,,,,,,,,,,,,,,,,,,,,,,,,,,,,,,,,,,,,,,,,,,,,,,,,
1656266153.318154,74.000000,0.000000,4250.769043,4242.563965,4112.820313,4089.230713,4215.897461,450.000000,4.000000,91.000000,,,,0.000000,4.000000,4.000000,4.000000,4.000000,4.000000,100.000000,,,,,,,,,,,,,,,,,,,,,,,,,,,,,,,,,,,,,,,,,,,,,,,,,,,,,,,,,,,,,,,
1656266153.325969,75.000000,0.000000,4254.358887,4235.384766,4108.205078,4083.589844,4213.846191,16197.000000,4.000000,91.000000,,,,0.000000,4.000000,4.000000,4.000000,4.000000,4.000000,100.000000,1.000000,66.666664,4.000000,4.000000,0.000000,4.000000,4.000000,,,,,,,,,,,,,,,,,,,,,,,,,,,,,,,,6.772169,4.708227,0.869512,0.897262,0.881380,3.067029,2.320529,0.544740,0.496851,0.540357,5.863194,11.114030,2.802219,0.861871,0.320541,2.413912,4.718376,0.566227,0.722038,0.411659,6.665124,4.638390,0.777722,1.262901,1.176575
1656266153.333783,76.000000,0.000000,4268.205078,4233.846191,4097.436035,4090.256348,4210.769043,450.000000,4.000000,91.000000,,,,0.000000,4.000000,4.000000,4.000000,4.000000,4.000000,100.000000,,,,,,,,,,,,,,,,,,,,,,,,,,,,,,,,,,,,,,,,,,,,,,,,,,,,,,,,,,,,,,,
1656266153.341497,77.000000,0.000000,4266.153809,4236.922852,4103.077148,4101.538574,4222.051270,450.000000,4.000000,91.000000,,,,0.000000,4.000000,4.000000,4.000000,4.000000,4.000000,100.000000,,,,,,,,,,,,,,,,,,,,,,,,,,,,,,,,,,,,,,,,,,,,,,,,,,,,,,,,,,,,,,,
1656266153.349312,78.000000,0.000000,4258.461426,4242.051270,4096.922852,4098.974121,4221.025879,450.000000,4.000000,91.000000,,,,0.000000,4.000000,4.000000,4.000000,4.000000,4.000000,100.000000,,,,,,,,,,,,,,,,,,,,,,,,,,,,,,,,,,,,,,,,,,,,,,,,,,,,,,,,,,,,,,,
1656266153.357026,79.000000,0.000000,4262.563965,4239.487305,4071.794922,4081.538574,4206.153809,16197.000000,4.000000,91.000000,,,,0.000000,4.000000,4.000000,4.000000,4.000000,4.000000,100.000000,,,,,,,,,,,,,,,,,,,,,,,,,,,,,,,,,,,,,,,,,,,,,,,,,,,,,,,,,,,,,,,
1656266153.364941,80.000000,0.000000,4258.974121,4236.410156,4062.051270,4080.512939,4200.000000,450.000000,4.000000,91.000000,,,,0.000000,4.000000,4.000000,4.000000,4.000000,4.000000,100.000000,,,,,,,,,,,,,,,,,,,,,,,,,,,,,,,,,,,,,,,,,,,,,,,,,,,,,,,,,,,,,,,
1656266153.372755,81.000000,0.000000,4249.230957,4233.333496,4072.307617,4090.256348,4204.615234,450.000000,4.000000,91.000000,,,,0.000000,4.000000,4.000000,4.000000,4.000000,4.000000,100.000000,,,,,,,,,,,,,,,,,,,,,,,,,,,,,,,,,,,,,,,,,,,,,,,,,,,,,,,,,,,,,,,
1656266153.380669,82.000000,0.000000,4250.769043,4231.794922,4083.589844,4081.025635,4205.128418,450.000000,4.000000,91.000000,,,,0.000000,4.000000,4.000000,4.000000,4.000000,4.000000,100.000000,,,,,,,,,,,,,,,,,,,,,,,,,,,,,,,,,,,,,,,,,,,,,,,,,,,,,,,,,,,,,,,
1656266153.388484,83.000000,0.000000,4248.717773,4234.358887,4089.743652,4069.230713,4197.436035,16197.000000,4.000000,91.000000,,,,0.000000,4.000000,4.000000,4.000000,4.000000,4.000000,100.000000,,,,,,,,,,,,,,,,,,,,,,,,,,,,,,,,,,,,,,,,,,,,,,,,,,,,,,,,,,,,,,,
1656266153.396198,84.000000,0.000000,4251.794922,4238.974121,4089.230713,4078.974365,4203.077148,450.000000,4.000000,91.000000,,,,0.000000,4.000000,4.000000,4.000000,4.000000,4.000000,100.000000,,,,,,,,,,,,,,,,,,,,,,,,,,,,,,,,,,,,,,,,,,,,,,,,,,,,,,,,,,,,,,,
1656266153.404013,85.000000,0.000000,4267.179688,4245.641113,4091.794922,4087.179443,4214.871582,450.000000,4.000000,91.000000,,,,0.000000,4.000000,4.000000,4.000000,4.000000,4.000000,100.000000,,,,,,,,,,,,,,,,,,,,,,,,,,,,,,,,,,,,,,,,,,,,,,,,,,,,,,,,,,,,,,,
1656266153.411727,86.000000,0.000000,4266.153809,4249.230957,4100.512695,4080.000000,4211.794922,450.000000,4.000000,91.000000,,,,0.000000,4.000000,4.000000,4.000000,4.000000,4.000000,100.000000,,,,,,,,,,,,,,,,,,,,,,,,,,,,,,,,,,,,,,,,,,,,,,,,,,,,,,,,,,,,,,,
1656266153.419642,87.000000,0.000000,4258.461426,4247.692383,4108.205078,4084.615479,4206.153809,16197.000000,4.000000,91.000000,,,,0.000000,4.000000,4.000000,4.000000,4.000000,4.000000,100.000000,,,,,,,,,,,,,,,,,,,,,,,,,,,,,,,,,,,,,,,,,,,,,,,,,,,,,,,,,,,,,,,
1656266153.427456,88.000000,0.000000,4266.666504,4245.641113,4101.538574,4091.281982,4209.743652,450.000000,4.000000,91.000000,,,,0.000000,4.000000,4.000000,4.000000,4.000000,4.000000,100.000000,,,,,,,,,,,,,,,,,,,,,,,,,,,,,,,,,,,,,,,,,,,,,,,,,,,,,,,,,,,,,,,
1656266153.435370,89.000000,0.000000,4269.743652,4250.769043,4094.358887,4085.641113,4217.436035,450.000000,4.000000,91.000000,,,,0.000000,4.000000,4.000000,4.000000,4.000000,4.000000,100.000000,,,,,,,,,,,,,,,,,,,,,,,,,,,,,,,,,,,,,,,,,,,,,,,,,,,,,,,,,,,,,,,
1656266153.443185,90.000000,0.000000,4266.666504,4242.563965,4100.000000,4088.205078,4211.794922,450.000000,4.000000,91.000000,,,,0.000000,4.000000,4.000000,4.000000,4.000000,4.000000,100.000000,,,,,,,,,,,,,,,,,,,,,,,,,,,,,,,,,,,,,,,,,,,,,,,,,,,,,,,,,,,,,,,
1656266153.450999,91.000000,0.000000,4266.666504,4224.615234,4096.922852,4089.230713,4199.487305,16197.000000,4.000000,91.000000,,,,0.000000,4.000000,4.000000,4.000000,4.000000,4.000000,100.000000,,,,,,,,,,,,,,,,,,,,,,,,,,,,,,,,,,,,,,,6.733193,3.946230,1.061180,0.809546,0.868725,2.567401,1.998401,0.534178,0.478615,0.567519,5.597520,9.266279,2.676349,0.779057,0.363908,1.970835,4.212881,0.636697,0.657348,0.430411,5.785254,4.041545,0.995545,1.107413,1.139180
1656266153.458714,92.000000,0.000000,4264.615234,4229.230957,4080.512939,4073.846191,4206.153809,450.000000,4.000000,91.000000,,,,0.000000,4.000000,4.000000,4.000000,4.000000,4.000000,100.000000,,,,,,,,,,,,,,,,,,,,,,,,,,,,,,,,,,,,,,,,,,,,,,,,,,,,,,,,,,,,,,,
1656266153.466528,93.000000,0.000000,4265.641113,4240.000000,4066.153809,4073.333252,4218.974121,450.000000,4.000000,91.000000,,,,0.000000,4.000000,4.000000,4.000000,4.000000,4.000000,100.000000,,,,,,,,,,,,,,,,,,,,,,,,,,,,,,,,,,,,,,,,,,,,,,,,,,,,,,,,,,,,,,,
1656266153.474242,94.000000,0.000000,4264.102539,4228.205078,4057.435791,4085.128174,4210.256348,450.000000,4.000000,91.000000,,,,0.000000,4.000000,4.000000,4.000000,4.000000,4.000000,100.000000,,,,,,,,,,,,,,,,,,,,,,,,,,,,,,,,,,,,,,,,,,,,,,,,,,,,,,,,,,,,,,,
1656266153.482057,95.000000,0.000000,4256.922852,4218.974121,4063.589844,4072.820557,4200.512695,16197.000000,4.000000,91.000000,,,,0.000000,4.000000,4.000000,4.000000,4.000000,4.000000,100.000000,,,,,,,,,,,,,,,,,,,,,,,,,,,,,,,,,,,,,,,,,,,,,,,,,,,,,,,,,,,,,,,
1656266153.489771,96.000000,0.000000,4258.974121,4224.102539,4083.076904,4062.051270,4196.410156,450.000000,4.000000,91.000000,,,,0.000000,4.000000,4.000000,4.000000,4.000000,4.000000,100.000000,,,,,,,,,,,,,,,,,,,,,,,,,,,,,,,,,,,,,,,,,,,,,,,,,,,,,,,,,,,,,,,
1656266153.497586,97.000000,0.000000,4257.436035,4229.230957,4091.794922,4082.564209,4190.769043,450.000000,4.000000,91.000000,,,,0.000000,4.000000,4.000000,4.000000,4.000000,4.000000,100.000000,,,,,,,,,,,,,,,,,,,,,,,,,,,,,,,,,,,,,,,,,,,,,,,,,,,,,,,,,,,,,,,
1656266153.505300,98.000000,0.000000,4245.128418,4232.307617,4084.615479,4095.384521,4203.589844,450.000000,4.000000,91.000000,,,,0.000000,4.000000,4.000000,4.000000,4.000000,4.000000,100.000000,,,,,,,,,,,,,,,,,,,,,,,,,,,,,,,,,,,,,,,,,,,,,,,,,,,,,,,,,,,,,,,
1656266153.513215,99.000000,0.000000,4252.307617,4233.846191,4080.512939,4083.589844,4226.666504,16197.000000,4.000000,91.000000,,,,0.000000,4.000000,4.000000,4.000000,4.000000,4.000000,100.000000,,,,,,,,,,,,,,,,,,,,,,,,,,,,,,,,,,,,,,,,,,,,,,,,,,,,,,,,,,,,,,,
1656266153.521029,100.000000,0.000000,4276.922852,4240.000000,4092.307617,4086.666748,4231.794922,450.000000,4.000000,91.000000,,,,0.000000,4.000000,4.000000,4.000000,4.000000,4.000000,100.000000,,,,,,,,,,,,,,,,,,,,,,,,,,,,,,,,,,,,,,,,,,,,,,,,,,,,,,,,,,,,,,,
1656266153.528943,101.000000,0.000000,4283.589844,4241.538574,4097.436035,4100.000000,4228.205078,450.000000,4.000000,91.000000,,,,0.000000,4.000000,4.000000,4.000000,4.000000,4.000000,100.000000,,,,,,,,,,,,,,,,,,,,,,,,,,,,,,,,,,,,,,,,,,,,,,,,,,,,,,,,,,,,,,,
1656266153.536758,102.000000,0.000000,4277.436035,4235.384766,4087.692383,4101.025879,4233.333496,450.000000,4.000000,91.000000,,,,0.000000,4.000000,4.000000,4.000000,4.000000,4.000000,100.000000,,,,,,,,,,,,,,,,,,,,,,,,,,,,,,,,,,,,,,,,,,,,,,,,,,,,,,,,,,,,,,,
1656266153.544672,103.000000,0.000000,4284.102539,4235.897461,4088.718018,4100.000000,4241.538574,16197.000000,4.000000,91.000000,,,,0.000000,4.000000,4.000000,4.000000,4.000000,4.000000,100.000000,,,,,,,,,,,,,,,,,,,,,,,,,,,,,,,,,,,,,,,,,,,,,,,,,,,,,,,,,,,,,,,
1656266153.552486,104.000000,0.000000,4293.846191,4234.871582,4090.256348,4097.436035,4241.538574,450.000000,4.000000,91.000000,,,,0.000000,4.000000,4.000000,4.000000,4.000000,4.000000,100.000000,,,,,,,,,,,,,,,,,,,,,,,,,,,,,,,,,,,,,,,,,,,,,,,,,,,,,,,,,,,,,,,
1656266153.560301,105.000000,0.000000,4298.974121,4230.256348,4080.512939,4091.794922,4241.538574,450.000000,4.000000,91.000000,,,,0.000000,4.000000,4.000000,4.000000,4.000000,4.000000,100.000000,,,,,,,,,,,,,,,,,,,,,,,,,,,,,,,,,,,,,,,,,,,,,,,,,,,,,,,,,,,,,,,
1656266153.568015,106.000000,0.000000,4299.487305,4243.077148,4072.820557,4093.333252,4241.538574,450.000000,4.000000,91.000000,,,,0.000000,4.000000,4.000000,4.000000,4.000000,4.000000,100.000000,,,,,,,,,,,,,,,,,,,,,,,,,,,,,,,,,,,,,,,,,,,,,,,,,,,,,,,,,,,,,,,
1656266153.575930,107.000000,0.000000,4287.179688,4258.461426,4079.487061,4093.333252,4231.282227,16197.000000,4.000000,91.000000,,,,0.000000,4.000000,4.000000,4.000000,4.000000,4.000000,100.000000,,,,,,,,,,,,,,,,,,,,,,,,,,,,,,,,,,,,,,,6.255547,3.001098,1.274699,0.725350,0.788312,2.041193,1.608852,0.515766,0.477077,0.602264,5.102277,7.809249,2.410010,0.760373,0.410577,1.567434,3.577025,0.688935,0.575896,0.442223,4.901471,3.462974,1.216940,0.958271,1.058566
1656266153.583744,108.000000,0.000000,4271.794922,4251.282227,4090.769287,4089.230713,4221.025879,450.000000,4.000000,91.000000,,,,0.000000,4.000000,4.000000,4.000000,4.000000,4.000000,100.000000,,,,,,,,,,,,,,,,,,,,,,,,,,,,,,,,,,,,,,,,,,,,,,,,,,,,,,,,,,,,,,,
1656266153.591559,109.000000,0.000000,4271.794922,4245.641113,4092.307617,4095.897461,4227.692383,450.000000,4.000000,91.000000,,,,0.000000,4.000000,4.000000,4.000000,4.000000,4.000000,100.000000,,,,,,,,,,,,,,,,,,,,,,,,,,,,,,,,,,,,,,,,,,,,,,,,,,,,,,,,,,,,,,,
1656266153.599373,110.000000,0.000000,4289.230957,4260.512695,4100.000000,4111.282227,4247.692383,450.000000,4.000000,91.000000,,,,0.000000,4.000000,4.000000,4.000000,4.000000,4.000000,100.000000,,,,,,,,,,,,,,,,,,,,,,,,,,,,,,,,,,,,,,,,,,,,,,,,,,,,,,,,,,,,,,,
1656266153.607087,111.000000,0.000000,4294.358887,4261.538574,4110.769043,4109.743652,4255.384766,16197.000000,4.000000,91.000000,,,,0.000000,4.000000,4.000000,4.000000,4.000000,4.000000,100.000000,,,,,,,,,,,,,,,,,,,,,,,,,,,,,,,,,,,,,,,,,,,,,,,,,,,,,,,,,,,,,,,
1656266153.614902,112.000000,0.000000,4278.461426,4236.922852,4112.820313,4097.436035,4238.461426,450.000000,4.000000,91.000000,,,,0.000000,4.000000,4.000000,4.000000,4.000000,4.000000,100.000000,,,,,,,,,,,,,,,,,,,,,,,,,,,,,,,,,,,,,,,,,,,,,,,,,,,,,,,,,,,,,,,
1656266153.622616,113.000000,0.000000,4274.358887,4231.282227,4112.307617,4101.538574,4221.538574,450.000000,4.000000,91.000000,,,,0.000000,4.000000,4.000000,4.000000,4.000000,4.000000,100.000000,,,,,,,,,,,,,,,,,,,,,,,,,,,,,,,,,,,,,,,,,,,,,,,,,,,,,,,,,,,,,,,
1656266153.630431,114.000000,0.000000,4284.102539,4248.717773,4109.230957,4107.179688,4225.128418,450.000000,4.000000,91.000000,,,,0.000000,4.000000,4.000000,4.000000,4.000000,4.000000,100.000000,,,,,,,,,,,,,,,,,,,,,,,,,,,,,,,,,,,,,,,,,,,,,,,,,,,,,,,,,,,,,,,
1656266153.638145,115.000000,0.000000,4295.897461,4252.307617,4106.666504,4106.153809,4244.615234,16197.000000,4.000000,91.000000,,,,0.000000,4.000000,4.000000,4.000000,4.000000,4.000000,100.000000,,,,,,,,,,,,,,,,,,,,,,,,,,,,,,,,,,,,,,,,,,,,,,,,,,,,,,,,,,,,,,,
1656266153.645960,116.000000,0.000000,4300.000000,4245.128418,4109.743652,4109.230957,4251.282227,450.000000,4.000000,91.000000,,,,0.000000,4.000000,4.000000,4.000000,4.000000,4.000000,100.000000,,,,,,,,,,,,,,,,,,,,,,,,,,,,,,,,,,,,,,,,,,,,,,,,,,,,,,,,,,,,,,,
1656266153.653674,117.000000,0.000000,4291.794922,4246.153809,4115.384766,4108.717773,4240.000000,450.000000,4.000000,91.000000,,,,0.000000,4.000000,4.000000,4.000000,4.000000,4.000000,100.000000,,,,,,,,,,,,,,,,,,,,,,,,,,,,,,,,,,,,,,,,,,,,,,,,,,,,,,,,,,,,,,,
1656266153.661489,118.000000,0.000000,4296.410156,4260.000000,4117.436035,4106.666504,4238.461426,450.000000,4.000000,91.000000,,,,0.000000,4.000000,4.000000,4.000000,4.000000,4.000000,100.000000,,,,,,,,,,,,,,,,,,,,,,,,,,,,,,,,,,,,,,,,,,,,,,,,,,,,,,,,,,,,,,,
1656266153.669203,119.000000,0.000000,4302.563965,4267.179688,4112.307617,4103.077148,4236.410156,16197.000000,4.000000,91.000000,,,,0.000000,4.000000,4.000000,4.000000,4.000000,4.000000,100.000000,,,,,,,,,,,,,,,,,,,,,,,,,,,,,,,,,,,,,,,,,,,,,,,,,,,,,,,,,,,,,,,
1656266153.677017,120.000000,0.000000,4281.025879,4262.563965,4108.205078,4092.820557,4217.436035,450.000000,4.000000,91.000000,,,,0.000000,4.000000,4.000000,4.000000,4.000000,4.000000,100.000000,,,,,,,,,,,,,,,,,,,,,,,,,,,,,,,,,,,,,,,,,,,,,,,,,,,,,,,,,,,,,,,
1656266153.684732,121.000000,0.000000,4264.615234,4266.153809,4113.846191,4085.641113,4212.820313,450.000000,4.000000,91.000000,,,,0.000000,4.000000,4.000000,4.000000,4.000000,4.000000,100.000000,,,,,,,,,,,,,,,,,,,,,,,,,,,,,,,,,,,,,,,,,,,,,,,,,,,,,,,,,,,,,,,
1656266153.692546,122.000000,0.000000,4281.025879,4273.333496,4121.025879,4089.743652,4225.641113,450.000000,4.000000,91.000000,,,,0.000000,4.000000,4.000000,4.000000,4.000000,4.000000,100.000000,,,,,,,,,,,,,,,,,,,,,,,,,,,,,,,,,,,,,,,,,,,,,,,,,,,,,,,,,,,,,,,
1656266153.700261,123.000000,0.000000,4300.000000,4265.641113,4121.538574,4099.487305,4233.846191,16197.000000,4.000000,91.000000,,,,0.000000,4.000000,4.000000,4.000000,4.000000,4.000000,100.000000,,,,,,,,,,,,,,,,,,,,,,,,,,,,,,,,,,,,,,,5.480635,2.117429,1.485363,0.670124,0.661403,1.637837,1.244804,0.491176,0.483841,0.640323,4.466011,6.901059,2.068253,0.798393,0.454556,1.324975,3.014775,0.724915,0.495230,0.449507,4.154512,3.002306,1.391047,0.847554,0.962305
1656266153.708175,124.000000,0.000000,4295.384766,4251.794922,4118.461426,4104.102539,4230.256348,450.000000,4.000000,91.000000,,,,0.000000,4.000000,4.000000,4.000000,4.000000,4.000000,100.000000,,,,,,,,,,,,,,,,,,,,,,,,,,,,,,,,,,,,,,,,,,,,,,,,,,,,,,,,,,,,,,,
1656266153.715990,125.000000,0.000000,4289.230957,4251.794922,4117.436035,4104.615234,4229.230957,450.000000,4.000000,91.000000,,,,0.000000,4.000000,4.000000,4.000000,4.000000,4.000000,100.000000,,,,,,,,,,,,,,,,,,,,,,,,,,,,,,,,,,,,,,,,,,,,,,,,,,,,,,,,,,,,,,,
1656266153.723904,126.000000,0.000000,4293.333496,4261.538574,4115.384766,4108.717773,4237.948730,450.000000,4.000000,91.000000,,,,0.000000,4.000000,4.000000,4.000000,4.000000,4.000000,100.000000,,,,,,,,,,,,,,,,,,,,,,,,,,,,,,,,,,,,,,,,,,,,,,,,,,,,,,,,,,,,,,,
1656266153.731718,127.000000,0.000000,4284.615234,4257.948730,4105.641113,4104.615234,4238.461426,242.000000,4.000000,91.000000,,,,0.000000,4.000000,4.000000,4.000000,4.000000,4.000000,100.000000,,,,,,,,,,,,,,,,,,,,,,,,,,,,,,,,,,,,,,,,,,,,,,,,,,,,,,,,,,,,,,,
1656266153.739633,0.000000,0.000000,4276.922852,4243.589844,4094.871826,4094.358887,4233.333496,450.000000,4.000000,91.000000,,,,0.000000,4.000000,4.000000,4.000000,4.000000,4.000000,100.000000,,,,,,,,,,,,,,,,,,,,,,,,,,,,,,,,,,,,,,,,,,,,,,,,,,,,,,,,,,,,,,,
1656266153.747547,1.000000,0.000000,4282.051270,4245.128418,4085.641113,4089.743652,4233.846191,450.000000,4.000000,91.000000,,,,0.000000,4.000000,4.000000,4.000000,4.000000,4.000000,100.000000,,,,,,,,,,,,,,,,,,,,,,,,,,,,,,,,,,,,,,,,,,,,,,,,,,,,,,,,,,,,,,,
1656266153.755361,2.000000,0.000000,4278.974121,4251.794922,4082.564209,4084.102539,4234.358887,16211.000000,4.000000,91.000000,,,,0.000000,4.000000,4.000000,4.000000,4.000000,4.000000,100.000000,,,,,,,,,,,,,,,,,,,,,,,,,,,,,,,,,,,,,,,,,,,,,,,,,,,,,,,,,,,,,,,
1656266153.763276,3.000000,0.000000,4280.000000,4255.384766,4092.307617,4079.487061,4237.948730,450.000000,4.000000,91.000000,,,,0.000000,4.000000,4.000000,4.000000,4.000000,4.000000,100.000000,,,,,,,,,,,,,,,,,,,,,,,,,,,,,,,,,,,,,,,,,,,,,,,,,,,,,,,,,,,,,,,
1656266153.771090,4.000000,0.000000,4287.692383,4258.461426,4095.897461,4079.487061,4238.461426,16213.000000,4.000000,91.000000,,,,0.000000,4.000000,4.000000,4.000000,4.000000,4.000000,100.000000,,,,,,,,,,,,,,,,,,,,,,,,,,,,,,,,,,,,,,,,,,,,,,,,,,,,,,,,,,,,,,,
1656266153.779004,5.000000,0.000000,4280.000000,4251.794922,4093.846191,4087.179443,4226.666504,450.000000,4.000000,91.000000,,,,0.000000,4.000000,4.000000,4.000000,4.000000,4.000000,100.000000,,,,,,,,,,,,,,,,,,,,,,,,,,,,,,,,,,,,,,,,,,,,,,,,,,,,,,,,,,,,,,,
1656266153.786819,6.000000,0.000000,4275.384766,4244.102539,4094.871826,4097.436035,4223.077148,16178.000000,4.000000,91.000000,,,,0.000000,4.000000,4.000000,4.000000,4.000000,4.000000,100.000000,,,,,,,,,,,,,,,,,,,,,,,,,,,,,,,,,,,,,,,,,,,,,,,,,,,,,,,,,,,,,,,
1656266153.794733,7.000000,0.000000,4290.769043,4249.743652,4098.461426,4105.128418,4241.538574,450.000000,4.000000,91.000000,,,,0.000000,4.000000,4.000000,4.000000,4.000000,4.000000,100.000000,,,,,,,,,,,,,,,,,,,,,,,,,,,,,,,,,,,,,,,,,,,,,,,,,,,,,,,,,,,,,,,
1656266153.802548,8.000000,0.000000,4294.871582,4258.974121,4112.307617,4112.307617,4252.820313,450.000000,4.000000,91.000000,,,,0.000000,4.000000,4.000000,4.000000,4.000000,4.000000,100.000000,,,,,,,,,,,,,,,,,,,,,,,,,,,,,,,,,,,,,,,,,,,,,,,,,,,,,,,,,,,,,,,
1656266153.810462,9.000000,0.000000,4287.692383,4254.358887,4125.641113,4110.769043,4253.846191,16201.000000,4.000000,91.000000,,,,0.000000,4.000000,4.000000,4.000000,4.000000,4.000000,100.000000,,,,,,,,,,,,,,,,,,,,,,,,,,,,,,,,,,,,,,,,,,,,,,,,,,,,,,,,,,,,,,,
1656266153.818276,10.000000,0.000000,4296.922852,4249.230957,4124.615234,4106.666504,4256.410156,450.000000,4.000000,91.000000,,,,0.000000,4.000000,4.000000,4.000000,4.000000,4.000000,100.000000,,,,,,,,,,,,,,,,,,,,,,,,,,,,,,,,,,,,,,,,,,,,,,,,,,,,,,,,,,,,,,,
1656266153.826191,11.000000,0.000000,4301.538574,4254.871582,4114.358887,4106.666504,4248.717773,16193.000000,4.000000,91.000000,,,,0.000000,4.000000,4.000000,4.000000,4.000000,4.000000,100.000000,1.000000,100.000000,4.000000,4.000000,4.000000,4.000000,4.000000,,,,,,,,,,,,,,,,,,,,,,,,,,,,,,,,4.597464,1.530597,1.672476,0.646996,0.525699,1.428478,0.959385,0.460340,0.489754,0.675958,3.758644,6.602669,1.709828,0.862547,0.489415,1.250730,2.622545,0.747993,0.424942,0.455492,3.588936,2.720411,1.492843,0.785253,0.875480
1656266153.834005,12.000000,0.000000,4294.871582,4261.025879,4106.666504,4103.077148,4241.538574,450.000000,4.000000,91.000000,,,,0.000000,4.000000,4.000000,4.000000,4.000000,4.000000,100.000000,,,,,,,,,,,,,,,,,,,,,,,,,,,,,,,,,,,,,,,,,,,,,,,,,,,,,,,,,,,,,,,
1656266153.841919,13.000000,0.000000,4302.563965,4266.153809,4109.230957,4108.205078,4258.461426,450.000000,4.000000,91.000000,,,,0.000000,4.000000,4.000000,4.000000,4.000000,4.000000,100.000000,,,,,,,,,,,,,,,,,,,,,,,,,,,,,,,,,,,,,,,,,,,,,,,,,,,,,,,,,,,,,,,
1656266153.849734,14.000000,0.000000,4307.692383,4265.128418,4110.769043,4120.512695,4271.282227,450.000000,4.000000,91.000000,,,,0.000000,4.000000,4.000000,4.000000,4.000000,4.000000,100.000000,,,,,,,,,,,,,,,,,,,,,,,,,,,,,,,,,,,,,,,,,,,,,,,,,,,,,,,,,,,,,,,
1656266153.857648,15.000000,0.000000,4297.436035,4260.512695,4110.256348,4121.025879,4245.128418,16193.000000,4.000000,91.000000,,,,0.000000,4.000000,4.000000,4.000000,4.000000,4.000000,100.000000,,,,,,,,,,,,,,,,,,,,,,,,,,,,,,,,,,,,,,,,,,,,,,,,,,,,,,,,,,,,,,,
1656266153.865562,16.000000,0.000000,4299.487305,4266.153809,4112.307617,4116.922852,4235.384766,0.000000,4.000000,91.000000,,,,0.000000,4.000000,4.000000,4.000000,4.000000,4.000000,100.000000,,,,,,,,,,,,,,,,,,,,,,,,,,,,,,,,,,,,,,,,,,,,,,,,,,,,,,,,,,,,,,,
1656266153.873377,17.000000,0.000000,4306.153809,4275.384766,4110.256348,4114.358887,4261.025879,0.000000,4.000000,91.000000,,,,0.000000,4.000000,4.000000,4.000000,4.000000,4.000000,100.000000,,,,,,,,,,,,,,,,,,,,,,,,,,,,,,,,,,,,,,,,,,,,,,,,,,,,,,,,,,,,,,,
1656266153.881291,18.000000,0.000000,4296.410156,4272.307617,4109.743652,4107.179688,4264.102539,0.000000,4.000000,91.000000,,,,0.000000,4.000000,4.000000,4.000000,4.000000,4.000000,100.000000,,,,,,,,,,,,,,,,,,,,,,,,,,,,,,,,,,,,,,,,,,,,,,,,,,,,,,,,,,,,,,,
1656266153.889105,19.000000,0.000000,4289.743652,4271.282227,4109.743652,4102.563965,4242.051270,0.000000,4.000000,91.000000,,,,0.000000,4.000000,4.000000,4.000000,4.000000,4.000000,100.000000,,,,,,,,,,,,,,,,,,,,,,,,,,,,,,,,,,,,,,,,,,,,,,,,,,,,,,,,,,,,,,,
1656266153.897020,20.000000,0.000000,4289.230957,4279.487305,4105.128418,4107.692383,4234.871582,0.000000,4.000000,91.000000,,,,0.000000,4.000000,4.000000,4.000000,4.000000,4.000000,100.000000,,,,,,,,,,,,,,,,,,,,,,,,,,,,,,,,,,,,,,,,,,,,,,,,,,,,,,,,,,,,,,,
1656266153.904834,21.000000,0.000000,4287.179688,4276.410156,4101.538574,4106.666504,4240.512695,0.000000,4.000000,91.000000,,,,0.000000,4.000000,4.000000,4.000000,4.000000,4.000000,100.000000,,,,,,,,,,,,,,,,,,,,,,,,,,,,,,,,,,,,,,,,,,,,,,,,,,,,,,,,,,,,,,,
1656266153.912748,22.000000,0.000000,4286.666504,4268.717773,4104.102539,4095.384521,4241.025879,0.000000,4.000000,91.000000,,,,0.000000,4.000000,4.000000,4.000000,4.000000,4.000000,100.000000,,,,,,,,,,,,,,,,,,,,,,,,,,,,,,,,,,,,,,,,,,,,,,,,,,,,,,,,,,,,,,,
1656266153.920563,23.000000,0.000000,4290.769043,4273.333496,4108.205078,4093.333252,4242.563965,0.000000,4.000000,91.000000,,,,0.000000,4.000000,4.000000,4.000000,4.000000,4.000000,100.000000,,,,,,,,,,,,,,,,,,,,,,,,,,,,,,,,,,,,,,,,,,,,,,,,,,,,,,,,,,,,,,,
1656266153.928477,24.000000,0.000000,4298.974121,4280.000000,4115.897461,4102.563965,4247.179688,0.000000,4.000000,91.000000,,,,0.000000,4.000000,4.000000,4.000000,4.000000,4.000000,100.000000,,,,,,,,,,,,,,,,,,,,,,,,,,,,,,,,,,,,,,,,,,,,,,,,,,,,,,,,,,,,,,,
1656266153.936292,25.000000,0.000000,4299.487305,4282.563965,4126.666504,4112.307617,4261.538574,0.000000,4.000000,91.000000,,,,0.000000,4.000000,4.000000,4.000000,4.000000,4.000000,100.000000,,,,,,,,,,,,,,,,,,,,,,,,,,,,,,,,,,,,,,,,,,,,,,,,,,,,,,,,,,,,,,,
1656266153.944206,26.000000,0.000000,4296.410156,4287.179688,4132.820313,4117.436035,4276.922852,0.000000,4.000000,91.000000,,,,0.000000,4.000000,4.000000,4.000000,4.000000,4.000000,100.000000,,,,,,,,,,,,,,,,,,,,,,,,,,,,,,,,,,,,,,,,,,,,,,,,,,,,,,,,,,,,,,,
1656266153.952020,27.000000,0.000000,4307.179688,4290.256348,4135.384766,4117.948730,4270.769043,0.000000,4.000000,91.000000,,,,0.000000,4.000000,4.000000,4.000000,4.000000,4.000000,100.000000,,,,,,,,,,,,,,,,,,,,,,,,,,,,,,,,,,,,,,,3.762895,1.359040,1.803723,0.642496,0.419379,1.404557,0.768492,0.432058,0.488613,0.701601,3.054414,6.801463,1.400251,0.920335,0.509032,1.267555,2.380775,0.761163,0.369433,0.461603,3.155210,2.605544,1.513118,0.764793,0.809693
1656266153.959935,28.000000,0.000000,4313.333496,4287.692383,4133.333496,4108.717773,4249.743652,0.000000,4.000000,91.000000,,,,0.000000,4.000000,4.000000,4.000000,4.000000,4.000000,100.000000,,,,,,,,,,,,,,,,,,,,,,,,,,,,,,,,,,,,,,,,,,,,,,,,,,,,,,,,,,,,,,,
1656266153.967749,29.000000,0.000000,4301.025879,4286.666504,4126.666504,4096.922852,4240.512695,0.000000,4.000000,91.000000,,,,0.000000,4.000000,4.000000,4.000000,4.000000,4.000000,100.000000,,,,,,,,,,,,,,,,,,,,,,,,,,,,,,,,,,,,,,,,,,,,,,,,,,,,,,,,,,,,,,,
1656266153.975663,30.000000,0.000000,4292.307617,4280.512695,4121.025879,4100.000000,4254.871582,0.000000,4.000000,91.000000,,,,0.000000,4.000000,4.000000,4.000000,4.000000,4.000000,100.000000,,,,,,,,,,,,,,,,,,,,,,,,,,,,,,,,,,,,,,,,,,,,,,,,,,,,,,,,,,,,,,,
1656266153.983478,31.000000,0.000000,4299.487305,4276.410156,4123.077148,4105.641113,4271.282227,0.000000,4.000000,91.000000,,,,0.000000,4.000000,4.000000,4.000000,4.000000,4.000000,100.000000,,,,,,,,,,,,,,,,,,,,,,,,,,,,,,,,,,,,,,,,,,,,,,,,,,,,,,,,,,,,,,,
1656266153.991392,32.000000,0.000000,4296.922852,4281.538574,4117.948730,4098.461426,4263.077148,0.000000,4.000000,91.000000,,,,0.000000,4.000000,4.000000,4.000000,4.000000,4.000000,100.000000,,,,,,,,,,,,,,,,,,,,,,,,,,,,,,,,,,,,,,,,,,,,,,,,,,,,,,,,,,,,,,,
1656266153.999206,33.000000,0.000000,4294.871582,4276.410156,4104.102539,4094.358887,4245.128418,0.000000,4.000000,91.000000,,,,0.000000,4.000000,4.000000,4.000000,4.000000,4.000000,100.000000,,,,,,,,,,,,,,,,,,,,,,,,,,,,,,,,,,,,,,,,,,,,,,,,,,,,,,,,,,,,,,,
1656266154.007121,34.000000,0.000000,4308.205078,4272.307617,4105.641113,4110.256348,4248.717773,0.000000,4.000000,91.000000,,,,0.000000,4.000000,4.000000,4.000000,4.000000,4.000000,100.000000,,,,,,,,,,,,,,,,,,,,,,,,,,,,,,,,,,,,,,,,,,,,,,,,,,,,,,,,,,,,,,,
1656266154.014935,35.000000,0.000000,4309.230957,4284.615234,4118.461426,4118.461426,4256.922852,0.000000,4.000000,91.000000,,,,0.000000,4.000000,4.000000,4.000000,4.000000,4.000000,100.000000,,,,,,,,,,,,,,,,,,,,,,,,,,,,,,,,,,,,,,,,,,,,,,,,,,,,,,,,,,,,,,,
1656266154.022849,36.000000,0.000000,4304.615234,4287.692383,4126.666504,4114.871582,4261.538574,0.000000,4.000000,91.000000,,,,0.000000,4.000000,4.000000,4.000000,4.000000,4.000000,100.000000,,,,,,,,,,,,,,,,,,,,,,,,,,,,,,,,,,,,,,,,,,,,,,,,,,,,,,,,,,,,,,,
1656266154.030664,37.000000,0.000000,4305.641113,4273.333496,4119.487305,4119.487305,4269.230957,0.000000,4.000000,91.000000,,,,0.000000,4.000000,4.000000,4.000000,4.000000,4.000000,100.000000,,,,,,,,,,,,,,,,,,,,,,,,,,,,,,,,,,,,,,,,,,,,,,,,,,,,,,,,,,,,,,,
1656266154.038578,38.000000,0.000000,4300.512695,4270.256348,4110.769043,4116.410156,4256.410156,0.000000,4.000000,91.000000,,,,0.000000,4.000000,4.000000,4.000000,4.000000,4.000000,100.000000,,,,,,,,,,,,,,,,,,,,,,,,,,,,,,,,,,,,,,,,,,,,,,,,,,,,,,,,,,,,,,,
1656266154.046492,39.000000,0.000000,4298.974121,4284.615234,4118.461426,4100.512695,4231.282227,0.000000,4.000000,91.000000,,,,0.000000,4.000000,4.000000,4.000000,4.000000,4.000000,100.000000,,,,,,,,,,,,,,,,,,,,,,,,,,,,,,,,,,,,,,,,,,,,,,,,,,,,,,,,,,,,,,,
1656266154.054307,40.000000,0.000000,4294.871582,4289.230957,4116.922852,4096.922852,4225.128418,0.000000,4.000000,91.000000,,,,0.000000,4.000000,4.000000,4.000000,4.000000,4.000000,100.000000,,,,,,,,,,,,,,,,,,,,,,,,,,,,,,,,,,,,,,,,,,,,,,,,,,,,,,,,,,,,,,,
1656266154.062221,41.000000,0.000000,4281.025879,4276.922852,4102.051270,4111.282227,4239.487305,0.000000,4.000000,91.000000,,,,0.000000,4.000000,4.000000,4.000000,4.000000,4.000000,100.000000,,,,,,,,,,,,,,,,,,,,,,,,,,,,,,,,,,,,,,,,,,,,,,,,,,,,,,,,,,,,,,,
1656266154.070036,42.000000,0.000000,4290.769043,4266.153809,4098.974121,4120.512695,4257.436035,0.000000,4.000000,91.000000,,,,0.000000,4.000000,4.000000,4.000000,4.000000,4.000000,100.000000,,,,,,,,,,,,,,,,,,,,,,,,,,,,,,,,,,,,,,,,,,,,,,,,,,,,,,,,,,,,,,,
1656266154.077950,43.000000,0.000000,4320.000000,4283.077148,4115.897461,4121.538574,4267.179688,0.000000,4.000000,91.000000,,,,0.000000,4.000000,4.000000,4.000000,4.000000,4.000000,100.000000,,,,,,,,,,,,,,,,,,,,,,,,,,,,,,,,,,,,,,,3.068181,1.525782,1.841237,0.638531,0.364889,1.509033,0.671389,0.412685,0.477810,0.708613,2.499870,7.195426,1.185048,0.946480,0.508301,1.294065,2.212549,0.779311,0.326009,0.465084,2.775932,2.576708,1.448969,0.772254,0.763599
1656266154.085764,44.000000,0.000000,4316.410156,4307.692383,4135.384766,4129.230957,4259.487305,0.000000,4.000000,91.000000,,,,0.000000,4.000000,4.000000,4.000000,4.000000,4.000000,100.000000,,,,,,,,,,,,,,,,,,,,,,,,,,,,,,,,,,,,,,,,,,,,,,,,,,,,,,,,,,,,,,,
1656266154.093679,45.000000,0.000000,4287.179688,4293.846191,4131.794922,4127.179688,4251.794922,0.000000,4.000000,91.000000,,,,0.000000,4.000000,4.000000,4.000000,4.000000,4.000000,100.000000,,,,,,,,,,,,,,,,,,,,,,,,,,,,,,,,,,,,,,,,,,,,,,,,,,,,,,,,,,,,,,,
1656266154.101493,46.000000,0.000000,4283.589844,4277.436035,4117.436035,4117.948730,4263.589844,0.000000,4.000000,91.000000,,,,0.000000,4.000000,4.000000,4.000000,4.000000,4.000000,100.000000,,,,,,,,,,,,,,,,,,,,,,,,,,,,,,,,,,,,,,,,,,,,,,,,,,,,,,,,,,,,,,,
1656266154.109407,47.000000,0.000000,4299.487305,4293.333496,4116.922852,4115.897461,4266.666504,0.000000,4.000000,91.000000,,,,0.000000,4.000000,4.000000,4.000000,4.000000,4.000000,100.000000,,,,,,,,,,,,,,,,,,,,,,,,,,,,,,,,,,,,,,,,,,,,,,,,,,,,,,,,,,,,,,,
1656266154.117222,48.000000,0.000000,4307.692383,4296.410156,4127.179688,4116.922852,4251.794922,0.000000,4.000000,91.000000,,,,0.000000,4.000000,4.000000,4.000000,4.000000,4.000000,100.000000,,,,,,,,,,,,,,,,,,,,,,,,,,,,,,,,,,,,,,,,,,,,,,,,,,,,,,,,,,,,,,,
1656266154.125136,49.000000,0.000000,4307.179688,4280.000000,4130.769043,4121.025879,4251.794922,0.000000,4.000000,91.000000,,,,0.000000,4.000000,4.000000,4.000000,4.000000,4.000000,100.000000,,,,,,,,,,,,,,,,,,,,,,,,,,,,,,,,,,,,,,,,,,,,,,,,,,,,,,,,,,,,,,,
1656266154.132950,50.000000,0.000000,4300.000000,4279.487305,4131.794922,4126.666504,4258.974121,0.000000,4.000000,91.000000,,,,0.000000,4.000000,4.000000,4.000000,4.000000,4.000000,100.000000,,,,,,,,,,,,,,,,,,,,,,,,,,,,,,,,,,,,,,,,,,,,,,,,,,,,,,,,,,,,,,,
1656266154.140865,51.000000,0.000000,4293.333496,4286.666504,4135.897461,4129.230957,4249.230957,0.000000,4.000000,91.000000,,,,0.000000,4.000000,4.000000,4.000000,4.000000,4.000000,100.000000,,,,,,,,,,,,,,,,,,,,,,,,,,,,,,,,,,,,,,,,,,,,,,,,,,,,,,,,,,,,,,,
1656266154.148679,52.000000,0.000000,4286.666504,4276.922852,4118.461426,4117.436035,4236.922852,0.000000,4.000000,91.000000,,,,0.000000,4.000000,4.000000,4.000000,4.000000,4.000000,100.000000,,,,,,,,,,,,,,,,,,,,,,,,,,,,,,,,,,,,,,,,,,,,,,,,,,,,,,,,,,,,,,,
1656266154.156593,53.000000,0.000000,4286.666504,4267.692383,4090.256348,4102.563965,4243.589844,0.000000,4.000000,91.000000,,,,0.000000,4.000000,4.000000,4.000000,4.000000,4.000000,100.000000,,,,,,,,,,,,,,,,,,,,,,,,,,,,,,,,,,,,,,,,,,,,,,,,,,,,,,,,,,,,,,,
1656266154.164408,54.000000,0.000000,4298.461426,4273.846191,4083.076904,4105.128418,4258.461426,0.000000,4.000000,91.000000,,,,0.000000,4.000000,4.000000,4.000000,4.000000,4.000000,100.000000,,,,,,,,,,,,,,,,,,,,,,,,,,,,,,,,,,,,,,,,,,,,,,,,,,,,,,,,,,,,,,,
1656266154.172322,55.000000,0.000000,4297.948730,4267.692383,4080.000000,4102.051270,4251.794922,0.000000,4.000000,91.000000,,,,0.000000,4.000000,4.000000,4.000000,4.000000,4.000000,100.000000,,,,,,,,,,,,,,,,,,,,,,,,,,,,,,,,,,,,,,,,,,,,,,,,,,,,,,,,,,,,,,,
1656266154.180136,56.000000,0.000000,4290.769043,4257.436035,4085.128174,4094.358887,4234.871582,0.000000,4.000000,91.000000,,,,0.000000,4.000000,4.000000,4.000000,4.000000,4.000000,100.000000,,,,,,,,,,,,,,,,,,,,,,,,,,,,,,,,,,,,,,,,,,,,,,,,,,,,,,,,,,,,,,,
1656266154.188051,57.000000,0.000000,4293.333496,4268.205078,4106.153809,4101.025879,4234.358887,0.000000,4.000000,91.000000,,,,0.000000,4.000000,4.000000,4.000000,4.000000,4.000000,100.000000,,,,,,,,,,,,,,,,,,,,,,,,,,,,,,,,,,,,,,,,,,,,,,,,,,,,,,,,,,,,,,,
1656266154.195965,58.000000,0.000000,4292.307617,4273.333496,4120.000000,4102.563965,4246.153809,0.000000,4.000000,91.000000,,,,0.000000,4.000000,4.000000,4.000000,4.000000,4.000000,100.000000,,,,,,,,,,,,,,,,,,,,,,,,,,,,,,,,,,,,,,,,,,,,,,,,,,,,,,,,,,,,,,,
1656266154.203780,59.000000,0.000000,4289.743652,4265.128418,4131.282227,4097.436035,4252.820313,0.000000,4.000000,91.000000,,,,0.000000,4.000000,4.000000,4.000000,4.000000,4.000000,100.000000,,,,,,,,,,,,,,,,,,,,,,,,,,,,,,,,,,,,,,,2.565537,1.828607,1.772069,0.627373,0.362166,1.669018,0.655823,0.404756,0.456515,0.690225,2.216207,7.406569,1.038502,0.924782,0.485366,1.304901,2.055526,0.825090,0.292560,0.459886,2.450512,2.546800,1.315827,0.808694,0.730777
1656266154.211694,60.000000,0.000000,4292.820313,4263.589844,4139.487305,4097.436035,4244.102539,0.000000,4.000000,91.000000,,,,0.000000,4.000000,4.000000,4.000000,4.000000,4.000000,100.000000,,,,,,,,,,,,,,,,,,,,,,,,,,,,,,,,,,,,,,,,,,,,,,,,,,,,,,,,,,,,,,,
1656266154.219508,61.000000,0.000000,4290.256348,4270.256348,4137.948730,4096.922852,4237.948730,0.000000,4.000000,91.000000,,,,0.000000,4.000000,4.000000,4.000000,4.000000,4.000000,100.000000,,,,,,,,,,,,,,,,,,,,,,,,,,,,,,,,,,,,,,,,,,,,,,,,,,,,,,,,,,,,,,,
1656266154.227423,62.000000,0.000000,4290.256348,4271.282227,4135.897461,4102.563965,4248.205078,0.000000,4.000000,91.000000,,,,0.000000,4.000000,4.000000,4.000000,4.000000,4.000000,100.000000,,,,,,,,,,,,,,,,,,,,,,,,,,,,,,,,,,,,,,,,,,,,,,,,,,,,,,,,,,,,,,,
1656266154.235237,63.000000,0.000000,4303.077148,4260.000000,4132.307617,4111.794922,4253.333496,0.000000,4.000000,91.000000,,,,0.000000,4.000000,4.000000,4.000000,4.000000,4.000000,100.000000,,,,,,,,,,,,,,,,,,,,,,,,,,,,,,,,,,,,,,,,,,,,,,,,,,,,,,,,,,,,,,,
1656266154.243151,64.000000,0.000000,4309.230957,4256.410156,4127.692383,4112.307617,4249.230957,450.000000,4.000000,91.000000,,,,0.000000,4.000000,4.000000,4.000000,4.000000,4.000000,100.000000,,,,,,,,,,,,,,,,,,,,,,,,,,,,,,,,,,,,,,,,,,,,,,,,,,,,,,,,,,,,,,,
1656266154.250966,65.000000,0.000000,4298.974121,4259.487305,4120.000000,4105.128418,4247.179688,450.000000,4.000000,91.000000,,,,0.000000,4.000000,4.000000,4.000000,4.000000,4.000000,100.000000,,,,,,,,,,,,,,,,,,,,,,,,,,,,,,,,,,,,,,,,,,,,,,,,,,,,,,,,,,,,,,,
1656266154.258880,66.000000,0.000000,4303.077148,4263.589844,4109.743652,4104.102539,4252.820313,16206.000000,4.000000,91.000000,,,,0.000000,4.000000,4.000000,4.000000,4.000000,4.000000,100.000000,,,,,,,,,,,,,,,,,,,,,,,,,,,,,,,,,,,,,,,,,,,,,,,,,,,,,,,,,,,,,,,
1656266154.266694,67.000000,0.000000,4317.948730,4273.333496,4097.436035,4102.563965,4263.589844,450.000000,4.000000,91.000000,,,,0.000000,4.000000,4.000000,4.000000,4.000000,4.000000,100.000000,,,,,,,,,,,,,,,,,,,,,,,,,,,,,,,,,,,,,,,,,,,,,,,,,,,,,,,,,,,,,,,
1656266154.274609,68.000000,0.000000,4302.563965,4275.384766,4081.538574,4089.743652,4252.820313,16226.000000,4.000000,91.000000,,,,0.000000,4.000000,4.000000,4.000000,4.000000,4.000000,100.000000,,,,,,,,,,,,,,,,,,,,,,,,,,,,,,,,,,,,,,,,,,,,,,,,,,,,,,,,,,,,,,,
1656266154.282423,69.000000,0.000000,4277.948730,4267.179688,4086.666748,4083.589844,4225.641113,450.000000,4.000000,91.000000,,,,0.000000,4.000000,4.000000,4.000000,4.000000,4.000000,100.000000,,,,,,,,,,,,,,,,,,,,,,,,,,,,,,,,,,,,,,,,,,,,,,,,,,,,,,,,,,,,,,,
1656266154.290337,70.000000,0.000000,4281.025879,4262.563965,4108.205078,4091.281982,4222.051270,16152.000000,4.000000,91.000000,,,,0.000000,4.000000,4.000000,4.000000,4.000000,4.000000,100.000000,,,,,,,,,,,,,,,,,,,,,,,,,,,,,,,,,,,,,,,,,,,,,,,,,,,,,,,,,,,,,,,
1656266154.298152,71.000000,0.000000,4281.025879,4262.051270,4111.282227,4092.307617,4231.794922,450.000000,4.000000,91.000000,,,,0.000000,4.000000,4.000000,4.000000,4.000000,4.000000,100.000000,,,,,,,,,,,,,,,,,,,,,,,,,,,,,,,,,,,,,,,,,,,,,,,,,,,,,,,,,,,,,,,
1656266154.306066,72.000000,0.000000,4270.769043,4251.794922,4104.615234,4084.615479,4228.205078,450.000000,4.000000,91.000000,,,,0.000000,4.000000,4.000000,4.000000,4.000000,4.000000,100.000000,,,,,,,,,,,,,,,,,,,,,,,,,,,,,,,,,,,,,,,,,,,,,,,,,,,,,,,,,,,,,,,
1656266154.313880,73.000000,0.000000,4279.487305,4239.487305,4110.769043,4084.102539,4222.563965,16197.000000,4.000000,91.000000,,,,0.000000,4.000000,4.000000,4.000000,4.000000,4.000000,100.000000,,,,,,,,,,,,,,,,,,,,,,,,,,,,,,,,,,,,,,,,,,,,,,,,,,,,,,,,,,,,,,,
1656266154.321695,74.000000,0.000000,4286.666504,4243.589844,4121.538574,4091.281982,4224.102539,450.000000,4.000000,91.000000,,,,0.000000,4.000000,4.000000,4.000000,4.000000,4.000000,100.000000,,,,,,,,,,,,,,,,,,,,,,,,,,,,,,,,,,,,,,,,,,,,,,,,,,,,,,,,,,,,,,,
1656266154.329409,75.000000,0.000000,4280.512695,4261.538574,4130.256348,4094.871826,4227.179688,16170.000000,4.000000,91.000000,,,,0.000000,4.000000,4.000000,4.000000,4.000000,4.000000,100.000000,1.000000,100.000000,4.000000,4.000000,4.000000,4.000000,4.000000,,,,,,,,,,,,,,,,,,,,,,,,,,,,,,,,2.234662,2.061266,1.612994,0.616161,0.395006,1.815892,0.698020,0.408885,0.424858,0.647659,2.253932,7.170546,0.933849,0.862476,0.444405,1.314608,1.896069,0.921787,0.275328,0.440501,2.217118,2.464404,1.170016,0.888098,0.707056
1656266154.337324,76.000000,0.000000,4287.692383,4266.153809,4130.256348,4092.820557,4229.230957,450.000000,4.000000,91.000000,,,,0.000000,4.000000,4.000000,4.000000,4.000000,4.000000,100.000000,,,,,,,,,,,,,,,,,,,,,,,,,,,,,,,,,,,,,,,,,,,,,,,,,,,,,,,,,,,,,,,
1656266154.345138,77.000000,0.000000,4303.589844,4255.384766,4123.589844,4093.333252,4244.102539,450.000000,4.000000,91.000000,,,,0.000000,4.000000,4.000000,4.000000,4.000000,4.000000,100.000000,,,,,,,,,,,,,,,,,,,,,,,,,,,,,,,,,,,,,,,,,,,,,,,,,,,,,,,,,,,,,,,
1656266154.352953,78.000000,0.000000,4305.128418,4252.307617,4122.563965,4097.948730,4260.512695,450.000000,4.000000,91.000000,,,,0.000000,4.000000,4.000000,4.000000,4.000000,4.000000,100.000000,,,,,,,,,,,,,,,,,,,,,,,,,,,,,,,,,,,,,,,,,,,,,,,,,,,,,,,,,,,,,,,
1656266154.360867,79.000000,0.000000,4304.102539,4256.922852,4115.384766,4097.436035,4251.282227,16170.000000,4.000000,91.000000,,,,0.000000,4.000000,4.000000,4.000000,4.000000,4.000000,100.000000,,,,,,,,,,,,,,,,,,,,,,,,,,,,,,,,,,,,,,,,,,,,,,,,,,,,,,,,,,,,,,,
1656266154.368681,80.000000,0.000000,4303.077148,4250.256348,4094.358887,4092.820557,4233.846191,450.000000,4.000000,91.000000,,,,0.000000,4.000000,4.000000,4.000000,4.000000,4.000000,100.000000,,,,,,,,,,,,,,,,,,,,,,,,,,,,,,,,,,,,,,,,,,,,,,,,,,,,,,,,,,,,,,,
1656266154.376596,81.000000,0.000000,4289.743652,4242.563965,4076.410156,4087.179443,4231.282227,450.000000,4.000000,91.000000,,,,0.000000,4.000000,4.000000,4.000000,4.000000,4.000000,100.000000,,,,,,,,,,,,,,,,,,,,,,,,,,,,,,,,,,,,,,,,,,,,,,,,,,,,,,,,,,,,,,,
1656266154.384410,82.000000,0.000000,4285.641113,4256.922852,4081.538574,4090.256348,4238.461426,450.000000,4.000000,91.000000,,,,0.000000,4.000000,4.000000,4.000000,4.000000,4.000000,100.000000,,,,,,,,,,,,,,,,,,,,,,,,,,,,,,,,,,,,,,,,,,,,,,,,,,,,,,,,,,,,,,,
1656266154.392324,83.000000,0.000000,4293.333496,4273.846191,4095.897461,4102.051270,4237.948730,16170.000000,4.000000,91.000000,,,,0.000000,4.000000,4.000000,4.000000,4.000000,4.000000,100.000000,,,,,,,,,,,,,,,,,,,,,,,,,,,,,,,,,,,,,,,,,,,,,,,,,,,,,,,,,,,,,,,
1656266154.400139,84.000000,0.000000,4292.307617,4263.589844,4107.692383,4100.000000,4233.846191,450.000000,4.000000,91.000000,,,,0.000000,4.000000,4.000000,4.000000,4.000000,4.000000,100.000000,,,,,,,,,,,,,,,,,,,,,,,,,,,,,,,,,,,,,,,,,,,,,,,,,,,,,,,,,,,,,,,
1656266154.407953,85.000000,0.000000,4291.282227,4252.820313,4123.589844,4092.820557,4234.871582,450.000000,4.000000,91.000000,,,,0.000000,4.000000,4.000000,4.000000,4.000000,4.000000,100.000000,,,,,,,,,,,,,,,,,,,,,,,,,,,,,,,,,,,,,,,,,,,,,,,,,,,,,,,,,,,,,,,
1656266154.415867,86.000000,0.000000,4290.769043,4263.077148,4135.384766,4105.128418,4234.358887,450.000000,4.000000,91.000000,,,,0.000000,4.000000,4.000000,4.000000,4.000000,4.000000,100.000000,,,,,,,,,,,,,,,,,,,,,,,,,,,,,,,,,,,,,,,,,,,,,,,,,,,,,,,,,,,,,,,
1656266154.423682,87.000000,0.000000,4283.077148,4264.102539,4127.179688,4110.769043,4231.794922,16170.000000,4.000000,91.000000,,,,0.000000,4.000000,4.000000,4.000000,4.000000,4.000000,100.000000,,,,,,,,,,,,,,,,,,,,,,,,,,,,,,,,,,,,,,,,,,,,,,,,,,,,,,,,,,,,,,,
1656266154.431396,88.000000,0.000000,4275.897461,4246.153809,4101.025879,4088.205078,4230.256348,450.000000,4.000000,91.000000,,,,0.000000,4.000000,4.000000,4.000000,4.000000,4.000000,100.000000,,,,,,,,,,,,,,,,,,,,,,,,,,,,,,,,,,,,,,,,,,,,,,,,,,,,,,,,,,,,,,,
1656266154.439311,89.000000,0.000000,4266.666504,4235.384766,4086.153809,4073.846191,4223.077148,450.000000,4.000000,91.000000,,,,0.000000,4.000000,4.000000,4.000000,4.000000,4.000000,100.000000,,,,,,,,,,,,,,,,,,,,,,,,,,,,,,,,,,,,,,,,,,,,,,,,,,,,,,,,,,,,,,,
1656266154.447125,90.000000,0.000000,4258.461426,4238.461426,4091.794922,4079.487061,4214.871582,450.000000,4.000000,91.000000,,,,0.000000,4.000000,4.000000,4.000000,4.000000,4.000000,100.000000,,,,,,,,,,,,,,,,,,,,,,,,,,,,,,,,,,,,,,,,,,,,,,,,,,,,,,,,,,,,,,,
1656266154.455039,91.000000,0.000000,4266.666504,4250.769043,4095.384521,4081.025635,4218.974121,16170.000000,4.000000,91.000000,,,,0.000000,4.000000,4.000000,4.000000,4.000000,4.000000,100.000000,,,,,,,,,,,,,,,,,,,,,,,,,,,,,,,,,,,,,,,2.012298,2.103146,1.390597,0.617822,0.441667,1.911470,0.761226,0.422635,0.384605,0.594244,2.641099,6.537052,0.858119,0.790137,0.394636,1.369872,1.743491,1.071567,0.287254,0.403927,2.065164,2.307561,1.060277,1.006919,0.692724
1656266154.462954,92.000000,0.000000,4281.538574,4258.461426,4092.820557,4079.487061,4227.179688,450.000000,4.000000,91.000000,,,,0.000000,4.000000,4.000000,4.000000,4.000000,4.000000,100.000000,,,,,,,,,,,,,,,,,,,,,,,,,,,,,,,,,,,,,,,,,,,,,,,,,,,,,,,,,,,,,,,
1656266154.470768,93.000000,0.000000,4289.230957,4257.436035,4082.564209,4081.538574,4228.717773,450.000000,4.000000,91.000000,,,,0.000000,4.000000,4.000000,4.000000,4.000000,4.000000,100.000000,,,,,,,,,,,,,,,,,,,,,,,,,,,,,,,,,,,,,,,,,,,,,,,,,,,,,,,,,,,,,,,
1656266154.478682,94.000000,0.000000,4292.820313,4258.461426,4074.358887,4088.718018,4232.307617,450.000000,4.000000,91.000000,,,,0.000000,4.000000,4.000000,4.000000,4.000000,4.000000,100.000000,,,,,,,,,,,,,,,,,,,,,,,,,,,,,,,,,,,,,,,,,,,,,,,,,,,,,,,,,,,,,,,
1656266154.486497,95.000000,0.000000,4295.897461,4258.461426,4083.589844,4097.436035,4250.256348,16170.000000,4.000000,91.000000,,,,0.000000,4.000000,4.000000,4.000000,4.000000,4.000000,100.000000,,,,,,,,,,,,,,,,,,,,,,,,,,,,,,,,,,,,,,,,,,,,,,,,,,,,,,,,,,,,,,,
1656266154.494411,96.000000,0.000000,4294.358887,4253.846191,4097.436035,4097.948730,4258.974121,450.000000,4.000000,91.000000,,,,0.000000,4.000000,4.000000,4.000000,4.000000,4.000000,100.000000,,,,,,,,,,,,,,,,,,,,,,,,,,,,,,,,,,,,,,,,,,,,,,,,,,,,,,,,,,,,,,,
1656266154.502225,97.000000,0.000000,4296.922852,4252.820313,4110.256348,4096.922852,4247.179688,450.000000,4.000000,91.000000,,,,0.000000,4.000000,4.000000,4.000000,4.000000,4.000000,100.000000,,,,,,,,,,,,,,,,,,,,,,,,,,,,,,,,,,,,,,,,,,,,,,,,,,,,,,,,,,,,,,,
1656266154.510140,98.000000,0.000000,4298.461426,4255.384766,4123.077148,4095.897461,4245.128418,450.000000,4.000000,91.000000,,,,0.000000,4.000000,4.000000,4.000000,4.000000,4.000000,100.000000,,,,,,,,,,,,,,,,,,,,,,,,,,,,,,,,,,,,,,,,,,,,,,,,,,,,,,,,,,,,,,,
1656266154.518054,99.000000,0.000000,4280.000000,4254.358887,4122.563965,4090.256348,4248.205078,16170.000000,4.000000,91.000000,,,,0.000000,4.000000,4.000000,4.000000,4.000000,4.000000,100.000000,,,,,,,,,,,,,,,,,,,,,,,,,,,,,,,,,,,,,,,,,,,,,,,,,,,,,,,,,,,,,,,
1656266154.525868,100.000000,0.000000,4273.333496,4262.051270,4113.846191,4088.718018,4237.948730,450.000000,4.000000,91.000000,,,,0.000000,4.000000,4.000000,4.000000,4.000000,4.000000,100.000000,,,,,,,,,,,,,,,,,,,,,,,,,,,,,,,,,,,,,,,,,,,,,,,,,,,,,,,,,,,,,,,
1656266154.533683,101.000000,0.000000,4286.153809,4264.615234,4110.769043,4084.102539,4227.692383,450.000000,4.000000,91.000000,,,,0.000000,4.000000,4.000000,4.000000,4.000000,4.000000,100.000000,,,,,,,,,,,,,,,,,,,,,,,,,,,,,,,,,,,,,,,,,,,,,,,,,,,,,,,,,,,,,,,
1656266154.541597,102.000000,0.000000,4283.077148,4250.256348,4107.179688,4077.435791,4235.384766,450.000000,4.000000,91.000000,,,,0.000000,4.000000,4.000000,4.000000,4.000000,4.000000,100.000000,,,,,,,,,,,,,,,,,,,,,,,,,,,,,,,,,,,,,,,,,,,,,,,,,,,,,,,,,,,,,,,
1656266154.549412,103.000000,0.000000,4269.230957,4245.641113,4098.974121,4082.051270,4241.025879,16170.000000,4.000000,91.000000,,,,0.000000,4.000000,4.000000,4.000000,4.000000,4.000000,100.000000,,,,,,,,,,,,,,,,,,,,,,,,,,,,,,,,,,,,,,,,,,,,,,,,,,,,,,,,,,,,,,,
1656266154.557326,104.000000,0.000000,4268.717773,4251.794922,4092.820557,4087.179443,4225.128418,450.000000,4.000000,91.000000,,,,0.000000,4.000000,4.000000,4.000000,4.000000,4.000000,100.000000,,,,,,,,,,,,,,,,,,,,,,,,,,,,,,,,,,,,,,,,,,,,,,,,,,,,,,,,,,,,,,,
1656266154.565140,105.000000,0.000000,4278.461426,4250.256348,4089.743652,4082.051270,4222.563965,450.000000,4.000000,91.000000,,,,0.000000,4.000000,4.000000,4.000000,4.000000,4.000000,100.000000,,,,,,,,,,,,,,,,,,,,,,,,,,,,,,,,,,,,,,,,,,,,,,,,,,,,,,,,,,,,,,,
1656266154.573055,106.000000,0.000000,4285.641113,4243.589844,4088.718018,4074.871826,4242.051270,450.000000,4.000000,91.000000,,,,0.000000,4.000000,4.000000,4.000000,4.000000,4.000000,100.000000,,,,,,,,,,,,,,,,,,,,,,,,,,,,,,,,,,,,,,,,,,,,,,,,,,,,,,,,,,,,,,,
1656266154.580869,107.000000,0.000000,4294.358887,4246.153809,4092.820557,4076.923096,4251.282227,16170.000000,4.000000,91.000000,,,,0.000000,4.000000,4.000000,4.000000,4.000000,4.000000,100.000000,,,,,,,,,,,,,,,,,,,,,,,,,,,,,,,,,,,,,,,1.873653,1.935402,1.165430,0.637529,0.485348,1.942224,0.802745,0.451882,0.341532,0.548459,3.245173,5.873654,0.837013,0.740509,0.347973,1.509782,1.587387,1.257557,0.331139,0.353500,2.000353,2.079947,1.032453,1.140914,0.689908
1656266154.588783,108.000000,0.000000,4297.948730,4250.256348,4100.000000,4092.820557,4249.230957,450.000000,4.000000,91.000000,,,,0.000000,4.000000,4.000000,4.000000,4.000000,4.000000,100.000000,,,,,,,,,,,,,,,,,,,,,,,,,,,,,,,,,,,,,,,,,,,,,,,,,,,,,,,,,,,,,,,
1656266154.596598,109.000000,0.000000,4292.820313,4249.743652,4102.563965,4100.512695,4253.333496,450.000000,4.000000,91.000000,,,,0.000000,4.000000,4.000000,4.000000,4.000000,4.000000,100.000000,,,,,,,,,,,,,,,,,,,,,,,,,,,,,,,,,,,,,,,,,,,,,,,,,,,,,,,,,,,,,,,
1656266154.604512,110.000000,0.000000,4291.794922,4259.487305,4116.410156,4093.846191,4259.487305,450.000000,4.000000,91.000000,,,,0.000000,4.000000,4.000000,4.000000,4.000000,4.000000,100.000000,,,,,,,,,,,,,,,,,,,,,,,,,,,,,,,,,,,,,,,,,,,,,,,,,,,,,,,,,,,,,,,
1656266154.612426,111.000000,0.000000,4294.358887,4270.256348,4122.563965,4087.179443,4254.358887,16170.000000,4.000000,91.000000,,,,0.000000,4.000000,4.000000,4.000000,4.000000,4.000000,100.000000,,,,,,,,,,,,,,,,,,,,,,,,,,,,,,,,,,,,,,,,,,,,,,,,,,,,,,,,,,,,,,,
1656266154.620241,112.000000,0.000000,4286.153809,4265.128418,4103.077148,4084.615479,4240.512695,450.000000,4.000000,91.000000,,,,0.000000,4.000000,4.000000,4.000000,4.000000,4.000000,100.000000,,,,,,,,,,,,,,,,,,,,,,,,,,,,,,,,,,,,,,,,,,,,,,,,,,,,,,,,,,,,,,,
1656266154.628155,113.000000,0.000000,4278.974121,4263.077148,4093.846191,4090.769287,4238.461426,450.000000,4.000000,91.000000,,,,0.000000,4.000000,4.000000,4.000000,4.000000,4.000000,100.000000,,,,,,,,,,,,,,,,,,,,,,,,,,,,,,,,,,,,,,,,,,,,,,,,,,,,,,,,,,,,,,,
1656266154.635969,114.000000,0.000000,4280.000000,4263.077148,4101.538574,4100.000000,4247.692383,450.000000,4.000000,91.000000,,,,0.000000,4.000000,4.000000,4.000000,4.000000,4.000000,100.000000,,,,,,,,,,,,,,,,,,,,,,,,,,,,,,,,,,,,,,,,,,,,,,,,,,,,,,,,,,,,,,,
1656266154.643784,115.000000,0.000000,4275.897461,4256.410156,4094.358887,4093.333252,4243.589844,16170.000000,4.000000,91.000000,,,,0.000000,4.000000,4.000000,4.000000,4.000000,4.000000,100.000000,,,,,,,,,,,,,,,,,,,,,,,,,,,,,,,,,,,,,,,,,,,,,,,,,,,,,,,,,,,,,,,
1656266154.651698,116.000000,0.000000,4273.846191,4260.000000,4073.333252,4078.461426,4232.820313,450.000000,4.000000,91.000000,,,,0.000000,4.000000,4.000000,4.000000,4.000000,4.000000,100.000000,,,,,,,,,,,,,,,,,,,,,,,,,,,,,,,,,,,,,,,,,,,,,,,,,,,,,,,,,,,,,,,
1656266154.659612,117.000000,0.000000,4278.974121,4261.538574,4071.281982,4077.948730,4238.461426,450.000000,4.000000,91.000000,,,,0.000000,4.000000,4.000000,4.000000,4.000000,4.000000,100.000000,,,,,,,,,,,,,,,,,,,,,,,,,,,,,,,,,,,,,,,,,,,,,,,,,,,,,,,,,,,,,,,
1656266154.667427,118.000000,0.000000,4288.717773,4251.282227,4083.076904,4088.718018,4249.230957,450.000000,4.000000,91.000000,,,,0.000000,4.000000,4.000000,4.000000,4.000000,4.000000,100.000000,,,,,,,,,,,,,,,,,,,,,,,,,,,,,,,,,,,,,,,,,,,,,,,,,,,,,,,,,,,,,,,
1656266154.675341,119.000000,0.000000,4291.282227,4257.436035,4080.000000,4090.769287,4246.666504,16170.000000,4.000000,91.000000,,,,0.000000,4.000000,4.000000,4.000000,4.000000,4.000000,100.000000,,,,,,,,,,,,,,,,,,,,,,,,,,,,,,,,,,,,,,,,,,,,,,,,,,,,,,,,,,,,,,,
1656266154.683156,120.000000,0.000000,4282.051270,4271.282227,4072.820557,4089.230713,4246.153809,450.000000,4.000000,91.000000,,,,0.000000,4.000000,4.000000,4.000000,4.000000,4.000000,100.000000,,,,,,,,,,,,,,,,,,,,,,,,,,,,,,,,,,,,,,,,,,,,,,,,,,,,,,,,,,,,,,,
1656266154.691070,121.000000,0.000000,4281.025879,4264.102539,4080.512939,4097.436035,4250.769043,450.000000,4.000000,91.000000,,,,0.000000,4.000000,4.000000,4.000000,4.000000,4.000000,100.000000,,,,,,,,,,,,,,,,,,,,,,,,,,,,,,,,,,,,,,,,,,,,,,,,,,,,,,,,,,,,,,,
1656266154.698884,122.000000,0.000000,4292.307617,4256.410156,4095.897461,4104.615234,4245.128418,450.000000,4.000000,91.000000,,,,0.000000,4.000000,4.000000,4.000000,4.000000,4.000000,100.000000,,,,,,,,,,,,,,,,,,,,,,,,,,,,,,,,,,,,,,,,,,,,,,,,,,,,,,,,,,,,,,,
1656266154.706799,123.000000,0.000000,4293.333496,4267.692383,4116.922852,4105.128418,4245.128418,16170.000000,4.000000,91.000000,,,,0.000000,4.000000,4.000000,4.000000,4.000000,4.000000,100.000000,,,,,,,,,,,,,,,,,,,,,,,,,,,,,,,,,,,,,,,1.800623,1.643191,1.003371,0.667879,0.516795,1.915475,0.783620,0.516028,0.307028,0.524025,3.812552,5.629038,0.902600,0.747588,0.314186,1.729493,1.415199,1.432335,0.395654,0.298621,2.030974,1.825499,1.105788,1.250521,0.698120
1656266154.714613,124.000000,0.000000,4282.563965,4265.128418,4131.282227,4099.487305,4250.256348,450.000000,4.000000,91.000000,,,,0.000000,4.000000,4.000000,4.000000,4.000000,4.000000,100.000000,,,,,,,,,,,,,,,,,,,,,,,,,,,,,,,,,,,,,,,,,,,,,,,,,,,,,,,,,,,,,,,
1656266154.722527,125.000000,0.000000,4280.512695,4252.307617,4125.128418,4091.281982,4240.512695,450.000000,4.000000,91.000000,,,,0.000000,4.000000,4.000000,4.000000,4.000000,4.000000,100.000000,,,,,,,,,,,,,,,,,,,,,,,,,,,,,,,,,,,,,,,,,,,,,,,,,,,,,,,,,,,,,,,
1656266154.730342,126.000000,0.000000,4283.077148,4260.512695,4121.025879,4092.820557,4233.333496,450.000000,4.000000,91.000000,,,,0.000000,4.000000,4.000000,4.000000,4.000000,4.000000,100.000000,,,,,,,,,,,,,,,,,,,,,,,,,,,,,,,,,,,,,,,,,,,,,,,,,,,,,,,,,,,,,,,
1656266154.738256,127.000000,0.000000,4289.230957,4271.282227,4124.102539,4103.077148,4246.666504,242.000000,4.000000,91.000000,,,,0.000000,4.000000,4.000000,4.000000,4.000000,4.000000,100.000000,,,,,,,,,,,,,,,,,,,,,,,,,,,,,,,,,,,,,,,,,,,,,,,,,,,,,,,,,,,,,,,
1656266154.746070,0.000000,0.000000,4297.948730,4269.230957,4114.871582,4103.589844,4251.794922,450.000000,4.000000,91.000000,,,,0.000000,4.000000,4.000000,4.000000,4.000000,4.000000,100.000000,,,,,,,,,,,,,,,,,,,,,,,,,,,,,,,,,,,,,,,,,,,,,,,,,,,,,,,,,,,,,,,
1656266154.753985,1.000000,0.000000,4292.820313,4265.128418,4092.307617,4085.641113,4240.000000,450.000000,4.000000,91.000000,,,,0.000000,4.000000,4.000000,4.000000,4.000000,4.000000,100.000000,,,,,,,,,,,,,,,,,,,,,,,,,,,,,,,,,,,,,,,,,,,,,,,,,,,,,,,,,,,,,,,
1656266154.761799,2.000000,0.000000,4280.000000,4255.384766,4077.948730,4073.333252,4235.897461,16186.000000,4.000000,91.000000,,,,0.000000,4.000000,4.000000,4.000000,4.000000,4.000000,100.000000,,,,,,,,,,,,,,,,,,,,,,,,,,,,,,,,,,,,,,,,,,,,,,,,,,,,,,,,,,,,,,,
1656266154.769713,3.000000,0.000000,4281.025879,4244.615234,4079.487061,4078.974365,4243.077148,450.000000,4.000000,91.000000,,,,0.000000,4.000000,4.000000,4.000000,4.000000,4.000000,100.000000,,,,,,,,,,,,,,,,,,,,,,,,,,,,,,,,,,,,,,,,,,,,,,,,,,,,,,,,,,,,,,,
