title:david_g_Neutral, start timestamp:1656264893.009913, stop timestamp:1656264898.015901, headset type:INSIGHT, headset serial:A2D201AE, headset firmware:932, channels:84, sampling rate:eeg_128;pm_0.1;pow_8, samples:420       , version:2.1, 
Timestamp,EEG.Counter,EEG.Interpolated,EEG.AF3,EEG.T7,EEG.Pz,EEG.T8,EEG.AF4,EEG.RawCq,EEG.Battery,EEG.BatteryPercent,MarkerIndex,MarkerType,MarkerValueInt,EEG.MarkerHardware,CQ.AF3,CQ.T7,CQ.Pz,CQ.T8,CQ.AF4,CQ.Overall,EQ.SampleRateQuality,EQ.OVERALL,EQ.AF3,EQ.T7,EQ.Pz,EQ.T8,EQ.AF4,PM.Engagement.IsActive,PM.Engagement.Scaled,PM.Engagement.Raw,PM.Engagement.Min,PM.Engagement.Max,PM.Excitement.IsActive,PM.Excitement.Scaled,PM.Excitement.Raw,PM.Excitement.Min,PM.Excitement.Max,PM.LongTermExcitement,PM.Stress.IsActive,PM.Stress.Scaled,PM.Stress.Raw,PM.Stress.Min,PM.Stress.Max,PM.Relaxation.IsActive,PM.Relaxation.Scaled,PM.Relaxation.Raw,PM.Relaxation.Min,PM.Relaxation.Max,PM.Interest.IsActive,PM.Interest.Scaled,PM.Interest.Raw,PM.Interest.Min,PM.Interest.Max,PM.Focus.IsActive,PM.Focus.Scaled,PM.Focus.Raw,PM.Focus.Min,PM.Focus.Max,POW.AF3.Theta,POW.AF3.Alpha,POW.AF3.BetaL,POW.AF3.BetaH,POW.AF3.Gamma,POW.T7.Theta,POW.T7.Alpha,POW.T7.BetaL,POW.T7.BetaH,POW.T7.Gamma,POW.Pz.Theta,POW.Pz.Alpha,POW.Pz.BetaL,POW.Pz.BetaH,POW.Pz.Gamma,POW.T8.Theta,POW.T8.Alpha,POW.T8.BetaL,POW.T8.BetaH,POW.T8.Gamma,POW.AF4.Theta,POW.AF4.Alpha,POW.AF4.BetaL,POW.AF4.BetaH,POW.AF4.Gamma
1656264893.009913,28.000000,0.000000,4288.717773,4241.025879,4088.718018,4030.769287,4147.179688,0.000000,4.000000,86.000000,,,,0.000000,4.000000,4.000000,4.000000,4.000000,4.000000,100.000000,,,,,,,,,,,,,,,,,,,,,,,,,,,,,,,,,,,,,,,,,,,,,,,,,,,,,,,,,,,,,,,
1656264893.017628,29.000000,0.000000,4277.948730,4257.436035,4078.461426,4034.871826,4150.256348,0.000000,4.000000,86.000000,,,,0.000000,4.000000,4.000000,4.000000,4.000000,4.000000,100.000000,,,,,,,,,,,,,,,,,,,,,,,,,,,,,,,,,,,,,,,,,,,,,,,,,,,,,,,,,,,,,,,
1656264893.025442,30.000000,0.000000,4276.922852,4242.563965,4095.897461,4036.410156,4162.563965,0.000000,4.000000,86.000000,,,,0.000000,4.000000,4.000000,4.000000,4.000000,4.000000,100.000000,,,,,,,,,,,,,,,,,,,,,,,,,,,,,,,,,,,,,,,,,,,,,,,,,,,,,,,,,,,,,,,
1656264893.033157,31.000000,0.000000,4282.051270,4218.461426,4112.820313,4045.128174,4162.563965,0.000000,4.000000,86.000000,,,,0.000000,4.000000,4.000000,4.000000,4.000000,4.000000,100.000000,,,,,,,,,,,,,,,,,,,,,,,,,,,,,,,,,,,,,,,,,,,,,,,,,,,,,,,,,,,,,,,
1656264893.040871,32.000000,0.000000,4282.051270,4241.025879,4081.025635,4074.358887,4186.666504,0.000000,4.000000,86.000000,,,,0.000000,4.000000,4.000000,4.000000,4.000000,4.000000,100.000000,,,,,,,,,,,,,,,,,,,,,,,,,,,,,,,,,,,,,,,,,,,,,,,,,,,,,,,,,,,,,,,
1656264893.048686,33.000000,0.000000,4280.000000,4247.692383,4065.641113,4080.512939,4195.897461,0.000000,4.000000,86.000000,,,,0.000000,4.000000,4.000000,4.000000,4.000000,4.000000,100.000000,,,,,,,,,,,,,,,,,,,,,,,,,,,,,,,,,,,,,,,,,,,,,,,,,,,,,,,,,,,,,,,
1656264893.056400,34.000000,0.000000,4288.717773,4241.538574,4089.230713,4076.410156,4198.461426,0.000000,4.000000,86.000000,,,,0.000000,4.000000,4.000000,4.000000,4.000000,4.000000,100.000000,,,,,,,,,,,,,,,,,,,,,,,,,,,,,,,,,,,,,,,,,,,,,,,,,,,,,,,,,,,,,,,
1656264893.064215,35.000000,0.000000,4272.307617,4267.179688,4077.435791,4066.153809,4216.410156,0.000000,4.000000,86.000000,,,,0.000000,4.000000,4.000000,4.000000,4.000000,4.000000,100.000000,,,,,,,,,,,,,,,,,,,,,,,,,,,,,,,,,,,,,,,,,,,,,,,,,,,,,,,,,,,,,,,
1656264893.071929,36.000000,0.000000,4254.358887,4263.589844,4066.153809,4047.692383,4201.025879,0.000000,4.000000,86.000000,,,,0.000000,4.000000,4.000000,4.000000,4.000000,4.000000,100.000000,,,,,,,,,,,,,,,,,,,,,,,,,,,,,,,,,,,,,,,,,,,,,,,,,,,,,,,,,,,,,,,
1656264893.079744,37.000000,0.000000,4283.077148,4257.436035,4104.102539,4072.307617,4197.948730,0.000000,4.000000,86.000000,,,,0.000000,4.000000,4.000000,4.000000,4.000000,4.000000,100.000000,0.968750,0.000000,1.000000,0.000000,1.000000,0.000000,0.000000,,,,,,,,,,,,,,,,,,,,,,,,,,,,,,,,105.407532,8.655161,11.506106,10.909576,44.564835,5.549472,6.664392,5.502799,9.358844,47.612381,4.709270,5.797046,6.184543,9.805394,34.502140,9.793838,4.037744,6.023105,8.836742,47.766056,38.262337,4.979109,7.407394,11.978919,47.372173
1656264893.087458,38.000000,0.000000,4272.307617,4256.922852,4086.153809,4082.051270,4200.512695,0.000000,4.000000,86.000000,,,,0.000000,4.000000,4.000000,4.000000,4.000000,4.000000,100.000000,,,,,,,,,,,,,,,,,,,,,,,,,,,,,,,,,,,,,,,,,,,,,,,,,,,,,,,,,,,,,,,
1656264893.095273,39.000000,0.000000,4232.307617,4223.077148,4052.307617,4037.948730,4165.641113,0.000000,4.000000,86.000000,,,,0.000000,4.000000,4.000000,4.000000,4.000000,4.000000,100.000000,,,,,,,,,,,,,,,,,,,,,,,,,,,,,,,,,,,,,,,,,,,,,,,,,,,,,,,,,,,,,,,
1656264893.102987,40.000000,0.000000,4307.179688,4242.051270,4111.794922,4077.948730,4193.333496,0.000000,4.000000,86.000000,,,,0.000000,4.000000,4.000000,4.000000,4.000000,4.000000,100.000000,,,,,,,,,,,,,,,,,,,,,,,,,,,,,,,,,,,,,,,,,,,,,,,,,,,,,,,,,,,,,,,
1656264893.110802,41.000000,0.000000,4336.922852,4253.333496,4104.615234,4104.615234,4206.153809,0.000000,4.000000,86.000000,,,,0.000000,4.000000,4.000000,4.000000,4.000000,4.000000,100.000000,,,,,,,,,,,,,,,,,,,,,,,,,,,,,,,,,,,,,,,,,,,,,,,,,,,,,,,,,,,,,,,
1656264893.118516,42.000000,0.000000,4275.384766,4227.179688,4068.718018,4048.205078,4161.025879,0.000000,4.000000,86.000000,,,,0.000000,4.000000,4.000000,4.000000,4.000000,4.000000,100.000000,,,,,,,,,,,,,,,,,,,,,,,,,,,,,,,,,,,,,,,,,,,,,,,,,,,,,,,,,,,,,,,
1656264893.126330,43.000000,0.000000,4291.282227,4246.666504,4099.487305,4049.230713,4174.358887,0.000000,4.000000,86.000000,,,,0.000000,4.000000,4.000000,4.000000,4.000000,4.000000,100.000000,,,,,,,,,,,,,,,,,,,,,,,,,,,,,,,,,,,,,,,,,,,,,,,,,,,,,,,,,,,,,,,
1656264893.134045,44.000000,0.000000,4306.666504,4254.871582,4067.692383,4064.615479,4194.871582,0.000000,4.000000,86.000000,,,,0.000000,4.000000,4.000000,4.000000,4.000000,4.000000,100.000000,,,,,,,,,,,,,,,,,,,,,,,,,,,,,,,,,,,,,,,,,,,,,,,,,,,,,,,,,,,,,,,
1656264893.141859,45.000000,0.000000,4296.922852,4264.615234,4038.461426,4062.564209,4207.179688,0.000000,4.000000,86.000000,,,,0.000000,4.000000,4.000000,4.000000,4.000000,4.000000,100.000000,,,,,,,,,,,,,,,,,,,,,,,,,,,,,,,,,,,,,,,,,,,,,,,,,,,,,,,,,,,,,,,
1656264893.149574,46.000000,0.000000,4296.922852,4275.897461,4059.487061,4063.589844,4216.922852,0.000000,4.000000,86.000000,,,,0.000000,4.000000,4.000000,4.000000,4.000000,4.000000,100.000000,,,,,,,,,,,,,,,,,,,,,,,,,,,,,,,,,,,,,,,,,,,,,,,,,,,,,,,,,,,,,,,
1656264893.157388,47.000000,0.000000,4295.384766,4262.051270,4051.281982,4077.435791,4217.436035,0.000000,4.000000,86.000000,,,,0.000000,4.000000,4.000000,4.000000,4.000000,4.000000,100.000000,,,,,,,,,,,,,,,,,,,,,,,,,,,,,,,,,,,,,,,,,,,,,,,,,,,,,,,,,,,,,,,
1656264893.165103,48.000000,0.000000,4295.384766,4273.333496,4027.179443,4105.641113,4232.307617,0.000000,4.000000,86.000000,,,,0.000000,4.000000,4.000000,4.000000,4.000000,4.000000,100.000000,,,,,,,,,,,,,,,,,,,,,,,,,,,,,,,,,,,,,,,,,,,,,,,,,,,,,,,,,,,,,,,
1656264893.172817,49.000000,0.000000,4279.487305,4277.436035,4044.102539,4101.538574,4215.384766,0.000000,4.000000,86.000000,,,,0.000000,4.000000,4.000000,4.000000,4.000000,4.000000,100.000000,,,,,,,,,,,,,,,,,,,,,,,,,,,,,,,,,,,,,,,,,,,,,,,,,,,,,,,,,,,,,,,
1656264893.180632,50.000000,0.000000,4275.897461,4247.692383,4089.230713,4087.179443,4184.615234,0.000000,4.000000,86.000000,,,,0.000000,4.000000,4.000000,4.000000,4.000000,4.000000,100.000000,,,,,,,,,,,,,,,,,,,,,,,,,,,,,,,,,,,,,,,,,,,,,,,,,,,,,,,,,,,,,,,
1656264893.188346,51.000000,0.000000,4286.153809,4222.051270,4107.692383,4075.897461,4175.384766,0.000000,4.000000,86.000000,,,,0.000000,4.000000,4.000000,4.000000,4.000000,4.000000,100.000000,,,,,,,,,,,,,,,,,,,,,,,,,,,,,,,,,,,,,,,,,,,,,,,,,,,,,,,,,,,,,,,
1656264893.196161,52.000000,0.000000,4298.461426,4248.717773,4090.256348,4084.615479,4197.436035,0.000000,4.000000,86.000000,,,,0.000000,4.000000,4.000000,4.000000,4.000000,4.000000,100.000000,,,,,,,,,,,,,,,,,,,,,,,,,,,,,,,,,,,,,,,,,,,,,,,,,,,,,,,,,,,,,,,
1656264893.203875,53.000000,0.000000,4308.717773,4298.974121,4056.923096,4122.563965,4244.615234,0.000000,4.000000,86.000000,,,,0.000000,4.000000,4.000000,4.000000,4.000000,4.000000,100.000000,,,,,,,,,,,,,,,,,,,,,,,,,,,,,,,,,,,,,,,96.510719,9.230328,10.881165,9.876646,38.515442,5.342049,5.972905,4.965967,8.586703,41.610870,4.849055,7.073549,5.630937,8.826380,30.046801,10.013132,4.203312,5.565528,8.425106,41.747852,33.343884,4.837283,6.210027,11.174538,41.131275
1656264893.211690,54.000000,0.000000,4302.051270,4303.077148,4057.948730,4127.179688,4261.025879,0.000000,4.000000,86.000000,,,,0.000000,4.000000,4.000000,4.000000,4.000000,4.000000,100.000000,,,,,,,,,,,,,,,,,,,,,,,,,,,,,,,,,,,,,,,,,,,,,,,,,,,,,,,,,,,,,,,
1656264893.219404,55.000000,0.000000,4287.179688,4258.461426,4093.846191,4080.000000,4207.179688,0.000000,4.000000,86.000000,,,,0.000000,4.000000,4.000000,4.000000,4.000000,4.000000,100.000000,,,,,,,,,,,,,,,,,,,,,,,,,,,,,,,,,,,,,,,,,,,,,,,,,,,,,,,,,,,,,,,
1656264893.227119,56.000000,0.000000,4304.102539,4232.820313,4100.512695,4067.692383,4178.461426,0.000000,4.000000,86.000000,,,,0.000000,4.000000,4.000000,4.000000,4.000000,4.000000,100.000000,,,,,,,,,,,,,,,,,,,,,,,,,,,,,,,,,,,,,,,,,,,,,,,,,,,,,,,,,,,,,,,
1656264893.234933,57.000000,0.000000,4316.922852,4260.512695,4085.128174,4096.410156,4226.666504,0.000000,4.000000,86.000000,,,,0.000000,4.000000,4.000000,4.000000,4.000000,4.000000,100.000000,,,,,,,,,,,,,,,,,,,,,,,,,,,,,,,,,,,,,,,,,,,,,,,,,,,,,,,,,,,,,,,
1656264893.242747,58.000000,0.000000,4270.256348,4266.153809,4088.205078,4084.102539,4237.436035,0.000000,4.000000,86.000000,,,,0.000000,4.000000,4.000000,4.000000,4.000000,4.000000,100.000000,,,,,,,,,,,,,,,,,,,,,,,,,,,,,,,,,,,,,,,,,,,,,,,,,,,,,,,,,,,,,,,
1656264893.250462,59.000000,0.000000,4247.692383,4236.922852,4100.000000,4065.641113,4206.666504,0.000000,4.000000,86.000000,,,,0.000000,4.000000,4.000000,4.000000,4.000000,4.000000,100.000000,,,,,,,,,,,,,,,,,,,,,,,,,,,,,,,,,,,,,,,,,,,,,,,,,,,,,,,,,,,,,,,
1656264893.258176,60.000000,0.000000,4281.025879,4229.230957,4103.077148,4069.230713,4201.538574,0.000000,4.000000,86.000000,,,,0.000000,4.000000,4.000000,4.000000,4.000000,4.000000,100.000000,,,,,,,,,,,,,,,,,,,,,,,,,,,,,,,,,,,,,,,,,,,,,,,,,,,,,,,,,,,,,,,
1656264893.265991,61.000000,0.000000,4271.282227,4243.077148,4098.461426,4067.692383,4206.153809,0.000000,4.000000,86.000000,,,,0.000000,4.000000,4.000000,4.000000,4.000000,4.000000,100.000000,,,,,,,,,,,,,,,,,,,,,,,,,,,,,,,,,,,,,,,,,,,,,,,,,,,,,,,,,,,,,,,
1656264893.273805,62.000000,0.000000,4248.717773,4244.615234,4092.820557,4079.487061,4205.128418,0.000000,4.000000,86.000000,,,,0.000000,4.000000,4.000000,4.000000,4.000000,4.000000,100.000000,,,,,,,,,,,,,,,,,,,,,,,,,,,,,,,,,,,,,,,,,,,,,,,,,,,,,,,,,,,,,,,
1656264893.281520,63.000000,0.000000,4287.179688,4217.436035,4075.897461,4102.563965,4205.641113,0.000000,4.000000,86.000000,,,,0.000000,4.000000,4.000000,4.000000,4.000000,4.000000,100.000000,,,,,,,,,,,,,,,,,,,,,,,,,,,,,,,,,,,,,,,,,,,,,,,,,,,,,,,,,,,,,,,
1656264893.289334,64.000000,0.000000,4315.384766,4212.820313,4066.153809,4107.692383,4213.846191,450.000000,4.000000,86.000000,,,,0.000000,4.000000,4.000000,4.000000,4.000000,4.000000,100.000000,,,,,,,,,,,,,,,,,,,,,,,,,,,,,,,,,,,,,,,,,,,,,,,,,,,,,,,,,,,,,,,
1656264893.297049,65.000000,0.000000,4285.641113,4245.128418,4081.025635,4091.794922,4215.897461,450.000000,4.000000,86.000000,,,,0.000000,4.000000,4.000000,4.000000,4.000000,4.000000,100.000000,,,,,,,,,,,,,,,,,,,,,,,,,,,,,,,,,,,,,,,,,,,,,,,,,,,,,,,,,,,,,,,
1656264893.304963,66.000000,0.000000,4265.128418,4250.256348,4103.077148,4073.846191,4200.512695,16228.000000,4.000000,86.000000,,,,0.000000,4.000000,4.000000,4.000000,4.000000,4.000000,100.000000,,,,,,,,,,,,,,,,,,,,,,,,,,,,,,,,,,,,,,,,,,,,,,,,,,,,,,,,,,,,,,,
1656264893.312777,67.000000,0.000000,4282.051270,4242.051270,4116.410156,4079.487061,4202.051270,450.000000,4.000000,86.000000,,,,0.000000,4.000000,4.000000,4.000000,4.000000,4.000000,100.000000,,,,,,,,,,,,,,,,,,,,,,,,,,,,,,,,,,,,,,,,,,,,,,,,,,,,,,,,,,,,,,,
1656264893.320592,68.000000,0.000000,4286.666504,4257.436035,4095.384521,4103.077148,4228.205078,16209.000000,4.000000,86.000000,,,,0.000000,4.000000,4.000000,4.000000,4.000000,4.000000,100.000000,,,,,,,,,,,,,,,,,,,,,,,,,,,,,,,,,,,,,,,,,,,,,,,,,,,,,,,,,,,,,,,
1656264893.328406,69.000000,0.000000,4281.025879,4269.230957,4086.153809,4120.512695,4241.025879,450.000000,4.000000,86.000000,,,,0.000000,4.000000,4.000000,4.000000,4.000000,4.000000,100.000000,,,,,,,,,,,,,,,,,,,,,,,,,,,,,,,,,,,,,,,89.628906,10.400784,9.423594,7.878803,28.393244,5.176308,4.825684,4.179076,7.038716,31.211683,4.623004,8.174109,4.672805,7.055408,22.433243,10.089627,4.228408,4.646855,7.261440,31.275297,28.049610,4.871315,4.589843,9.256778,30.509983
1656264893.336121,70.000000,0.000000,4281.025879,4242.563965,4115.384766,4104.615234,4223.077148,16181.000000,4.000000,86.000000,,,,0.000000,4.000000,4.000000,4.000000,4.000000,4.000000,100.000000,,,,,,,,,,,,,,,,,,,,,,,,,,,,,,,,,,,,,,,,,,,,,,,,,,,,,,,,,,,,,,,
1656264893.343935,71.000000,0.000000,4265.128418,4221.025879,4125.128418,4064.615479,4200.000000,450.000000,4.000000,86.000000,,,,0.000000,4.000000,4.000000,4.000000,4.000000,4.000000,100.000000,,,,,,,,,,,,,,,,,,,,,,,,,,,,,,,,,,,,,,,,,,,,,,,,,,,,,,,,,,,,,,,
1656264893.351650,72.000000,0.000000,4273.846191,4241.538574,4110.256348,4074.358887,4218.974121,450.000000,4.000000,86.000000,,,,0.000000,4.000000,4.000000,4.000000,4.000000,4.000000,100.000000,,,,,,,,,,,,,,,,,,,,,,,,,,,,,,,,,,,,,,,,,,,,,,,,,,,,,,,,,,,,,,,
1656264893.359464,73.000000,0.000000,4305.128418,4238.461426,4110.769043,4108.717773,4241.538574,16218.000000,4.000000,86.000000,,,,0.000000,4.000000,4.000000,4.000000,4.000000,4.000000,100.000000,,,,,,,,,,,,,,,,,,,,,,,,,,,,,,,,,,,,,,,,,,,,,,,,,,,,,,,,,,,,,,,
1656264893.367178,74.000000,0.000000,4307.692383,4219.487305,4130.769043,4103.589844,4230.769043,450.000000,4.000000,86.000000,,,,0.000000,4.000000,4.000000,4.000000,4.000000,4.000000,100.000000,,,,,,,,,,,,,,,,,,,,,,,,,,,,,,,,,,,,,,,,,,,,,,,,,,,,,,,,,,,,,,,
1656264893.374993,75.000000,0.000000,4291.282227,4235.897461,4125.128418,4091.794922,4221.538574,16194.000000,4.000000,86.000000,,,,0.000000,4.000000,4.000000,4.000000,4.000000,4.000000,100.000000,,,,,,,,,,,,,,,,,,,,,,,,,,,,,,,,,,,,,,,,,,,,,,,,,,,,,,,,,,,,,,,
1656264893.382707,76.000000,0.000000,4289.230957,4232.307617,4096.410156,4094.871826,4222.051270,450.000000,4.000000,86.000000,,,,0.000000,4.000000,4.000000,4.000000,4.000000,4.000000,100.000000,,,,,,,,,,,,,,,,,,,,,,,,,,,,,,,,,,,,,,,,,,,,,,,,,,,,,,,,,,,,,,,
1656264893.390622,77.000000,0.000000,4298.974121,4217.948730,4096.922852,4105.641113,4223.589844,450.000000,4.000000,86.000000,,,,0.000000,4.000000,4.000000,4.000000,4.000000,4.000000,100.000000,,,,,,,,,,,,,,,,,,,,,,,,,,,,,,,,,,,,,,,,,,,,,,,,,,,,,,,,,,,,,,,
1656264893.398536,78.000000,1.000000,4297.948730,4221.709473,4099.088379,4105.413086,4224.957031,450.000000,4.000000,86.000000,,,,0.000000,4.000000,4.000000,4.000000,4.000000,4.000000,100.000000,,,,,,,,,,,,,,,,,,,,,,,,,,,,,,,,,,,,,,,,,,,,,,,,,,,,,,,,,,,,,,,
1656264893.406350,79.000000,1.000000,4296.922852,4225.470215,4101.253418,4105.185059,4226.324707,16206.000000,4.000000,86.000000,,,,0.000000,4.000000,4.000000,4.000000,4.000000,4.000000,100.000000,,,,,,,,,,,,,,,,,,,,,,,,,,,,,,,,,,,,,,,,,,,,,,,,,,,,,,,,,,,,,,,
1656264893.414165,80.000000,1.000000,4295.897461,4229.230957,4103.418945,4104.957031,4227.692383,450.000000,4.000000,86.000000,,,,0.000000,4.000000,4.000000,4.000000,4.000000,4.000000,100.000000,,,,,,,,,,,,,,,,,,,,,,,,,,,,,,,,,,,,,,,,,,,,,,,,,,,,,,,,,,,,,,,
1656264893.421979,81.000000,1.000000,4294.871582,4232.991211,4105.583984,4104.729492,4229.060059,450.000000,4.000000,86.000000,,,,0.000000,4.000000,4.000000,4.000000,4.000000,4.000000,100.000000,,,,,,,,,,,,,,,,,,,,,,,,,,,,,,,,,,,,,,,,,,,,,,,,,,,,,,,,,,,,,,,
1656264893.429794,82.000000,1.000000,4293.846191,4236.751953,4107.749512,4104.501465,4230.427246,450.000000,4.000000,86.000000,,,,0.000000,4.000000,4.000000,4.000000,4.000000,4.000000,100.000000,,,,,,,,,,,,,,,,,,,,,,,,,,,,,,,,,,,,,,,,,,,,,,,,,,,,,,,,,,,,,,,
1656264893.437608,83.000000,1.000000,4292.820313,4240.512695,4109.914551,4104.273438,4231.794922,450.000000,4.000000,86.000000,,,,0.000000,4.000000,4.000000,4.000000,4.000000,4.000000,100.000000,,,,,,,,,,,,,,,,,,,,,,,,,,,,,,,,,,,,,,,,,,,,,,,,,,,,,,,,,,,,,,,
1656264893.445422,84.000000,1.000000,4291.794922,4244.273438,4112.079590,4104.045410,4233.162598,450.000000,4.000000,86.000000,,,,0.000000,4.000000,4.000000,4.000000,4.000000,4.000000,100.000000,,,,,,,,,,,,,,,,,,,,,,,,,,,,,,,,,,,,,,,,,,,,,,,,,,,,,,,,,,,,,,,
1656264893.453237,85.000000,1.000000,4290.769043,4248.034180,4114.245117,4103.817871,4234.529785,450.000000,4.000000,86.000000,,,,0.000000,4.000000,4.000000,4.000000,4.000000,4.000000,100.000000,,,,,,,,,,,,,,,,,,,,,,,,,,,,,,,,,,,,,,,89.158676,11.962996,7.791718,5.600758,17.567377,5.081463,3.567474,3.447576,5.270187,19.898981,4.177163,8.868876,3.673797,5.037891,14.232114,10.260020,4.155894,3.601819,5.765406,19.806839,24.407169,5.151205,3.062857,6.887362,18.995920
1656264893.461051,86.000000,0.000000,4289.743652,4251.794922,4116.410156,4103.589844,4235.897461,450.000000,4.000000,86.000000,,,,0.000000,4.000000,4.000000,4.000000,4.000000,4.000000,100.000000,,,,,,,,,,,,,,,,,,,,,,,,,,,,,,,,,,,,,,,,,,,,,,,,,,,,,,,,,,,,,,,
1656264893.468766,87.000000,0.000000,4282.051270,4231.794922,4135.384766,4083.076904,4209.230957,16194.000000,4.000000,86.000000,,,,0.000000,4.000000,4.000000,4.000000,4.000000,4.000000,100.000000,,,,,,,,,,,,,,,,,,,,,,,,,,,,,,,,,,,,,,,,,,,,,,,,,,,,,,,,,,,,,,,
1656264893.476580,88.000000,0.000000,4290.256348,4233.333496,4114.871582,4095.384521,4222.051270,450.000000,4.000000,86.000000,,,,0.000000,4.000000,4.000000,4.000000,4.000000,4.000000,100.000000,,,,,,,,,,,,,,,,,,,,,,,,,,,,,,,,,,,,,,,,,,,,,,,,,,,,,,,,,,,,,,,
1656264895.203059,55.000000,0.000000,4437.436035,4263.589844,4058.974365,4184.102539,4345.128418,0.000000,4.000000,86.000000,,,,0.000000,4.000000,4.000000,4.000000,4.000000,4.000000,100.000000,,,,,,,,,,,,,,,,,,,,,,,,,,,,,,,,,,,,,,,,,,,,,,,,,,,,,,,,,,,,,,,
1656264895.210873,56.000000,0.000000,4409.230957,4218.974121,4072.820557,4137.948730,4320.000000,0.000000,4.000000,86.000000,,,,0.000000,4.000000,4.000000,4.000000,4.000000,4.000000,100.000000,,,,,,,,,,,,,,,,,,,,,,,,,,,,,,,,,,,,,,,,,,,,,,,,,,,,,,,,,,,,,,,
1656264895.218688,57.000000,0.000000,4426.153809,4249.230957,4094.358887,4153.333496,4325.128418,0.000000,4.000000,86.000000,,,,0.000000,4.000000,4.000000,4.000000,4.000000,4.000000,100.000000,,,,,,,,,,,,,,,,,,,,,,,,,,,,,,,,,,,,,,,,,,,,,,,,,,,,,,,,,,,,,,,
1656264895.226402,58.000000,0.000000,4424.102539,4227.692383,4081.025635,4165.641113,4288.205078,0.000000,4.000000,86.000000,,,,0.000000,4.000000,4.000000,4.000000,4.000000,4.000000,100.000000,,,,,,,,,,,,,,,,,,,,,,,,,,,,,,,,,,,,,,,,,,,,,,,,,,,,,,,,,,,,,,,
1656264895.234317,59.000000,0.000000,4422.051270,4220.512695,4093.333252,4194.871582,4287.692383,0.000000,4.000000,86.000000,,,,0.000000,4.000000,4.000000,4.000000,4.000000,4.000000,100.000000,,,,,,,,,,,,,,,,,,,,,,,,,,,,,,,,,,,,,,,,,,,,,,,,,,,,,,,,,,,,,,,
1656264895.242131,60.000000,0.000000,4390.256348,4228.717773,4083.076904,4204.102539,4289.230957,0.000000,4.000000,86.000000,,,,0.000000,4.000000,4.000000,4.000000,4.000000,4.000000,100.000000,,,,,,,,,,,,,,,,,,,,,,,,,,,,,,,,,,,,,,,,,,,,,,,,,,,,,,,,,,,,,,,
1656264895.249945,61.000000,0.000000,4364.102539,4217.948730,4070.769287,4196.922852,4281.025879,0.000000,4.000000,86.000000,,,,0.000000,4.000000,4.000000,4.000000,4.000000,4.000000,100.000000,,,,,,,,,,,,,,,,,,,,,,,,,,,,,,,,,,,,,,,,,,,,,,,,,,,,,,,,,,,,,,,
1656264895.257660,62.000000,0.000000,4355.384766,4207.179688,4071.794922,4193.333496,4274.871582,0.000000,4.000000,86.000000,,,,0.000000,4.000000,4.000000,4.000000,4.000000,4.000000,100.000000,,,,,,,,,,,,,,,,,,,,,,,,,,,,,,,,,,,,,,,,,,,,,,,,,,,,,,,,,,,,,,,
1656264895.265474,63.000000,0.000000,4344.615234,4207.179688,4080.000000,4195.384766,4251.794922,0.000000,4.000000,86.000000,,,,0.000000,4.000000,4.000000,4.000000,4.000000,4.000000,100.000000,,,,,,,,,,,,,,,,,,,,,,,,,,,,,,,,,,,,,,,,,,,,,,,,,,,,,,,,,,,,,,,
1656264895.273189,64.000000,0.000000,4336.922852,4200.512695,4096.922852,4214.871582,4236.922852,450.000000,4.000000,86.000000,,,,0.000000,4.000000,4.000000,4.000000,4.000000,4.000000,100.000000,,,,,,,,,,,,,,,,,,,,,,,,,,,,,,,,,,,,,,,,,,,,,,,,,,,,,,,,,,,,,,,
1656264895.281003,65.000000,0.000000,4309.743652,4213.333496,4108.205078,4222.051270,4244.615234,450.000000,4.000000,86.000000,,,,0.000000,4.000000,4.000000,4.000000,4.000000,4.000000,100.000000,,,,,,,,,,,,,,,,,,,,,,,,,,,,,,,,,,,,,,,,,,,,,,,,,,,,,,,,,,,,,,,
1656264895.288718,66.000000,0.000000,4263.077148,4250.256348,4099.487305,4202.563965,4246.153809,16175.000000,4.000000,86.000000,,,,0.000000,4.000000,4.000000,4.000000,4.000000,4.000000,100.000000,,,,,,,,,,,,,,,,,,,,,,,,,,,,,,,,,,,,,,,,,,,,,,,,,,,,,,,,,,,,,,,
1656264895.296532,67.000000,0.000000,4274.871582,4254.358887,4104.615234,4228.717773,4248.205078,450.000000,4.000000,86.000000,,,,0.000000,4.000000,4.000000,4.000000,4.000000,4.000000,100.000000,-1.000000,0.000000,0.000000,0.000000,0.000000,0.000000,0.000000,,,,,,,,,,,,,,,,,,,,,,,,,,,,,,,,93.558159,13.208290,6.459107,3.676375,9.022279,4.991457,2.530370,3.011002,3.822084,10.808337,3.689074,9.054653,2.978640,3.315068,7.733396,10.574117,3.988542,2.688273,4.406209,10.490159,22.773287,5.596034,1.993478,4.784006,9.741164
1656264895.304247,68.000000,0.000000,4292.820313,4218.974121,4125.128418,4246.666504,4235.384766,16174.000000,4.000000,86.000000,,,,0.000000,4.000000,4.000000,4.000000,4.000000,4.000000,100.000000,,,,,,,,,,,,,,,,,,,,,,,,,,,,,,,,,,,,,,,,,,,,,,,,,,,,,,,,,,,,,,,
1656264895.312061,69.000000,0.000000,4265.128418,4215.897461,4136.410156,4222.051270,4224.102539,450.000000,4.000000,86.000000,,,,0.000000,4.000000,4.000000,4.000000,4.000000,4.000000,100.000000,,,,,,,,,,,,,,,,,,,,,,,,,,,,,,,,,,,,,,,,,,,,,,,,,,,,,,,,,,,,,,,
1656264895.319776,70.000000,0.000000,4282.051270,4224.102539,4150.769043,4241.025879,4231.282227,16136.000000,4.000000,86.000000,,,,0.000000,4.000000,4.000000,4.000000,4.000000,4.000000,100.000000,,,,,,,,,,,,,,,,,,,,,,,,,,,,,,,,,,,,,,,,,,,,,,,,,,,,,,,,,,,,,,,
1656264895.327590,71.000000,0.000000,4307.692383,4192.820313,4140.000000,4279.487305,4222.051270,450.000000,4.000000,86.000000,,,,0.000000,4.000000,4.000000,4.000000,4.000000,4.000000,100.000000,,,,,,,,,,,,,,,,,,,,,,,,,,,,,,,,,,,,,,,,,,,,,,,,,,,,,,,,,,,,,,,
1656264895.335305,72.000000,0.000000,4276.410156,4193.333496,4129.743652,4277.436035,4212.820313,450.000000,4.000000,86.000000,,,,0.000000,4.000000,4.000000,4.000000,4.000000,4.000000,100.000000,,,,,,,,,,,,,,,,,,,,,,,,,,,,,,,,,,,,,,,,,,,,,,,,,,,,,,,,,,,,,,,
1656264895.343219,73.000000,0.000000,4256.410156,4224.615234,4174.871582,4256.922852,4199.487305,16159.000000,4.000000,86.000000,,,,0.000000,4.000000,4.000000,4.000000,4.000000,4.000000,100.000000,,,,,,,,,,,,,,,,,,,,,,,,,,,,,,,,,,,,,,,,,,,,,,,,,,,,,,,,,,,,,,,
1656264895.351033,74.000000,0.000000,4272.307617,4222.563965,4205.128418,4259.487305,4186.153809,450.000000,4.000000,86.000000,,,,0.000000,4.000000,4.000000,4.000000,4.000000,4.000000,100.000000,,,,,,,,,,,,,,,,,,,,,,,,,,,,,,,,,,,,,,,,,,,,,,,,,,,,,,,,,,,,,,,
1656264895.358948,75.000000,0.000000,4273.333496,4224.102539,4182.051270,4277.436035,4202.563965,16221.000000,4.000000,86.000000,,,,0.000000,4.000000,4.000000,4.000000,4.000000,4.000000,100.000000,,,,,,,,,,,,,,,,,,,,,,,,,,,,,,,,,,,,,,,,,,,,,,,,,,,,,,,,,,,,,,,
1656264895.366762,76.000000,0.000000,4253.846191,4227.179688,4161.538574,4276.922852,4211.282227,450.000000,4.000000,86.000000,,,,0.000000,4.000000,4.000000,4.000000,4.000000,4.000000,100.000000,,,,,,,,,,,,,,,,,,,,,,,,,,,,,,,,,,,,,,,,,,,,,,,,,,,,,,,,,,,,,,,
1656264895.374676,77.000000,0.000000,4242.051270,4203.077148,4147.179688,4252.307617,4195.897461,450.000000,4.000000,86.000000,,,,0.000000,4.000000,4.000000,4.000000,4.000000,4.000000,100.000000,,,,,,,,,,,,,,,,,,,,,,,,,,,,,,,,,,,,,,,,,,,,,,,,,,,,,,,,,,,,,,,
1656264895.382491,78.000000,0.000000,4264.615234,4216.410156,4155.897461,4258.974121,4217.948730,450.000000,4.000000,86.000000,,,,0.000000,4.000000,4.000000,4.000000,4.000000,4.000000,100.000000,,,,,,,,,,,,,,,,,,,,,,,,,,,,,,,,,,,,,,,,,,,,,,,,,,,,,,,,,,,,,,,
1656264895.390405,79.000000,0.000000,4274.358887,4221.538574,4166.153809,4269.230957,4226.153809,16221.000000,4.000000,86.000000,,,,0.000000,4.000000,4.000000,4.000000,4.000000,4.000000,100.000000,,,,,,,,,,,,,,,,,,,,,,,,,,,,,,,,,,,,,,,,,,,,,,,,,,,,,,,,,,,,,,,
1656264895.398219,80.000000,0.000000,4223.077148,4171.282227,4127.692383,4222.563965,4178.461426,450.000000,4.000000,86.000000,,,,0.000000,4.000000,4.000000,4.000000,4.000000,4.000000,100.000000,,,,,,,,,,,,,,,,,,,,,,,,,,,,,,,,,,,,,,,,,,,,,,,,,,,,,,,,,,,,,,,
1656264895.405934,81.000000,0.000000,4240.000000,4231.282227,4122.563965,4251.282227,4226.153809,450.000000,4.000000,86.000000,,,,0.000000,4.000000,4.000000,4.000000,4.000000,4.000000,100.000000,,,,,,,,,,,,,,,,,,,,,,,,,,,,,,,,,,,,,,,,,,,,,,,,,,,,,,,,,,,,,,,
1656264895.413748,82.000000,0.000000,4276.922852,4286.666504,4126.666504,4291.282227,4271.794922,450.000000,4.000000,86.000000,,,,0.000000,4.000000,4.000000,4.000000,4.000000,4.000000,100.000000,,,,,,,,,,,,,,,,,,,,,,,,,,,,,,,,,,,,,,,,,,,,,,,,,,,,,,,,,,,,,,,
1656264895.421463,83.000000,0.000000,4227.179688,4220.512695,4104.615234,4216.922852,4210.769043,16221.000000,4.000000,86.000000,,,,0.000000,4.000000,4.000000,4.000000,4.000000,4.000000,100.000000,,,,,,,,,,,,,,,,,,,,,,,,,,,,,,,,,,,,,,,96.892899,13.471630,5.626789,2.441222,4.131766,4.790529,1.918987,2.919811,2.972692,5.423330,3.351480,8.815101,2.709386,2.188112,4.000933,10.719837,3.760737,2.042163,3.490952,4.869609,22.096609,5.992503,1.498993,3.420686,4.263718
1656264895.429277,84.000000,0.000000,4230.769043,4229.230957,4131.282227,4190.769043,4208.717773,450.000000,4.000000,86.000000,,,,0.000000,4.000000,4.000000,4.000000,4.000000,4.000000,100.000000,,,,,,,,,,,,,,,,,,,,,,,,,,,,,,,,,,,,,,,,,,,,,,,,,,,,,,,,,,,,,,,
1656264895.436992,85.000000,0.000000,4266.153809,4252.820313,4140.000000,4207.692383,4227.179688,450.000000,4.000000,86.000000,,,,0.000000,4.000000,4.000000,4.000000,4.000000,4.000000,100.000000,,,,,,,,,,,,,,,,,,,,,,,,,,,,,,,,,,,,,,,,,,,,,,,,,,,,,,,,,,,,,,,
1656264895.444806,86.000000,0.000000,4259.487305,4230.769043,4109.743652,4194.358887,4221.538574,450.000000,4.000000,86.000000,,,,0.000000,4.000000,4.000000,4.000000,4.000000,4.000000,100.000000,,,,,,,,,,,,,,,,,,,,,,,,,,,,,,,,,,,,,,,,,,,,,,,,,,,,,,,,,,,,,,,
1656264895.452521,87.000000,0.000000,4242.563965,4256.922852,4109.743652,4189.230957,4225.128418,16221.000000,4.000000,86.000000,,,,0.000000,4.000000,4.000000,4.000000,4.000000,4.000000,100.000000,,,,,,,,,,,,,,,,,,,,,,,,,,,,,,,,,,,,,,,,,,,,,,,,,,,,,,,,,,,,,,,
1656264895.460335,88.000000,0.000000,4242.563965,4252.820313,4132.307617,4188.717773,4203.589844,450.000000,4.000000,86.000000,,,,0.000000,4.000000,4.000000,4.000000,4.000000,4.000000,100.000000,,,,,,,,,,,,,,,,,,,,,,,,,,,,,,,,,,,,,,,,,,,,,,,,,,,,,,,,,,,,,,,
1656264895.468050,89.000000,0.000000,4270.769043,4210.256348,4149.743652,4184.615234,4189.743652,450.000000,4.000000,86.000000,,,,0.000000,4.000000,4.000000,4.000000,4.000000,4.000000,100.000000,,,,,,,,,,,,,,,,,,,,,,,,,,,,,,,,,,,,,,,,,,,,,,,,,,,,,,,,,,,,,,,
1656264895.475864,90.000000,0.000000,4271.794922,4219.487305,4149.230957,4172.820313,4202.563965,450.000000,4.000000,86.000000,,,,0.000000,4.000000,4.000000,4.000000,4.000000,4.000000,100.000000,,,,,,,,,,,,,,,,,,,,,,,,,,,,,,,,,,,,,,,,,,,,,,,,,,,,,,,,,,,,,,,
1656264895.483578,91.000000,0.000000,4249.230957,4249.743652,4131.794922,4176.410156,4221.025879,16221.000000,4.000000,86.000000,,,,0.000000,4.000000,4.000000,4.000000,4.000000,4.000000,100.000000,,,,,,,,,,,,,,,,,,,,,,,,,,,,,,,,,,,,,,,,,,,,,,,,,,,,,,,,,,,,,,,
1656264895.491393,92.000000,0.000000,4246.666504,4237.436035,4126.666504,4183.077148,4223.077148,450.000000,4.000000,86.000000,,,,0.000000,4.000000,4.000000,4.000000,4.000000,4.000000,100.000000,,,,,,,,,,,,,,,,,,,,,,,,,,,,,,,,,,,,,,,,,,,,,,,,,,,,,,,,,,,,,,,
1656264895.499107,93.000000,0.000000,4253.846191,4217.436035,4142.563965,4182.051270,4210.256348,450.000000,4.000000,86.000000,,,,0.000000,4.000000,4.000000,4.000000,4.000000,4.000000,100.000000,,,,,,,,,,,,,,,,,,,,,,,,,,,,,,,,,,,,,,,,,,,,,,,,,,,,,,,,,,,,,,,
1656264895.506922,94.000000,0.000000,4244.102539,4224.615234,4140.000000,4180.512695,4204.615234,450.000000,4.000000,86.000000,,,,0.000000,4.000000,4.000000,4.000000,4.000000,4.000000,100.000000,,,,,,,,,,,,,,,,,,,,,,,,,,,,,,,,,,,,,,,,,,,,,,,,,,,,,,,,,,,,,,,
1656264895.514636,95.000000,0.000000,4233.846191,4240.512695,4127.179688,4173.846191,4217.948730,16221.000000,4.000000,86.000000,,,,0.000000,4.000000,4.000000,4.000000,4.000000,4.000000,100.000000,,,,,,,,,,,,,,,,,,,,,,,,,,,,,,,,,,,,,,,,,,,,,,,,,,,,,,,,,,,,,,,
1656264895.522551,96.000000,0.000000,4235.384766,4229.743652,4131.794922,4157.948730,4216.922852,450.000000,4.000000,86.000000,,,,0.000000,4.000000,4.000000,4.000000,4.000000,4.000000,100.000000,,,,,,,,,,,,,,,,,,,,,,,,,,,,,,,,,,,,,,,,,,,,,,,,,,,,,,,,,,,,,,,
1656264895.530365,97.000000,0.000000,4252.820313,4214.871582,4145.128418,4154.871582,4205.641113,450.000000,4.000000,86.000000,,,,0.000000,4.000000,4.000000,4.000000,4.000000,4.000000,100.000000,,,,,,,,,,,,,,,,,,,,,,,,,,,,,,,,,,,,,,,,,,,,,,,,,,,,,,,,,,,,,,,
1656264895.538279,98.000000,0.000000,4267.179688,4233.846191,4152.820313,4167.692383,4221.538574,450.000000,4.000000,86.000000,,,,0.000000,4.000000,4.000000,4.000000,4.000000,4.000000,100.000000,,,,,,,,,,,,,,,,,,,,,,,,,,,,,,,,,,,,,,,,,,,,,,,,,,,,,,,,,,,,,,,
1656264895.546094,99.000000,0.000000,4229.743652,4243.589844,4145.128418,4144.102539,4221.538574,16221.000000,4.000000,86.000000,,,,0.000000,4.000000,4.000000,4.000000,4.000000,4.000000,100.000000,,,,,,,,,,,,,,,,,,,,,,,,,,,,,,,,,,,,,,,94.659653,12.769668,5.308935,1.897718,2.414477,4.481238,1.743379,3.056342,2.672111,3.291066,3.419631,8.332413,2.723515,1.669156,2.661073,10.418778,3.560022,1.654991,3.069423,2.578756,21.285002,6.217880,1.505540,2.916644,2.150979
1656264895.554008,100.000000,0.000000,4214.871582,4242.051270,4146.666504,4130.769043,4221.025879,450.000000,4.000000,86.000000,,,,0.000000,4.000000,4.000000,4.000000,4.000000,4.000000,100.000000,,,,,,,,,,,,,,,,,,,,,,,,,,,,,,,,,,,,,,,,,,,,,,,,,,,,,,,,,,,,,,,
1656264895.561822,101.000000,0.000000,4245.641113,4232.820313,4147.179688,4145.128418,4220.512695,450.000000,4.000000,86.000000,,,,0.000000,4.000000,4.000000,4.000000,4.000000,4.000000,100.000000,,,,,,,,,,,,,,,,,,,,,,,,,,,,,,,,,,,,,,,,,,,,,,,,,,,,,,,,,,,,,,,
1656264895.569737,102.000000,0.000000,4263.589844,4214.871582,4155.384766,4147.179688,4203.077148,450.000000,4.000000,86.000000,,,,0.000000,4.000000,4.000000,4.000000,4.000000,4.000000,100.000000,,,,,,,,,,,,,,,,,,,,,,,,,,,,,,,,,,,,,,,,,,,,,,,,,,,,,,,,,,,,,,,
1656264895.577551,103.000000,0.000000,4278.974121,4232.307617,4148.717773,4161.538574,4226.666504,16221.000000,4.000000,86.000000,,,,0.000000,4.000000,4.000000,4.000000,4.000000,4.000000,100.000000,,,,,,,,,,,,,,,,,,,,,,,,,,,,,,,,,,,,,,,,,,,,,,,,,,,,,,,,,,,,,,,
1656264895.585465,104.000000,0.000000,4182.563965,4180.512695,4061.025635,4073.333252,4182.051270,450.000000,4.000000,86.000000,,,,0.000000,4.000000,4.000000,4.000000,4.000000,4.000000,100.000000,,,,,,,,,,,,,,,,,,,,,,,,,,,,,,,,,,,,,,,,,,,,,,,,,,,,,,,,,,,,,,,
1656264895.593280,105.000000,0.000000,4292.820313,4300.512695,4193.333496,4167.692383,4296.410156,450.000000,4.000000,86.000000,,,,0.000000,4.000000,4.000000,4.000000,4.000000,4.000000,100.000000,,,,,,,,,,,,,,,,,,,,,,,,,,,,,,,,,,,,,,,,,,,,,,,,,,,,,,,,,,,,,,,
1656264895.600994,106.000000,0.000000,4340.000000,4304.102539,4168.205078,4224.615234,4299.487305,450.000000,4.000000,86.000000,,,,0.000000,4.000000,4.000000,4.000000,4.000000,4.000000,100.000000,,,,,,,,,,,,,,,,,,,,,,,,,,,,,,,,,,,,,,,,,,,,,,,,,,,,,,,,,,,,,,,
1656264895.608909,107.000000,0.000000,4007.692383,3963.589844,3934.871826,3897.948730,3980.000000,16221.000000,4.000000,86.000000,,,,0.000000,4.000000,4.000000,4.000000,4.000000,4.000000,100.000000,,,,,,,,,,,,,,,,,,,,,,,,,,,,,,,,,,,,,,,,,,,,,,,,,,,,,,,,,,,,,,,
1656264895.616823,108.000000,0.000000,4301.025879,4263.077148,4280.512695,4160.512695,4276.410156,450.000000,4.000000,86.000000,,,,0.000000,4.000000,4.000000,4.000000,4.000000,4.000000,100.000000,,,,,,,,,,,,,,,,,,,,,,,,,,,,,,,,,,,,,,,,,,,,,,,,,,,,,,,,,,,,,,,
1656264895.624637,109.000000,0.000000,4410.769043,4378.974121,4262.563965,4288.205078,4369.743652,450.000000,4.000000,86.000000,,,,0.000000,4.000000,4.000000,4.000000,4.000000,4.000000,100.000000,,,,,,,,,,,,,,,,,,,,,,,,,,,,,,,,,,,,,,,,,,,,,,,,,,,,,,,,,,,,,,,
1656264895.632552,110.000000,0.000000,4113.333496,4103.589844,4040.000000,3986.153809,4096.410156,450.000000,4.000000,86.000000,,,,0.000000,4.000000,4.000000,4.000000,4.000000,4.000000,100.000000,,,,,,,,,,,,,,,,,,,,,,,,,,,,,,,,,,,,,,,,,,,,,,,,,,,,,,,,,,,,,,,
1656264895.640366,111.000000,0.000000,4326.666504,4309.743652,4257.948730,4171.794922,4303.589844,16221.000000,4.000000,86.000000,,,,0.000000,4.000000,4.000000,4.000000,4.000000,4.000000,100.000000,,,,,,,,,,,,,,,,,,,,,,,,,,,,,,,,,,,,,,,,,,,,,,,,,,,,,,,,,,,,,,,
1656264895.648280,112.000000,0.000000,4277.948730,4244.102539,4145.641113,4123.077148,4232.307617,450.000000,4.000000,86.000000,,,,0.000000,4.000000,4.000000,4.000000,4.000000,4.000000,100.000000,,,,,,,,,,,,,,,,,,,,,,,,,,,,,,,,,,,,,,,,,,,,,,,,,,,,,,,,,,,,,,,
1656264895.656095,113.000000,0.000000,4222.051270,4200.000000,4112.307617,4069.743652,4188.717773,450.000000,4.000000,86.000000,,,,0.000000,4.000000,4.000000,4.000000,4.000000,4.000000,100.000000,,,,,,,,,,,,,,,,,,,,,,,,,,,,,,,,,,,,,,,,,,,,,,,,,,,,,,,,,,,,,,,
1656264895.664009,114.000000,0.000000,4283.589844,4290.256348,4142.563965,4143.077148,4270.256348,450.000000,4.000000,86.000000,,,,0.000000,4.000000,4.000000,4.000000,4.000000,4.000000,100.000000,,,,,,,,,,,,,,,,,,,,,,,,,,,,,,,,,,,,,,,,,,,,,,,,,,,,,,,,,,,,,,,
1656264895.671824,115.000000,0.000000,4221.025879,4225.641113,4101.025879,4067.179443,4204.102539,16221.000000,4.000000,86.000000,,,,0.000000,4.000000,4.000000,4.000000,4.000000,4.000000,100.000000,,,,,,,,,,,,,,,,,,,,,,,,,,,,,,,,,,,,,,,84.615997,11.841883,5.283005,1.820814,2.333319,4.139848,1.872204,3.239208,2.644789,2.837837,4.140384,7.736115,2.770942,1.585973,2.514447,9.709003,3.516987,1.414158,2.980154,2.114757,19.575346,6.262212,1.769545,3.050311,1.844484
1656264895.679738,116.000000,0.000000,4289.743652,4269.743652,4164.615234,4135.384766,4261.025879,450.000000,4.000000,86.000000,,,,0.000000,4.000000,4.000000,4.000000,4.000000,4.000000,100.000000,,,,,,,,,,,,,,,,,,,,,,,,,,,,,,,,,,,,,,,,,,,,,,,,,,,,,,,,,,,,,,,
1656264895.687652,117.000000,0.000000,4234.358887,4216.922852,4102.563965,4093.333252,4216.922852,450.000000,4.000000,86.000000,,,,0.000000,4.000000,4.000000,4.000000,4.000000,4.000000,100.000000,,,,,,,,,,,,,,,,,,,,,,,,,,,,,,,,,,,,,,,,,,,,,,,,,,,,,,,,,,,,,,,
1656264895.695566,118.000000,0.000000,4241.538574,4240.000000,4143.077148,4085.641113,4227.179688,450.000000,4.000000,86.000000,,,,0.000000,4.000000,4.000000,4.000000,4.000000,4.000000,100.000000,,,,,,,,,,,,,,,,,,,,,,,,,,,,,,,,,,,,,,,,,,,,,,,,,,,,,,,,,,,,,,,
1656264895.703481,119.000000,0.000000,4251.282227,4253.846191,4179.487305,4084.102539,4227.179688,16221.000000,4.000000,86.000000,,,,0.000000,4.000000,4.000000,4.000000,4.000000,4.000000,100.000000,,,,,,,,,,,,,,,,,,,,,,,,,,,,,,,,,,,,,,,,,,,,,,,,,,,,,,,,,,,,,,,
1656264895.711295,120.000000,0.000000,4214.871582,4200.000000,4160.512695,4046.153809,4187.179688,450.000000,4.000000,86.000000,,,,0.000000,4.000000,4.000000,4.000000,4.000000,4.000000,100.000000,,,,,,,,,,,,,,,,,,,,,,,,,,,,,,,,,,,,,,,,,,,,,,,,,,,,,,,,,,,,,,,
1656264895.719209,121.000000,0.000000,4259.487305,4241.025879,4162.051270,4086.153809,4232.307617,450.000000,4.000000,86.000000,,,,0.000000,4.000000,4.000000,4.000000,4.000000,4.000000,100.000000,,,,,,,,,,,,,,,,,,,,,,,,,,,,,,,,,,,,,,,,,,,,,,,,,,,,,,,,,,,,,,,
1656264895.727024,122.000000,0.000000,4257.436035,4263.077148,4131.794922,4081.025635,4238.974121,450.000000,4.000000,86.000000,,,,0.000000,4.000000,4.000000,4.000000,4.000000,4.000000,100.000000,,,,,,,,,,,,,,,,,,,,,,,,,,,,,,,,,,,,,,,,,,,,,,,,,,,,,,,,,,,,,,,
1656264895.734938,123.000000,0.000000,4267.692383,4284.615234,4156.410156,4096.922852,4264.102539,16221.000000,4.000000,86.000000,,,,0.000000,4.000000,4.000000,4.000000,4.000000,4.000000,100.000000,,,,,,,,,,,,,,,,,,,,,,,,,,,,,,,,,,,,,,,,,,,,,,,,,,,,,,,,,,,,,,,
1656264895.742753,124.000000,0.000000,4267.179688,4269.230957,4152.820313,4096.922852,4257.948730,450.000000,4.000000,86.000000,,,,0.000000,4.000000,4.000000,4.000000,4.000000,4.000000,100.000000,,,,,,,,,,,,,,,,,,,,,,,,,,,,,,,,,,,,,,,,,,,,,,,,,,,,,,,,,,,,,,,
1656264895.750667,125.000000,0.000000,4266.666504,4242.051270,4132.307617,4081.538574,4231.794922,450.000000,4.000000,86.000000,,,,0.000000,4.000000,4.000000,4.000000,4.000000,4.000000,100.000000,,,,,,,,,,,,,,,,,,,,,,,,,,,,,,,,,,,,,,,,,,,,,,,,,,,,,,,,,,,,,,,
1656264895.758481,126.000000,0.000000,4294.871582,4268.717773,4147.692383,4112.820313,4267.692383,450.000000,4.000000,86.000000,,,,0.000000,4.000000,4.000000,4.000000,4.000000,4.000000,100.000000,,,,,,,,,,,,,,,,,,,,,,,,,,,,,,,,,,,,,,,,,,,,,,,,,,,,,,,,,,,,,,,
1656264895.766396,127.000000,0.000000,4264.615234,4270.769043,4124.102539,4096.410156,4272.820313,241.000000,4.000000,86.000000,,,,0.000000,4.000000,4.000000,4.000000,4.000000,4.000000,100.000000,,,,,,,,,,,,,,,,,,,,,,,,,,,,,,,,,,,,,,,,,,,,,,,,,,,,,,,,,,,,,,,
1656264895.774210,0.000000,0.000000,4267.179688,4251.794922,4130.256348,4074.358887,4246.666504,450.000000,4.000000,86.000000,,,,0.000000,4.000000,4.000000,4.000000,4.000000,4.000000,100.000000,,,,,,,,,,,,,,,,,,,,,,,,,,,,,,,,,,,,,,,,,,,,,,,,,,,,,,,,,,,,,,,
1656264895.782124,1.000000,0.000000,4306.666504,4223.077148,4153.333496,4088.718018,4233.846191,450.000000,4.000000,86.000000,,,,0.000000,4.000000,4.000000,4.000000,4.000000,4.000000,100.000000,,,,,,,,,,,,,,,,,,,,,,,,,,,,,,,,,,,,,,,,,,,,,,,,,,,,,,,,,,,,,,,
1656264895.789939,2.000000,0.000000,4294.871582,4226.666504,4139.487305,4086.153809,4246.666504,16206.000000,4.000000,86.000000,,,,0.000000,4.000000,4.000000,4.000000,4.000000,4.000000,100.000000,,,,,,,,,,,,,,,,,,,,,,,,,,,,,,,,,,,,,,,,,,,,,,,,,,,,,,,,,,,,,,,
1656264895.797853,3.000000,0.000000,4274.871582,4246.666504,4141.025879,4063.076904,4252.307617,450.000000,4.000000,86.000000,,,,0.000000,4.000000,4.000000,4.000000,4.000000,4.000000,100.000000,-1.000000,25.000000,1.000000,1.000000,1.000000,1.000000,1.000000,,,,,,,,,,,,,,,,,,,,,,,,,,,,,,,,69.158539,11.601156,5.280843,1.980981,2.693726,3.836906,2.186597,3.339001,2.633257,2.841064,5.741076,7.040352,2.712532,1.737387,2.637814,8.661486,3.656920,1.219022,3.003587,2.248007,17.302135,6.260843,2.037717,3.462678,2.077677
1656264895.805667,4.000000,0.000000,4271.794922,4223.077148,4145.128418,4046.153809,4232.820313,16182.000000,4.000000,86.000000,,,,0.000000,4.000000,4.000000,4.000000,4.000000,4.000000,100.000000,,,,,,,,,,,,,,,,,,,,,,,,,,,,,,,,,,,,,,,,,,,,,,,,,,,,,,,,,,,,,,,
1656264895.813582,5.000000,0.000000,4276.410156,4232.820313,4138.461426,4062.051270,4247.179688,450.000000,4.000000,86.000000,,,,0.000000,4.000000,4.000000,4.000000,4.000000,4.000000,100.000000,,,,,,,,,,,,,,,,,,,,,,,,,,,,,,,,,,,,,,,,,,,,,,,,,,,,,,,,,,,,,,,
1656264895.821396,6.000000,0.000000,4282.051270,4262.051270,4128.717773,4080.000000,4262.563965,16186.000000,4.000000,86.000000,,,,0.000000,4.000000,4.000000,4.000000,4.000000,4.000000,100.000000,,,,,,,,,,,,,,,,,,,,,,,,,,,,,,,,,,,,,,,,,,,,,,,,,,,,,,,,,,,,,,,
1656264895.829310,7.000000,0.000000,4275.384766,4246.153809,4121.538574,4069.230713,4240.000000,450.000000,4.000000,86.000000,,,,0.000000,4.000000,4.000000,4.000000,4.000000,4.000000,100.000000,,,,,,,,,,,,,,,,,,,,,,,,,,,,,,,,,,,,,,,,,,,,,,,,,,,,,,,,,,,,,,,
1656264895.837225,8.000000,0.000000,4277.436035,4238.974121,4117.436035,4079.487061,4238.461426,450.000000,4.000000,86.000000,,,,0.000000,4.000000,4.000000,4.000000,4.000000,4.000000,100.000000,,,,,,,,,,,,,,,,,,,,,,,,,,,,,,,,,,,,,,,,,,,,,,,,,,,,,,,,,,,,,,,
1656264895.845039,9.000000,0.000000,4280.512695,4252.307617,4111.282227,4092.820557,4246.153809,16211.000000,4.000000,86.000000,,,,0.000000,4.000000,4.000000,4.000000,4.000000,4.000000,100.000000,,,,,,,,,,,,,,,,,,,,,,,,,,,,,,,,,,,,,,,,,,,,,,,,,,,,,,,,,,,,,,,
1656264895.852953,10.000000,0.000000,4275.384766,4245.128418,4106.666504,4075.897461,4236.410156,450.000000,4.000000,86.000000,,,,0.000000,4.000000,4.000000,4.000000,4.000000,4.000000,100.000000,,,,,,,,,,,,,,,,,,,,,,,,,,,,,,,,,,,,,,,,,,,,,,,,,,,,,,,,,,,,,,,
1656264895.860768,11.000000,0.000000,4276.922852,4240.512695,4088.205078,4072.820557,4246.666504,16224.000000,4.000000,86.000000,,,,0.000000,4.000000,4.000000,4.000000,4.000000,4.000000,100.000000,,,,,,,,,,,,,,,,,,,,,,,,,,,,,,,,,,,,,,,,,,,,,,,,,,,,,,,,,,,,,,,
1656264895.868682,12.000000,0.000000,4283.589844,4241.025879,4076.410156,4087.179443,4263.077148,450.000000,4.000000,86.000000,,,,0.000000,4.000000,4.000000,4.000000,4.000000,4.000000,100.000000,,,,,,,,,,,,,,,,,,,,,,,,,,,,,,,,,,,,,,,,,,,,,,,,,,,,,,,,,,,,,,,
1656264895.876497,13.000000,0.000000,4287.179688,4251.794922,4091.281982,4091.794922,4263.589844,450.000000,4.000000,86.000000,,,,0.000000,4.000000,4.000000,4.000000,4.000000,4.000000,100.000000,,,,,,,,,,,,,,,,,,,,,,,,,,,,,,,,,,,,,,,,,,,,,,,,,,,,,,,,,,,,,,,
1656264895.884411,14.000000,0.000000,4265.641113,4266.666504,4093.846191,4069.743652,4249.743652,450.000000,4.000000,86.000000,,,,0.000000,4.000000,4.000000,4.000000,4.000000,4.000000,100.000000,,,,,,,,,,,,,,,,,,,,,,,,,,,,,,,,,,,,,,,,,,,,,,,,,,,,,,,,,,,,,,,
1656264895.892225,15.000000,0.000000,4248.717773,4256.410156,4093.846191,4050.769287,4239.487305,16224.000000,4.000000,86.000000,,,,0.000000,4.000000,4.000000,4.000000,4.000000,4.000000,100.000000,,,,,,,,,,,,,,,,,,,,,,,,,,,,,,,,,,,,,,,,,,,,,,,,,,,,,,,,,,,,,,,
1656264895.900140,16.000000,0.000000,4263.589844,4234.358887,4104.615234,4057.435791,4230.769043,0.000000,4.000000,86.000000,,,,0.000000,4.000000,4.000000,4.000000,4.000000,4.000000,100.000000,,,,,,,,,,,,,,,,,,,,,,,,,,,,,,,,,,,,,,,,,,,,,,,,,,,,,,,,,,,,,,,
1656264895.907954,17.000000,0.000000,4273.846191,4226.666504,4102.563965,4064.102539,4213.846191,0.000000,4.000000,86.000000,,,,0.000000,4.000000,4.000000,4.000000,4.000000,4.000000,100.000000,,,,,,,,,,,,,,,,,,,,,,,,,,,,,,,,,,,,,,,,,,,,,,,,,,,,,,,,,,,,,,,
1656264895.915868,18.000000,0.000000,4278.974121,4249.230957,4103.077148,4084.615479,4232.307617,0.000000,4.000000,86.000000,,,,0.000000,4.000000,4.000000,4.000000,4.000000,4.000000,100.000000,,,,,,,,,,,,,,,,,,,,,,,,,,,,,,,,,,,,,,,,,,,,,,,,,,,,,,,,,,,,,,,
1656264895.923683,19.000000,0.000000,4269.743652,4259.487305,4106.153809,4094.871826,4253.846191,0.000000,4.000000,86.000000,,,,0.000000,4.000000,4.000000,4.000000,4.000000,4.000000,100.000000,,,,,,,,,,,,,,,,,,,,,,,,,,,,,,,,,,,,,,,53.428318,12.224862,5.174164,2.268081,3.535956,3.640530,2.575757,3.334731,2.620677,3.392956,8.088807,6.259335,2.624904,2.015805,3.103027,7.645627,3.883068,1.048506,3.037665,2.946600,15.270475,6.243722,2.187575,3.931477,2.822526
1656264895.931497,20.000000,0.000000,4266.153809,4250.769043,4115.384766,4087.179443,4252.307617,0.000000,4.000000,86.000000,,,,0.000000,4.000000,4.000000,4.000000,4.000000,4.000000,100.000000,,,,,,,,,,,,,,,,,,,,,,,,,,,,,,,,,,,,,,,,,,,,,,,,,,,,,,,,,,,,,,,
1656264895.939411,21.000000,0.000000,4272.307617,4251.282227,4122.563965,4076.923096,4247.692383,0.000000,4.000000,86.000000,,,,0.000000,4.000000,4.000000,4.000000,4.000000,4.000000,100.000000,,,,,,,,,,,,,,,,,,,,,,,,,,,,,,,,,,,,,,,,,,,,,,,,,,,,,,,,,,,,,,,
1656264895.947326,22.000000,0.000000,4243.077148,4241.538574,4102.051270,4052.820557,4228.717773,0.000000,4.000000,86.000000,,,,0.000000,4.000000,4.000000,4.000000,4.000000,4.000000,100.000000,,,,,,,,,,,,,,,,,,,,,,,,,,,,,,,,,,,,,,,,,,,,,,,,,,,,,,,,,,,,,,,
1656264895.955140,23.000000,0.000000,4220.512695,4233.846191,4097.436035,4040.512939,4209.230957,0.000000,4.000000,86.000000,,,,0.000000,4.000000,4.000000,4.000000,4.000000,4.000000,100.000000,,,,,,,,,,,,,,,,,,,,,,,,,,,,,,,,,,,,,,,,,,,,,,,,,,,,,,,,,,,,,,,
1656264895.963054,24.000000,0.000000,4228.205078,4215.897461,4103.077148,4032.820557,4188.205078,0.000000,4.000000,86.000000,,,,0.000000,4.000000,4.000000,4.000000,4.000000,4.000000,100.000000,,,,,,,,,,,,,,,,,,,,,,,,,,,,,,,,,,,,,,,,,,,,,,,,,,,,,,,,,,,,,,,
1656264895.970869,25.000000,0.000000,4247.179688,4213.846191,4103.077148,4039.487061,4191.282227,0.000000,4.000000,86.000000,,,,0.000000,4.000000,4.000000,4.000000,4.000000,4.000000,100.000000,,,,,,,,,,,,,,,,,,,,,,,,,,,,,,,,,,,,,,,,,,,,,,,,,,,,,,,,,,,,,,,
1656264895.978783,26.000000,0.000000,4254.358887,4245.641113,4095.384521,4067.692383,4227.692383,0.000000,4.000000,86.000000,,,,0.000000,4.000000,4.000000,4.000000,4.000000,4.000000,100.000000,,,,,,,,,,,,,,,,,,,,,,,,,,,,,,,,,,,,,,,,,,,,,,,,,,,,,,,,,,,,,,,
1656264895.986697,27.000000,0.000000,4233.333496,4250.256348,4086.153809,4064.615479,4242.563965,0.000000,4.000000,86.000000,,,,0.000000,4.000000,4.000000,4.000000,4.000000,4.000000,100.000000,,,,,,,,,,,,,,,,,,,,,,,,,,,,,,,,,,,,,,,,,,,,,,,,,,,,,,,,,,,,,,,
1656264895.994512,28.000000,0.000000,4237.948730,4252.307617,4109.230957,4067.179443,4243.589844,0.000000,4.000000,86.000000,,,,0.000000,4.000000,4.000000,4.000000,4.000000,4.000000,100.000000,,,,,,,,,,,,,,,,,,,,,,,,,,,,,,,,,,,,,,,,,,,,,,,,,,,,,,,,,,,,,,,
1656264896.002426,29.000000,0.000000,4246.153809,4240.512695,4108.205078,4071.794922,4222.051270,0.000000,4.000000,86.000000,,,,0.000000,4.000000,4.000000,4.000000,4.000000,4.000000,100.000000,,,,,,,,,,,,,,,,,,,,,,,,,,,,,,,,,,,,,,,,,,,,,,,,,,,,,,,,,,,,,,,
1656264896.010241,30.000000,0.000000,4235.384766,4208.205078,4077.435791,4057.948730,4199.487305,0.000000,4.000000,86.000000,,,,0.000000,4.000000,4.000000,4.000000,4.000000,4.000000,100.000000,,,,,,,,,,,,,,,,,,,,,,,,,,,,,,,,,,,,,,,,,,,,,,,,,,,,,,,,,,,,,,,
1656264896.018155,31.000000,0.000000,4246.666504,4226.666504,4062.051270,4072.307617,4229.230957,0.000000,4.000000,86.000000,,,,0.000000,4.000000,4.000000,4.000000,4.000000,4.000000,100.000000,,,,,,,,,,,,,,,,,,,,,,,,,,,,,,,,,,,,,,,,,,,,,,,,,,,,,,,,,,,,,,,
1656264896.025969,32.000000,0.000000,4255.384766,4245.128418,4048.205078,4086.666748,4246.666504,0.000000,4.000000,86.000000,,,,0.000000,4.000000,4.000000,4.000000,4.000000,4.000000,100.000000,,,,,,,,,,,,,,,,,,,,,,,,,,,,,,,,,,,,,,,,,,,,,,,,,,,,,,,,,,,,,,,
1656264896.033884,33.000000,0.000000,4258.461426,4235.897461,4051.281982,4084.102539,4242.563965,0.000000,4.000000,86.000000,,,,0.000000,4.000000,4.000000,4.000000,4.000000,4.000000,100.000000,,,,,,,,,,,,,,,,,,,,,,,,,,,,,,,,,,,,,,,,,,,,,,,,,,,,,,,,,,,,,,,
1656264896.041698,34.000000,0.000000,4250.256348,4234.871582,4056.923096,4066.153809,4242.563965,0.000000,4.000000,86.000000,,,,0.000000,4.000000,4.000000,4.000000,4.000000,4.000000,100.000000,,,,,,,,,,,,,,,,,,,,,,,,,,,,,,,,,,,,,,,,,,,,,,,,,,,,,,,,,,,,,,,
1656264896.049612,35.000000,0.000000,4235.897461,4244.102539,4049.743652,4048.718018,4239.487305,0.000000,4.000000,86.000000,,,,0.000000,4.000000,4.000000,4.000000,4.000000,4.000000,100.000000,,,,,,,,,,,,,,,,,,,,,,,,,,,,,,,,,,,,,,,41.688702,13.247887,4.876613,2.614155,5.298105,3.582751,2.979898,3.227962,2.667538,5.029075,10.765560,5.510586,2.653834,2.321084,4.336335,6.911686,4.094432,0.913313,3.036489,4.549982,13.847377,6.216300,2.164185,4.316792,4.466268
1656264896.057427,36.000000,0.000000,4243.589844,4245.641113,4068.718018,4055.384521,4243.589844,0.000000,4.000000,86.000000,,,,0.000000,4.000000,4.000000,4.000000,4.000000,4.000000,100.000000,,,,,,,,,,,,,,,,,,,,,,,,,,,,,,,,,,,,,,,,,,,,,,,,,,,,,,,,,,,,,,,
1656264896.065241,37.000000,0.000000,4236.922852,4227.692383,4086.666748,4046.666748,4234.871582,0.000000,4.000000,86.000000,,,,0.000000,4.000000,4.000000,4.000000,4.000000,4.000000,100.000000,,,,,,,,,,,,,,,,,,,,,,,,,,,,,,,,,,,,,,,,,,,,,,,,,,,,,,,,,,,,,,,
1656264896.073155,38.000000,0.000000,4241.025879,4236.410156,4086.666748,4049.743652,4234.358887,0.000000,4.000000,86.000000,,,,0.000000,4.000000,4.000000,4.000000,4.000000,4.000000,100.000000,,,,,,,,,,,,,,,,,,,,,,,,,,,,,,,,,,,,,,,,,,,,,,,,,,,,,,,,,,,,,,,
1656264896.081070,39.000000,0.000000,4262.563965,4246.153809,4083.076904,4074.358887,4235.384766,0.000000,4.000000,86.000000,,,,0.000000,4.000000,4.000000,4.000000,4.000000,4.000000,100.000000,,,,,,,,,,,,,,,,,,,,,,,,,,,,,,,,,,,,,,,,,,,,,,,,,,,,,,,,,,,,,,,
1656264896.088884,40.000000,0.000000,4254.871582,4216.922852,4078.461426,4067.692383,4215.897461,0.000000,4.000000,86.000000,,,,0.000000,4.000000,4.000000,4.000000,4.000000,4.000000,100.000000,,,,,,,,,,,,,,,,,,,,,,,,,,,,,,,,,,,,,,,,,,,,,,,,,,,,,,,,,,,,,,,
1656264896.096798,41.000000,0.000000,4256.922852,4206.666504,4077.948730,4063.589844,4220.000000,0.000000,4.000000,86.000000,,,,0.000000,4.000000,4.000000,4.000000,4.000000,4.000000,100.000000,,,,,,,,,,,,,,,,,,,,,,,,,,,,,,,,,,,,,,,,,,,,,,,,,,,,,,,,,,,,,,,
1656264896.104613,42.000000,0.000000,4266.666504,4222.563965,4058.461426,4074.871826,4238.974121,0.000000,4.000000,86.000000,,,,0.000000,4.000000,4.000000,4.000000,4.000000,4.000000,100.000000,,,,,,,,,,,,,,,,,,,,,,,,,,,,,,,,,,,,,,,,,,,,,,,,,,,,,,,,,,,,,,,
1656264896.112527,43.000000,0.000000,4268.717773,4241.025879,4062.051270,4080.000000,4248.205078,0.000000,4.000000,86.000000,,,,0.000000,4.000000,4.000000,4.000000,4.000000,4.000000,100.000000,,,,,,,,,,,,,,,,,,,,,,,,,,,,,,,,,,,,,,,,,,,,,,,,,,,,,,,,,,,,,,,
1656264896.120342,44.000000,0.000000,4261.538574,4234.871582,4096.922852,4063.076904,4235.384766,0.000000,4.000000,86.000000,,,,0.000000,4.000000,4.000000,4.000000,4.000000,4.000000,100.000000,,,,,,,,,,,,,,,,,,,,,,,,,,,,,,,,,,,,,,,,,,,,,,,,,,,,,,,,,,,,,,,
1656264896.128256,45.000000,0.000000,4232.820313,4217.436035,4096.410156,4031.281982,4211.282227,0.000000,4.000000,86.000000,,,,0.000000,4.000000,4.000000,4.000000,4.000000,4.000000,100.000000,,,,,,,,,,,,,,,,,,,,,,,,,,,,,,,,,,,,,,,,,,,,,,,,,,,,,,,,,,,,,,,
1656264896.136070,46.000000,0.000000,4227.692383,4223.589844,4087.692383,4030.256348,4207.179688,0.000000,4.000000,86.000000,,,,0.000000,4.000000,4.000000,4.000000,4.000000,4.000000,100.000000,,,,,,,,,,,,,,,,,,,,,,,,,,,,,,,,,,,,,,,,,,,,,,,,,,,,,,,,,,,,,,,
1656264896.143985,47.000000,0.000000,4242.563965,4210.256348,4073.333252,4041.025635,4201.538574,0.000000,4.000000,86.000000,,,,0.000000,4.000000,4.000000,4.000000,4.000000,4.000000,100.000000,,,,,,,,,,,,,,,,,,,,,,,,,,,,,,,,,,,,,,,,,,,,,,,,,,,,,,,,,,,,,,,
1656264896.151899,48.000000,0.000000,4245.128418,4208.205078,4062.051270,4041.538574,4203.077148,0.000000,4.000000,86.000000,,,,0.000000,4.000000,4.000000,4.000000,4.000000,4.000000,100.000000,,,,,,,,,,,,,,,,,,,,,,,,,,,,,,,,,,,,,,,,,,,,,,,,,,,,,,,,,,,,,,,
1656264896.159713,49.000000,0.000000,4241.538574,4233.333496,4082.564209,4046.153809,4215.384766,0.000000,4.000000,86.000000,,,,0.000000,4.000000,4.000000,4.000000,4.000000,4.000000,100.000000,,,,,,,,,,,,,,,,,,,,,,,,,,,,,,,,,,,,,,,,,,,,,,,,,,,,,,,,,,,,,,,
1656264896.167528,50.000000,0.000000,4236.410156,4212.820313,4098.461426,4043.076904,4201.538574,0.000000,4.000000,86.000000,,,,0.000000,4.000000,4.000000,4.000000,4.000000,4.000000,100.000000,,,,,,,,,,,,,,,,,,,,,,,,,,,,,,,,,,,,,,,,,,,,,,,,,,,,,,,,,,,,,,,
1656264896.175442,51.000000,0.000000,4250.769043,4200.512695,4090.769287,4058.974365,4204.615234,0.000000,4.000000,86.000000,,,,0.000000,4.000000,4.000000,4.000000,4.000000,4.000000,100.000000,,,,,,,,,,,,,,,,,,,,,,,,,,,,,,,,,,,,,,,34.454494,13.815542,4.322050,2.922904,8.099592,3.574526,3.387104,3.054475,2.839929,7.924160,13.003813,5.040152,2.921699,2.534016,6.493026,6.521791,4.230518,0.838341,3.004342,7.110221,12.817068,6.114028,1.979781,4.541690,7.103476
1656264896.183256,52.000000,0.000000,4245.641113,4224.615234,4069.743652,4073.846191,4225.128418,0.000000,4.000000,86.000000,,,,0.000000,4.000000,4.000000,4.000000,4.000000,4.000000,100.000000,,,,,,,,,,,,,,,,,,,,,,,,,,,,,,,,,,,,,,,,,,,,,,,,,,,,,,,,,,,,,,,
1656264896.191171,53.000000,0.000000,4224.615234,4232.307617,4069.743652,4060.000000,4224.615234,0.000000,4.000000,86.000000,,,,0.000000,4.000000,4.000000,4.000000,4.000000,4.000000,100.000000,,,,,,,,,,,,,,,,,,,,,,,,,,,,,,,,,,,,,,,,,,,,,,,,,,,,,,,,,,,,,,,
1656264896.199085,54.000000,0.000000,4248.717773,4226.666504,4093.333252,4056.410156,4215.897461,0.000000,4.000000,86.000000,,,,0.000000,4.000000,4.000000,4.000000,4.000000,4.000000,100.000000,,,,,,,,,,,,,,,,,,,,,,,,,,,,,,,,,,,,,,,,,,,,,,,,,,,,,,,,,,,,,,,
1656264896.206899,55.000000,0.000000,4276.922852,4217.948730,4094.358887,4060.512939,4206.153809,0.000000,4.000000,86.000000,,,,0.000000,4.000000,4.000000,4.000000,4.000000,4.000000,100.000000,,,,,,,,,,,,,,,,,,,,,,,,,,,,,,,,,,,,,,,,,,,,,,,,,,,,,,,,,,,,,,,
1656264896.214714,56.000000,0.000000,4272.820313,4229.230957,4093.846191,4064.102539,4220.000000,0.000000,4.000000,86.000000,,,,0.000000,4.000000,4.000000,4.000000,4.000000,4.000000,100.000000,,,,,,,,,,,,,,,,,,,,,,,,,,,,,,,,,,,,,,,,,,,,,,,,,,,,,,,,,,,,,,,
1656264896.222628,57.000000,0.000000,4257.436035,4239.487305,4087.692383,4058.974365,4227.692383,0.000000,4.000000,86.000000,,,,0.000000,4.000000,4.000000,4.000000,4.000000,4.000000,100.000000,,,,,,,,,,,,,,,,,,,,,,,,,,,,,,,,,,,,,,,,,,,,,,,,,,,,,,,,,,,,,,,
1656264896.230443,58.000000,0.000000,4260.512695,4226.666504,4076.923096,4055.384521,4218.974121,0.000000,4.000000,86.000000,,,,0.000000,4.000000,4.000000,4.000000,4.000000,4.000000,100.000000,,,,,,,,,,,,,,,,,,,,,,,,,,,,,,,,,,,,,,,,,,,,,,,,,,,,,,,,,,,,,,,
1656264896.238357,59.000000,0.000000,4277.436035,4227.692383,4097.436035,4064.102539,4228.205078,0.000000,4.000000,86.000000,,,,0.000000,4.000000,4.000000,4.000000,4.000000,4.000000,100.000000,,,,,,,,,,,,,,,,,,,,,,,,,,,,,,,,,,,,,,,,,,,,,,,,,,,,,,,,,,,,,,,
1656264896.246271,60.000000,0.000000,4257.948730,4222.563965,4110.256348,4045.641113,4214.871582,0.000000,4.000000,86.000000,,,,0.000000,4.000000,4.000000,4.000000,4.000000,4.000000,100.000000,,,,,,,,,,,,,,,,,,,,,,,,,,,,,,,,,,,,,,,,,,,,,,,,,,,,,,,,,,,,,,,
1656264896.254086,61.000000,0.000000,4255.897461,4229.230957,4103.077148,4061.025635,4223.077148,0.000000,4.000000,86.000000,,,,0.000000,4.000000,4.000000,4.000000,4.000000,4.000000,100.000000,,,,,,,,,,,,,,,,,,,,,,,,,,,,,,,,,,,,,,,,,,,,,,,,,,,,,,,,,,,,,,,
1656264896.262000,62.000000,0.000000,4260.512695,4248.717773,4088.718018,4090.256348,4250.256348,0.000000,4.000000,86.000000,,,,0.000000,4.000000,4.000000,4.000000,4.000000,4.000000,100.000000,,,,,,,,,,,,,,,,,,,,,,,,,,,,,,,,,,,,,,,,,,,,,,,,,,,,,,,,,,,,,,,
1656264896.269814,63.000000,0.000000,4234.358887,4243.589844,4098.461426,4059.487061,4228.205078,0.000000,4.000000,86.000000,,,,0.000000,4.000000,4.000000,4.000000,4.000000,4.000000,100.000000,,,,,,,,,,,,,,,,,,,,,,,,,,,,,,,,,,,,,,,,,,,,,,,,,,,,,,,,,,,,,,,
1656264896.277729,64.000000,0.000000,4267.179688,4237.436035,4126.153809,4068.205078,4223.077148,450.000000,4.000000,86.000000,,,,0.000000,4.000000,4.000000,4.000000,4.000000,4.000000,100.000000,,,,,,,,,,,,,,,,,,,,,,,,,,,,,,,,,,,,,,,,,,,,,,,,,,,,,,,,,,,,,,,
1656264896.285543,65.000000,0.000000,4278.974121,4201.025879,4085.641113,4081.538574,4214.358887,450.000000,4.000000,86.000000,,,,0.000000,4.000000,4.000000,4.000000,4.000000,4.000000,100.000000,,,,,,,,,,,,,,,,,,,,,,,,,,,,,,,,,,,,,,,,,,,,,,,,,,,,,,,,,,,,,,,
1656264896.293357,66.000000,0.000000,4253.846191,4188.717773,4066.153809,4067.179443,4198.974121,16239.000000,4.000000,86.000000,,,,0.000000,4.000000,4.000000,4.000000,4.000000,4.000000,100.000000,,,,,,,,,,,,,,,,,,,,,,,,,,,,,,,,,,,,,,,,,,,,,,,,,,,,,,,,,,,,,,,
1656264896.301272,67.000000,0.000000,4251.282227,4243.077148,4081.025635,4083.589844,4226.666504,450.000000,4.000000,86.000000,,,,0.000000,4.000000,4.000000,4.000000,4.000000,4.000000,100.000000,-1.000000,25.000000,1.000000,1.000000,1.000000,1.000000,1.000000,,,,,,,,,,,,,,,,,,,,,,,,,,,,,,,,29.799702,13.234332,3.540429,3.124474,11.493150,3.467355,3.781982,2.851717,3.144921,11.605066,14.115425,5.024674,3.412649,2.566176,9.226256,6.298620,4.300746,0.856061,2.984526,10.195470,11.681362,5.816253,1.700668,4.628806,10.312006
1656264896.309186,68.000000,0.000000,4229.743652,4244.102539,4064.102539,4066.666748,4225.128418,16182.000000,4.000000,86.000000,,,,0.000000,4.000000,4.000000,4.000000,4.000000,4.000000,100.000000,,,,,,,,,,,,,,,,,,,,,,,,,,,,,,,,,,,,,,,,,,,,,,,,,,,,,,,,,,,,,,,
1656264896.317000,69.000000,0.000000,4248.717773,4226.153809,4070.769287,4069.230713,4220.000000,450.000000,4.000000,86.000000,,,,0.000000,4.000000,4.000000,4.000000,4.000000,4.000000,100.000000,,,,,,,,,,,,,,,,,,,,,,,,,,,,,,,,,,,,,,,,,,,,,,,,,,,,,,,,,,,,,,,
1656264896.324815,70.000000,0.000000,4274.871582,4245.641113,4056.410156,4098.974121,4241.025879,16193.000000,4.000000,86.000000,,,,0.000000,4.000000,4.000000,4.000000,4.000000,4.000000,100.000000,,,,,,,,,,,,,,,,,,,,,,,,,,,,,,,,,,,,,,,,,,,,,,,,,,,,,,,,,,,,,,,
1656264896.332629,71.000000,0.000000,4251.794922,4253.846191,4035.897461,4077.435791,4241.538574,450.000000,4.000000,86.000000,,,,0.000000,4.000000,4.000000,4.000000,4.000000,4.000000,100.000000,,,,,,,,,,,,,,,,,,,,,,,,,,,,,,,,,,,,,,,,,,,,,,,,,,,,,,,,,,,,,,,
1656264896.340544,72.000000,0.000000,4258.974121,4227.179688,4078.974365,4065.641113,4216.922852,450.000000,4.000000,86.000000,,,,0.000000,4.000000,4.000000,4.000000,4.000000,4.000000,100.000000,,,,,,,,,,,,,,,,,,,,,,,,,,,,,,,,,,,,,,,,,,,,,,,,,,,,,,,,,,,,,,,
1656264896.348358,73.000000,0.000000,4291.794922,4195.897461,4103.589844,4093.333252,4207.692383,16196.000000,4.000000,86.000000,,,,0.000000,4.000000,4.000000,4.000000,4.000000,4.000000,100.000000,,,,,,,,,,,,,,,,,,,,,,,,,,,,,,,,,,,,,,,,,,,,,,,,,,,,,,,,,,,,,,,
1656264896.356272,74.000000,0.000000,4290.256348,4213.333496,4085.128174,4095.897461,4234.871582,450.000000,4.000000,86.000000,,,,0.000000,4.000000,4.000000,4.000000,4.000000,4.000000,100.000000,,,,,,,,,,,,,,,,,,,,,,,,,,,,,,,,,,,,,,,,,,,,,,,,,,,,,,,,,,,,,,,
1656264896.364087,75.000000,0.000000,4256.922852,4227.692383,4082.564209,4048.718018,4231.282227,16178.000000,4.000000,86.000000,,,,0.000000,4.000000,4.000000,4.000000,4.000000,4.000000,100.000000,,,,,,,,,,,,,,,,,,,,,,,,,,,,,,,,,,,,,,,,,,,,,,,,,,,,,,,,,,,,,,,
1656264896.372001,76.000000,0.000000,4252.820313,4208.205078,4094.358887,4037.948730,4210.769043,450.000000,4.000000,86.000000,,,,0.000000,4.000000,4.000000,4.000000,4.000000,4.000000,100.000000,,,,,,,,,,,,,,,,,,,,,,,,,,,,,,,,,,,,,,,,,,,,,,,,,,,,,,,,,,,,,,,
1656264896.379815,77.000000,0.000000,4279.487305,4196.922852,4088.205078,4075.384521,4212.820313,450.000000,4.000000,86.000000,,,,0.000000,4.000000,4.000000,4.000000,4.000000,4.000000,100.000000,,,,,,,,,,,,,,,,,,,,,,,,,,,,,,,,,,,,,,,,,,,,,,,,,,,,,,,,,,,,,,,
1656264896.387730,78.000000,0.000000,4281.025879,4202.051270,4067.692383,4080.512939,4208.205078,450.000000,4.000000,86.000000,,,,0.000000,4.000000,4.000000,4.000000,4.000000,4.000000,100.000000,,,,,,,,,,,,,,,,,,,,,,,,,,,,,,,,,,,,,,,,,,,,,,,,,,,,,,,,,,,,,,,
1656264896.395544,79.000000,0.000000,4271.794922,4220.000000,4067.692383,4073.846191,4216.922852,16178.000000,4.000000,86.000000,,,,0.000000,4.000000,4.000000,4.000000,4.000000,4.000000,100.000000,,,,,,,,,,,,,,,,,,,,,,,,,,,,,,,,,,,,,,,,,,,,,,,,,,,,,,,,,,,,,,,
1656264896.403458,80.000000,0.000000,4289.743652,4225.128418,4068.205078,4094.871826,4245.128418,450.000000,4.000000,86.000000,,,,0.000000,4.000000,4.000000,4.000000,4.000000,4.000000,100.000000,,,,,,,,,,,,,,,,,,,,,,,,,,,,,,,,,,,,,,,,,,,,,,,,,,,,,,,,,,,,,,,
1656264896.411273,81.000000,0.000000,4301.538574,4223.077148,4054.871826,4108.205078,4260.512695,450.000000,4.000000,86.000000,,,,0.000000,4.000000,4.000000,4.000000,4.000000,4.000000,100.000000,,,,,,,,,,,,,,,,,,,,,,,,,,,,,,,,,,,,,,,,,,,,,,,,,,,,,,,,,,,,,,,
1656264896.419187,82.000000,0.000000,4293.333496,4220.000000,4072.307617,4092.307617,4244.102539,450.000000,4.000000,86.000000,,,,0.000000,4.000000,4.000000,4.000000,4.000000,4.000000,100.000000,,,,,,,,,,,,,,,,,,,,,,,,,,,,,,,,,,,,,,,,,,,,,,,,,,,,,,,,,,,,,,,
1656264896.427002,83.000000,0.000000,4281.538574,4200.512695,4087.179443,4071.281982,4212.307617,16178.000000,4.000000,86.000000,,,,0.000000,4.000000,4.000000,4.000000,4.000000,4.000000,100.000000,,,,,,,,,,,,,,,,,,,,,,,,,,,,,,,,,,,,,,,24.937340,11.388277,2.672763,3.189169,14.540095,3.169023,4.116018,2.630474,3.493961,15.026413,13.906262,5.370862,3.989550,2.425545,11.754225,6.038371,4.429088,1.009696,3.001133,12.962393,10.048427,5.272042,1.431131,4.652899,13.219392
1656264896.434916,84.000000,0.000000,4281.025879,4205.128418,4068.718018,4075.384521,4209.230957,450.000000,4.000000,86.000000,,,,0.000000,4.000000,4.000000,4.000000,4.000000,4.000000,100.000000,,,,,,,,,,,,,,,,,,,,,,,,,,,,,,,,,,,,,,,,,,,,,,,,,,,,,,,,,,,,,,,
1656264896.442830,85.000000,0.000000,4282.051270,4217.948730,4050.769287,4089.230713,4221.538574,450.000000,4.000000,86.000000,,,,0.000000,4.000000,4.000000,4.000000,4.000000,4.000000,100.000000,,,,,,,,,,,,,,,,,,,,,,,,,,,,,,,,,,,,,,,,,,,,,,,,,,,,,,,,,,,,,,,
1656264896.450645,86.000000,0.000000,4285.641113,4196.922852,4061.538574,4082.051270,4207.179688,450.000000,4.000000,86.000000,,,,0.000000,4.000000,4.000000,4.000000,4.000000,4.000000,100.000000,,,,,,,,,,,,,,,,,,,,,,,,,,,,,,,,,,,,,,,,,,,,,,,,,,,,,,,,,,,,,,,
1656264896.458459,87.000000,0.000000,4298.974121,4208.717773,4063.076904,4083.589844,4214.358887,16178.000000,4.000000,86.000000,,,,0.000000,4.000000,4.000000,4.000000,4.000000,4.000000,100.000000,,,,,,,,,,,,,,,,,,,,,,,,,,,,,,,,,,,,,,,,,,,,,,,,,,,,,,,,,,,,,,,
1656264896.466373,88.000000,0.000000,4275.384766,4249.743652,4029.230713,4089.743652,4246.666504,450.000000,4.000000,86.000000,,,,0.000000,4.000000,4.000000,4.000000,4.000000,4.000000,100.000000,,,,,,,,,,,,,,,,,,,,,,,,,,,,,,,,,,,,,,,,,,,,,,,,,,,,,,,,,,,,,,,
1656264896.474288,89.000000,0.000000,4250.256348,4243.589844,4032.820557,4078.461426,4239.487305,450.000000,4.000000,86.000000,,,,0.000000,4.000000,4.000000,4.000000,4.000000,4.000000,100.000000,,,,,,,,,,,,,,,,,,,,,,,,,,,,,,,,,,,,,,,,,,,,,,,,,,,,,,,,,,,,,,,
1656264896.482102,90.000000,0.000000,4278.974121,4212.307617,4080.512939,4066.666748,4205.641113,450.000000,4.000000,86.000000,,,,0.000000,4.000000,4.000000,4.000000,4.000000,4.000000,100.000000,,,,,,,,,,,,,,,,,,,,,,,,,,,,,,,,,,,,,,,,,,,,,,,,,,,,,,,,,,,,,,,
1656264896.490016,91.000000,0.000000,4297.436035,4214.358887,4088.718018,4067.692383,4200.000000,16178.000000,4.000000,86.000000,,,,0.000000,4.000000,4.000000,4.000000,4.000000,4.000000,100.000000,,,,,,,,,,,,,,,,,,,,,,,,,,,,,,,,,,,,,,,,,,,,,,,,,,,,,,,,,,,,,,,
1656264896.497831,92.000000,0.000000,4275.897461,4229.743652,4073.846191,4064.615479,4211.282227,450.000000,4.000000,86.000000,,,,0.000000,4.000000,4.000000,4.000000,4.000000,4.000000,100.000000,,,,,,,,,,,,,,,,,,,,,,,,,,,,,,,,,,,,,,,,,,,,,,,,,,,,,,,,,,,,,,,
1656264896.505745,93.000000,0.000000,4271.794922,4212.307617,4080.512939,4051.794922,4201.025879,450.000000,4.000000,86.000000,,,,0.000000,4.000000,4.000000,4.000000,4.000000,4.000000,100.000000,,,,,,,,,,,,,,,,,,,,,,,,,,,,,,,,,,,,,,,,,,,,,,,,,,,,,,,,,,,,,,,
1656264896.513559,94.000000,0.000000,4300.512695,4202.051270,4069.230713,4072.820557,4206.666504,450.000000,4.000000,86.000000,,,,0.000000,4.000000,4.000000,4.000000,4.000000,4.000000,100.000000,,,,,,,,,,,,,,,,,,,,,,,,,,,,,,,,,,,,,,,,,,,,,,,,,,,,,,,,,,,,,,,
1656264896.521474,95.000000,0.000000,4285.641113,4239.487305,4042.051270,4084.615479,4230.256348,16178.000000,4.000000,86.000000,,,,0.000000,4.000000,4.000000,4.000000,4.000000,4.000000,100.000000,,,,,,,,,,,,,,,,,,,,,,,,,,,,,,,,,,,,,,,,,,,,,,,,,,,,,,,,,,,,,,,
1656264896.529288,96.000000,0.000000,4249.230957,4250.769043,4059.487061,4053.846191,4221.538574,450.000000,4.000000,86.000000,,,,0.000000,4.000000,4.000000,4.000000,4.000000,4.000000,100.000000,,,,,,,,,,,,,,,,,,,,,,,,,,,,,,,,,,,,,,,,,,,,,,,,,,,,,,,,,,,,,,,
1656264896.537202,97.000000,0.000000,4277.436035,4241.538574,4068.205078,4068.205078,4232.307617,450.000000,4.000000,86.000000,,,,0.000000,4.000000,4.000000,4.000000,4.000000,4.000000,100.000000,,,,,,,,,,,,,,,,,,,,,,,,,,,,,,,,,,,,,,,,,,,,,,,,,,,,,,,,,,,,,,,
1656264896.545017,98.000000,0.000000,4294.871582,4271.794922,4022.051270,4097.948730,4258.974121,450.000000,4.000000,86.000000,,,,0.000000,4.000000,4.000000,4.000000,4.000000,4.000000,100.000000,,,,,,,,,,,,,,,,,,,,,,,,,,,,,,,,,,,,,,,,,,,,,,,,,,,,,,,,,,,,,,,
1656264896.552931,99.000000,0.000000,4252.307617,4271.282227,4016.410156,4070.769287,4228.717773,16178.000000,4.000000,86.000000,,,,0.000000,4.000000,4.000000,4.000000,4.000000,4.000000,100.000000,,,,,,,,,,,,,,,,,,,,,,,,,,,,,,,,,,,,,,,18.724163,8.711637,1.894728,3.115994,16.198092,2.756334,4.287584,2.426623,3.747219,17.014595,12.527505,5.773134,4.429471,2.198481,13.197764,5.477018,4.687555,1.341410,3.026853,14.481201,7.983854,4.531978,1.287944,4.671613,14.855192
1656264896.560746,100.000000,0.000000,4255.384766,4222.051270,4055.897461,4069.743652,4200.000000,450.000000,4.000000,86.000000,,,,0.000000,4.000000,4.000000,4.000000,4.000000,4.000000,100.000000,,,,,,,,,,,,,,,,,,,,,,,,,,,,,,,,,,,,,,,,,,,,,,,,,,,,,,,,,,,,,,,
1656264896.568660,101.000000,0.000000,4295.897461,4220.512695,4033.846191,4106.153809,4224.102539,450.000000,4.000000,86.000000,,,,0.000000,4.000000,4.000000,4.000000,4.000000,4.000000,100.000000,,,,,,,,,,,,,,,,,,,,,,,,,,,,,,,,,,,,,,,,,,,,,,,,,,,,,,,,,,,,,,,
1656264896.576474,102.000000,0.000000,4280.000000,4255.384766,4009.743652,4092.307617,4234.358887,450.000000,4.000000,86.000000,,,,0.000000,4.000000,4.000000,4.000000,4.000000,4.000000,100.000000,,,,,,,,,,,,,,,,,,,,,,,,,,,,,,,,,,,,,,,,,,,,,,,,,,,,,,,,,,,,,,,
1656264896.584389,103.000000,0.000000,4242.051270,4241.025879,4052.307617,4050.256348,4195.897461,16178.000000,4.000000,86.000000,,,,0.000000,4.000000,4.000000,4.000000,4.000000,4.000000,100.000000,,,,,,,,,,,,,,,,,,,,,,,,,,,,,,,,,,,,,,,,,,,,,,,,,,,,,,,,,,,,,,,
1656264896.592303,104.000000,0.000000,4242.051270,4209.743652,4068.205078,4049.230713,4177.948730,450.000000,4.000000,86.000000,,,,0.000000,4.000000,4.000000,4.000000,4.000000,4.000000,100.000000,,,,,,,,,,,,,,,,,,,,,,,,,,,,,,,,,,,,,,,,,,,,,,,,,,,,,,,,,,,,,,,
1656264896.600117,105.000000,0.000000,4254.358887,4236.922852,4020.000000,4090.769287,4220.000000,450.000000,4.000000,86.000000,,,,0.000000,4.000000,4.000000,4.000000,4.000000,4.000000,100.000000,,,,,,,,,,,,,,,,,,,,,,,,,,,,,,,,,,,,,,,,,,,,,,,,,,,,,,,,,,,,,,,
1656264896.608032,106.000000,0.000000,4253.846191,4281.538574,3990.256348,4118.974121,4263.077148,450.000000,4.000000,86.000000,,,,0.000000,4.000000,4.000000,4.000000,4.000000,4.000000,100.000000,,,,,,,,,,,,,,,,,,,,,,,,,,,,,,,,,,,,,,,,,,,,,,,,,,,,,,,,,,,,,,,
1656264896.615846,107.000000,0.000000,4252.820313,4283.077148,4027.179443,4097.436035,4252.307617,16178.000000,4.000000,86.000000,,,,0.000000,4.000000,4.000000,4.000000,4.000000,4.000000,100.000000,,,,,,,,,,,,,,,,,,,,,,,,,,,,,,,,,,,,,,,,,,,,,,,,,,,,,,,,,,,,,,,
1656264896.623760,108.000000,0.000000,4262.563965,4231.282227,4076.923096,4069.230713,4210.769043,450.000000,4.000000,86.000000,,,,0.000000,4.000000,4.000000,4.000000,4.000000,4.000000,100.000000,,,,,,,,,,,,,,,,,,,,,,,,,,,,,,,,,,,,,,,,,,,,,,,,,,,,,,,,,,,,,,,
1656264896.631575,109.000000,0.000000,4288.205078,4204.615234,4076.410156,4093.846191,4213.846191,450.000000,4.000000,86.000000,,,,0.000000,4.000000,4.000000,4.000000,4.000000,4.000000,100.000000,,,,,,,,,,,,,,,,,,,,,,,,,,,,,,,,,,,,,,,,,,,,,,,,,,,,,,,,,,,,,,,
1656264896.639489,110.000000,0.000000,4282.563965,4249.743652,4052.307617,4103.589844,4248.205078,450.000000,4.000000,86.000000,,,,0.000000,4.000000,4.000000,4.000000,4.000000,4.000000,100.000000,,,,,,,,,,,,,,,,,,,,,,,,,,,,,,,,,,,,,,,,,,,,,,,,,,,,,,,,,,,,,,,
1656264896.647303,111.000000,0.000000,4246.153809,4268.205078,4060.512939,4064.615479,4241.538574,16178.000000,4.000000,86.000000,,,,0.000000,4.000000,4.000000,4.000000,4.000000,4.000000,100.000000,,,,,,,,,,,,,,,,,,,,,,,,,,,,,,,,,,,,,,,,,,,,,,,,,,,,,,,,,,,,,,,
1656264896.655218,112.000000,0.000000,4263.077148,4230.256348,4077.435791,4072.307617,4224.102539,450.000000,4.000000,86.000000,,,,0.000000,4.000000,4.000000,4.000000,4.000000,4.000000,100.000000,,,,,,,,,,,,,,,,,,,,,,,,,,,,,,,,,,,,,,,,,,,,,,,,,,,,,,,,,,,,,,,
1656264896.663032,113.000000,0.000000,4291.282227,4247.692383,4047.179443,4117.436035,4251.282227,450.000000,4.000000,86.000000,,,,0.000000,4.000000,4.000000,4.000000,4.000000,4.000000,100.000000,,,,,,,,,,,,,,,,,,,,,,,,,,,,,,,,,,,,,,,,,,,,,,,,,,,,,,,,,,,,,,,
1656264896.670946,114.000000,0.000000,4267.692383,4298.461426,4030.256348,4110.256348,4267.692383,450.000000,4.000000,86.000000,,,,0.000000,4.000000,4.000000,4.000000,4.000000,4.000000,100.000000,,,,,,,,,,,,,,,,,,,,,,,,,,,,,,,,,,,,,,,,,,,,,,,,,,,,,,,,,,,,,,,
1656264896.678761,115.000000,0.000000,4259.487305,4272.820313,4052.307617,4089.743652,4245.641113,16178.000000,4.000000,86.000000,,,,0.000000,4.000000,4.000000,4.000000,4.000000,4.000000,100.000000,,,,,,,,,,,,,,,,,,,,,,,,,,,,,,,,,,,,,,,12.141540,5.975177,1.340937,2.921374,15.825777,2.319953,4.172001,2.282301,3.779373,16.823795,10.587583,5.920374,4.549596,1.963513,12.996567,4.645477,5.008857,1.800568,2.991090,14.176065,5.943712,3.698299,1.320701,4.664713,14.599009
1656264896.686675,116.000000,0.000000,4285.641113,4245.128418,4056.410156,4110.256348,4248.205078,450.000000,4.000000,86.000000,,,,0.000000,4.000000,4.000000,4.000000,4.000000,4.000000,100.000000,,,,,,,,,,,,,,,,,,,,,,,,,,,,,,,,,,,,,,,,,,,,,,,,,,,,,,,,,,,,,,,
1656264896.694490,117.000000,0.000000,4287.692383,4268.205078,4050.256348,4119.487305,4258.461426,450.000000,4.000000,86.000000,,,,0.000000,4.000000,4.000000,4.000000,4.000000,4.000000,100.000000,,,,,,,,,,,,,,,,,,,,,,,,,,,,,,,,,,,,,,,,,,,,,,,,,,,,,,,,,,,,,,,
1656264896.702404,118.000000,0.000000,4276.922852,4268.717773,4041.538574,4111.794922,4259.487305,450.000000,4.000000,86.000000,,,,0.000000,4.000000,4.000000,4.000000,4.000000,4.000000,100.000000,,,,,,,,,,,,,,,,,,,,,,,,,,,,,,,,,,,,,,,,,,,,,,,,,,,,,,,,,,,,,,,
1656264896.710218,119.000000,0.000000,4286.153809,4268.717773,4037.948730,4127.692383,4285.641113,16178.000000,4.000000,86.000000,,,,0.000000,4.000000,4.000000,4.000000,4.000000,4.000000,100.000000,,,,,,,,,,,,,,,,,,,,,,,,,,,,,,,,,,,,,,,,,,,,,,,,,,,,,,,,,,,,,,,
1656264896.718133,120.000000,0.000000,4271.282227,4256.410156,4054.358887,4114.358887,4263.589844,450.000000,4.000000,86.000000,,,,0.000000,4.000000,4.000000,4.000000,4.000000,4.000000,100.000000,,,,,,,,,,,,,,,,,,,,,,,,,,,,,,,,,,,,,,,,,,,,,,,,,,,,,,,,,,,,,,,
1656264896.725947,121.000000,0.000000,4275.897461,4222.051270,4088.205078,4099.487305,4217.948730,450.000000,4.000000,86.000000,,,,0.000000,4.000000,4.000000,4.000000,4.000000,4.000000,100.000000,,,,,,,,,,,,,,,,,,,,,,,,,,,,,,,,,,,,,,,,,,,,,,,,,,,,,,,,,,,,,,,
1656264896.733861,122.000000,0.000000,4303.077148,4230.769043,4083.076904,4116.410156,4233.846191,450.000000,4.000000,86.000000,,,,0.000000,4.000000,4.000000,4.000000,4.000000,4.000000,100.000000,,,,,,,,,,,,,,,,,,,,,,,,,,,,,,,,,,,,,,,,,,,,,,,,,,,,,,,,,,,,,,,
1656264896.741676,123.000000,0.000000,4271.794922,4253.846191,4033.846191,4104.615234,4249.230957,16178.000000,4.000000,86.000000,,,,0.000000,4.000000,4.000000,4.000000,4.000000,4.000000,100.000000,,,,,,,,,,,,,,,,,,,,,,,,,,,,,,,,,,,,,,,,,,,,,,,,,,,,,,,,,,,,,,,
1656264896.749590,124.000000,0.000000,4272.820313,4257.948730,4045.128174,4107.179688,4255.384766,450.000000,4.000000,86.000000,,,,0.000000,4.000000,4.000000,4.000000,4.000000,4.000000,100.000000,,,,,,,,,,,,,,,,,,,,,,,,,,,,,,,,,,,,,,,,,,,,,,,,,,,,,,,,,,,,,,,
1656264896.757404,125.000000,0.000000,4287.692383,4233.333496,4057.435791,4103.589844,4245.641113,450.000000,4.000000,86.000000,,,,0.000000,4.000000,4.000000,4.000000,4.000000,4.000000,100.000000,,,,,,,,,,,,,,,,,,,,,,,,,,,,,,,,,,,,,,,,,,,,,,,,,,,,,,,,,,,,,,,
1656264896.765319,126.000000,0.000000,4267.692383,4243.077148,4038.461426,4084.102539,4242.051270,450.000000,4.000000,86.000000,,,,0.000000,4.000000,4.000000,4.000000,4.000000,4.000000,100.000000,,,,,,,,,,,,,,,,,,,,,,,,,,,,,,,,,,,,,,,,,,,,,,,,,,,,,,,,,,,,,,,
1656264896.773233,127.000000,0.000000,4274.358887,4294.871582,4035.384521,4111.794922,4275.897461,241.000000,4.000000,86.000000,,,,0.000000,4.000000,4.000000,4.000000,4.000000,4.000000,100.000000,,,,,,,,,,,,,,,,,,,,,,,,,,,,,,,,,,,,,,,,,,,,,,,,,,,,,,,,,,,,,,,
1656264896.781047,0.000000,0.000000,4246.666504,4256.410156,4046.666748,4087.179443,4237.948730,450.000000,4.000000,86.000000,,,,0.000000,4.000000,4.000000,4.000000,4.000000,4.000000,100.000000,,,,,,,,,,,,,,,,,,,,,,,,,,,,,,,,,,,,,,,,,,,,,,,,,,,,,,,,,,,,,,,
1656264896.788862,1.000000,0.000000,4248.205078,4231.794922,4098.461426,4067.179443,4204.615234,450.000000,4.000000,86.000000,,,,0.000000,4.000000,4.000000,4.000000,4.000000,4.000000,100.000000,,,,,,,,,,,,,,,,,,,,,,,,,,,,,,,,,,,,,,,,,,,,,,,,,,,,,,,,,,,,,,,
1656264896.796776,2.000000,0.000000,4295.384766,4258.974121,4092.820557,4110.256348,4234.871582,16218.000000,4.000000,86.000000,,,,0.000000,4.000000,4.000000,4.000000,4.000000,4.000000,100.000000,,,,,,,,,,,,,,,,,,,,,,,,,,,,,,,,,,,,,,,,,,,,,,,,,,,,,,,,,,,,,,,
1656264896.804690,3.000000,0.000000,4276.922852,4240.000000,4057.948730,4102.051270,4229.230957,450.000000,4.000000,86.000000,,,,0.000000,4.000000,4.000000,4.000000,4.000000,4.000000,100.000000,-1.000000,25.000000,1.000000,1.000000,1.000000,1.000000,1.000000,,,,,,,,,,,,,,,,,,,,,,,,,,,,,,,,6.930809,3.885051,1.045151,2.641688,13.510842,1.989173,3.717221,2.266086,3.547083,14.514675,8.814852,5.653674,4.361495,1.766018,11.201611,3.711830,5.226641,2.293920,2.831969,12.118969,4.421360,2.897207,1.540774,4.562642,12.498819
1656264896.812505,4.000000,0.000000,4246.153809,4239.487305,4090.769287,4071.281982,4211.282227,16226.000000,4.000000,86.000000,,,,0.000000,4.000000,4.000000,4.000000,4.000000,4.000000,100.000000,,,,,,,,,,,,,,,,,,,,,,,,,,,,,,,,,,,,,,,,,,,,,,,,,,,,,,,,,,,,,,,
1656264896.820419,5.000000,0.000000,4262.051270,4231.794922,4092.820557,4077.435791,4204.102539,450.000000,4.000000,86.000000,,,,0.000000,4.000000,4.000000,4.000000,4.000000,4.000000,100.000000,,,,,,,,,,,,,,,,,,,,,,,,,,,,,,,,,,,,,,,,,,,,,,,,,,,,,,,,,,,,,,,
1656264896.828234,6.000000,0.000000,4297.948730,4214.871582,4057.948730,4115.897461,4221.538574,16171.000000,4.000000,86.000000,,,,0.000000,4.000000,4.000000,4.000000,4.000000,4.000000,100.000000,,,,,,,,,,,,,,,,,,,,,,,,,,,,,,,,,,,,,,,,,,,,,,,,,,,,,,,,,,,,,,,
1656264896.836148,7.000000,0.000000,4283.589844,4240.512695,4047.179443,4117.436035,4240.000000,450.000000,4.000000,86.000000,,,,0.000000,4.000000,4.000000,4.000000,4.000000,4.000000,100.000000,,,,,,,,,,,,,,,,,,,,,,,,,,,,,,,,,,,,,,,,,,,,,,,,,,,,,,,,,,,,,,,
1656264896.843962,8.000000,0.000000,4255.897461,4254.871582,4059.487061,4085.128174,4223.077148,450.000000,4.000000,86.000000,,,,0.000000,4.000000,4.000000,4.000000,4.000000,4.000000,100.000000,,,,,,,,,,,,,,,,,,,,,,,,,,,,,,,,,,,,,,,,,,,,,,,,,,,,,,,,,,,,,,,
1656264896.851877,9.000000,0.000000,4288.205078,4238.461426,4071.794922,4109.230957,4227.179688,16204.000000,4.000000,86.000000,,,,0.000000,4.000000,4.000000,4.000000,4.000000,4.000000,100.000000,,,,,,,,,,,,,,,,,,,,,,,,,,,,,,,,,,,,,,,,,,,,,,,,,,,,,,,,,,,,,,,
1656264896.859691,10.000000,0.000000,4286.153809,4246.153809,4061.025635,4117.948730,4244.615234,450.000000,4.000000,86.000000,,,,0.000000,4.000000,4.000000,4.000000,4.000000,4.000000,100.000000,,,,,,,,,,,,,,,,,,,,,,,,,,,,,,,,,,,,,,,,,,,,,,,,,,,,,,,,,,,,,,,
1656264896.867605,11.000000,0.000000,4226.666504,4271.794922,4063.076904,4063.589844,4229.230957,16151.000000,4.000000,86.000000,,,,0.000000,4.000000,4.000000,4.000000,4.000000,4.000000,100.000000,,,,,,,,,,,,,,,,,,,,,,,,,,,,,,,,,,,,,,,,,,,,,,,,,,,,,,,,,,,,,,,
1656264896.875420,12.000000,0.000000,4228.205078,4249.743652,4083.076904,4050.769287,4206.666504,450.000000,4.000000,86.000000,,,,0.000000,4.000000,4.000000,4.000000,4.000000,4.000000,100.000000,,,,,,,,,,,,,,,,,,,,,,,,,,,,,,,,,,,,,,,,,,,,,,,,,,,,,,,,,,,,,,,
1656264896.883334,13.000000,0.000000,4267.179688,4241.025879,4065.128174,4085.641113,4225.641113,450.000000,4.000000,86.000000,,,,0.000000,4.000000,4.000000,4.000000,4.000000,4.000000,100.000000,,,,,,,,,,,,,,,,,,,,,,,,,,,,,,,,,,,,,,,,,,,,,,,,,,,,,,,,,,,,,,,
1656264896.891148,14.000000,0.000000,4247.692383,4262.563965,4033.333252,4075.897461,4238.461426,450.000000,4.000000,86.000000,,,,0.000000,4.000000,4.000000,4.000000,4.000000,4.000000,100.000000,,,,,,,,,,,,,,,,,,,,,,,,,,,,,,,,,,,,,,,,,,,,,,,,,,,,,,,,,,,,,,,
1656264896.899063,15.000000,0.000000,4238.974121,4231.794922,4047.179443,4062.051270,4216.410156,16151.000000,4.000000,86.000000,,,,0.000000,4.000000,4.000000,4.000000,4.000000,4.000000,100.000000,,,,,,,,,,,,,,,,,,,,,,,,,,,,,,,,,,,,,,,,,,,,,,,,,,,,,,,,,,,,,,,
1656264896.906877,16.000000,0.000000,4273.846191,4209.743652,4065.641113,4102.051270,4224.102539,0.000000,4.000000,86.000000,,,,0.000000,4.000000,4.000000,4.000000,4.000000,4.000000,100.000000,,,,,,,,,,,,,,,,,,,,,,,,,,,,,,,,,,,,,,,,,,,,,,,,,,,,,,,,,,,,,,,
1656264896.914791,17.000000,0.000000,4269.230957,4252.820313,4055.384521,4115.897461,4244.615234,0.000000,4.000000,86.000000,,,,0.000000,4.000000,4.000000,4.000000,4.000000,4.000000,100.000000,,,,,,,,,,,,,,,,,,,,,,,,,,,,,,,,,,,,,,,,,,,,,,,,,,,,,,,,,,,,,,,
1656264896.922706,18.000000,0.000000,4261.538574,4249.230957,4057.435791,4095.897461,4228.717773,0.000000,4.000000,86.000000,,,,0.000000,4.000000,4.000000,4.000000,4.000000,4.000000,100.000000,,,,,,,,,,,,,,,,,,,,,,,,,,,,,,,,,,,,,,,,,,,,,,,,,,,,,,,,,,,,,,,
1656264896.930520,19.000000,0.000000,4280.000000,4195.897461,4065.128174,4100.000000,4208.205078,0.000000,4.000000,86.000000,,,,0.000000,4.000000,4.000000,4.000000,4.000000,4.000000,100.000000,,,,,,,,,,,,,,,,,,,,,,,,,,,,,,,,,,,,,,,3.967436,2.637972,0.979950,2.329253,10.050328,1.753850,3.002900,2.479551,3.102395,10.937334,7.662917,5.021542,4.026529,1.620544,8.470647,2.841470,5.163967,2.713681,2.543870,9.026378,3.609232,2.237070,1.972084,4.302656,9.283380
1656264896.938335,20.000000,0.000000,4271.794922,4216.410156,4069.230713,4108.717773,4221.538574,0.000000,4.000000,86.000000,,,,0.000000,4.000000,4.000000,4.000000,4.000000,4.000000,100.000000,,,,,,,,,,,,,,,,,,,,,,,,,,,,,,,,,,,,,,,,,,,,,,,,,,,,,,,,,,,,,,,
1656264896.946249,21.000000,0.000000,4275.384766,4247.692383,4073.846191,4108.717773,4235.384766,0.000000,4.000000,86.000000,,,,0.000000,4.000000,4.000000,4.000000,4.000000,4.000000,100.000000,,,,,,,,,,,,,,,,,,,,,,,,,,,,,,,,,,,,,,,,,,,,,,,,,,,,,,,,,,,,,,,
1656264896.954163,22.000000,0.000000,4302.051270,4231.282227,4072.307617,4119.487305,4232.307617,0.000000,4.000000,86.000000,,,,0.000000,4.000000,4.000000,4.000000,4.000000,4.000000,100.000000,,,,,,,,,,,,,,,,,,,,,,,,,,,,,,,,,,,,,,,,,,,,,,,,,,,,,,,,,,,,,,,
1656264896.961978,23.000000,0.000000,4293.333496,4245.128418,4075.897461,4117.948730,4229.230957,0.000000,4.000000,86.000000,,,,0.000000,4.000000,4.000000,4.000000,4.000000,4.000000,100.000000,,,,,,,,,,,,,,,,,,,,,,,,,,,,,,,,,,,,,,,,,,,,,,,,,,,,,,,,,,,,,,,
1656264896.969892,24.000000,0.000000,4261.538574,4251.282227,4069.230713,4087.692383,4214.358887,0.000000,4.000000,86.000000,,,,0.000000,4.000000,4.000000,4.000000,4.000000,4.000000,100.000000,,,,,,,,,,,,,,,,,,,,,,,,,,,,,,,,,,,,,,,,,,,,,,,,,,,,,,,,,,,,,,,
1656264896.977706,25.000000,0.000000,4268.717773,4229.743652,4061.025635,4091.281982,4213.846191,0.000000,4.000000,86.000000,,,,0.000000,4.000000,4.000000,4.000000,4.000000,4.000000,100.000000,,,,,,,,,,,,,,,,,,,,,,,,,,,,,,,,,,,,,,,,,,,,,,,,,,,,,,,,,,,,,,,
1656264896.985621,26.000000,0.000000,4284.102539,4246.666504,4071.281982,4116.922852,4236.922852,0.000000,4.000000,86.000000,,,,0.000000,4.000000,4.000000,4.000000,4.000000,4.000000,100.000000,,,,,,,,,,,,,,,,,,,,,,,,,,,,,,,,,,,,,,,,,,,,,,,,,,,,,,,,,,,,,,,
1656264896.993435,27.000000,0.000000,4271.282227,4272.820313,4072.820557,4106.153809,4252.820313,0.000000,4.000000,86.000000,,,,0.000000,4.000000,4.000000,4.000000,4.000000,4.000000,100.000000,,,,,,,,,,,,,,,,,,,,,,,,,,,,,,,,,,,,,,,,,,,,,,,,,,,,,,,,,,,,,,,
1656264897.001349,28.000000,0.000000,4273.846191,4260.512695,4070.769287,4094.358887,4247.692383,0.000000,4.000000,86.000000,,,,0.000000,4.000000,4.000000,4.000000,4.000000,4.000000,100.000000,,,,,,,,,,,,,,,,,,,,,,,,,,,,,,,,,,,,,,,,,,,,,,,,,,,,,,,,,,,,,,,
1656264897.009164,29.000000,0.000000,4291.794922,4233.333496,4083.076904,4094.871826,4217.948730,0.000000,4.000000,86.000000,,,,0.000000,4.000000,4.000000,4.000000,4.000000,4.000000,100.000000,,,,,,,,,,,,,,,,,,,,,,,,,,,,,,,,,,,,,,,,,,,,,,,,,,,,,,,,,,,,,,,
1656264897.017078,30.000000,0.000000,4292.820313,4241.538574,4094.358887,4093.333252,4211.794922,0.000000,4.000000,86.000000,,,,0.000000,4.000000,4.000000,4.000000,4.000000,4.000000,100.000000,,,,,,,,,,,,,,,,,,,,,,,,,,,,,,,,,,,,,,,,,,,,,,,,,,,,,,,,,,,,,,,
1656264897.024892,31.000000,0.000000,4287.179688,4252.820313,4098.974121,4095.897461,4224.615234,0.000000,4.000000,86.000000,,,,0.000000,4.000000,4.000000,4.000000,4.000000,4.000000,100.000000,,,,,,,,,,,,,,,,,,,,,,,,,,,,,,,,,,,,,,,,,,,,,,,,,,,,,,,,,,,,,,,
1656264897.032707,32.000000,0.000000,4291.794922,4229.230957,4098.461426,4100.512695,4215.897461,0.000000,4.000000,86.000000,,,,0.000000,4.000000,4.000000,4.000000,4.000000,4.000000,100.000000,,,,,,,,,,,,,,,,,,,,,,,,,,,,,,,,,,,,,,,,,,,,,,,,,,,,,,,,,,,,,,,
1656264897.040621,33.000000,0.000000,4288.717773,4236.922852,4085.641113,4106.666504,4218.461426,0.000000,4.000000,86.000000,,,,0.000000,4.000000,4.000000,4.000000,4.000000,4.000000,100.000000,,,,,,,,,,,,,,,,,,,,,,,,,,,,,,,,,,,,,,,,,,,,,,,,,,,,,,,,,,,,,,,
1656264897.048535,34.000000,0.000000,4277.436035,4259.487305,4070.769287,4104.615234,4229.230957,0.000000,4.000000,86.000000,,,,0.000000,4.000000,4.000000,4.000000,4.000000,4.000000,100.000000,,,,,,,,,,,,,,,,,,,,,,,,,,,,,,,,,,,,,,,,,,,,,,,,,,,,,,,,,,,,,,,
1656264897.056350,35.000000,0.000000,4287.692383,4249.230957,4072.307617,4106.666504,4231.794922,0.000000,4.000000,86.000000,,,,0.000000,4.000000,4.000000,4.000000,4.000000,4.000000,100.000000,,,,,,,,,,,,,,,,,,,,,,,,,,,,,,,,,,,,,,,2.858499,2.026721,1.045375,2.030628,6.575094,1.591391,2.249435,2.972177,2.569354,7.325981,7.132822,4.232123,3.791044,1.541565,5.753695,2.231684,4.758545,2.994285,2.186435,5.923232,3.299986,1.763687,2.565654,3.884653,6.021022
1656264897.064264,36.000000,0.000000,4298.974121,4247.692383,4086.153809,4111.282227,4240.000000,0.000000,4.000000,86.000000,,,,0.000000,4.000000,4.000000,4.000000,4.000000,4.000000,100.000000,,,,,,,,,,,,,,,,,,,,,,,,,,,,,,,,,,,,,,,,,,,,,,,,,,,,,,,,,,,,,,,
1656264897.072079,37.000000,0.000000,4300.512695,4262.051270,4088.718018,4104.102539,4241.538574,0.000000,4.000000,86.000000,,,,0.000000,4.000000,4.000000,4.000000,4.000000,4.000000,100.000000,,,,,,,,,,,,,,,,,,,,,,,,,,,,,,,,,,,,,,,,,,,,,,,,,,,,,,,,,,,,,,,
1656264897.079993,38.000000,0.000000,4319.487305,4262.563965,4080.512939,4108.205078,4246.153809,0.000000,4.000000,86.000000,,,,0.000000,4.000000,4.000000,4.000000,4.000000,4.000000,100.000000,,,,,,,,,,,,,,,,,,,,,,,,,,,,,,,,,,,,,,,,,,,,,,,,,,,,,,,,,,,,,,,
1656264897.087807,39.000000,0.000000,4315.897461,4248.717773,4072.820557,4105.128418,4256.922852,0.000000,4.000000,86.000000,,,,0.000000,4.000000,4.000000,4.000000,4.000000,4.000000,100.000000,,,,,,,,,,,,,,,,,,,,,,,,,,,,,,,,,,,,,,,,,,,,,,,,,,,,,,,,,,,,,,,
1656264897.095722,40.000000,0.000000,4288.717773,4247.692383,4078.461426,4083.076904,4248.205078,0.000000,4.000000,86.000000,,,,0.000000,4.000000,4.000000,4.000000,4.000000,4.000000,100.000000,,,,,,,,,,,,,,,,,,,,,,,,,,,,,,,,,,,,,,,,,,,,,,,,,,,,,,,,,,,,,,,
1656264897.103636,41.000000,0.000000,4312.307617,4245.128418,4085.641113,4103.589844,4240.000000,0.000000,4.000000,86.000000,,,,0.000000,4.000000,4.000000,4.000000,4.000000,4.000000,100.000000,,,,,,,,,,,,,,,,,,,,,,,,,,,,,,,,,,,,,,,,,,,,,,,,,,,,,,,,,,,,,,,
1656264897.111450,42.000000,0.000000,4333.846191,4235.384766,4060.512939,4141.538574,4251.794922,0.000000,4.000000,86.000000,,,,0.000000,4.000000,4.000000,4.000000,4.000000,4.000000,100.000000,,,,,,,,,,,,,,,,,,,,,,,,,,,,,,,,,,,,,,,,,,,,,,,,,,,,,,,,,,,,,,,
1656264897.119365,43.000000,0.000000,4303.077148,4247.692383,4051.281982,4129.743652,4256.410156,0.000000,4.000000,86.000000,,,,0.000000,4.000000,4.000000,4.000000,4.000000,4.000000,100.000000,,,,,,,,,,,,,,,,,,,,,,,,,,,,,,,,,,,,,,,,,,,,,,,,,,,,,,,,,,,,,,,
1656264897.127179,44.000000,0.000000,4289.743652,4254.358887,4081.025635,4101.538574,4237.436035,0.000000,4.000000,86.000000,,,,0.000000,4.000000,4.000000,4.000000,4.000000,4.000000,100.000000,,,,,,,,,,,,,,,,,,,,,,,,,,,,,,,,,,,,,,,,,,,,,,,,,,,,,,,,,,,,,,,
1656264897.134993,45.000000,0.000000,4304.102539,4243.077148,4092.307617,4102.051270,4224.102539,0.000000,4.000000,86.000000,,,,0.000000,4.000000,4.000000,4.000000,4.000000,4.000000,100.000000,,,,,,,,,,,,,,,,,,,,,,,,,,,,,,,,,,,,,,,,,,,,,,,,,,,,,,,,,,,,,,,
1656264897.142908,46.000000,0.000000,4299.487305,4250.256348,4092.307617,4105.128418,4222.563965,0.000000,4.000000,86.000000,,,,0.000000,4.000000,4.000000,4.000000,4.000000,4.000000,100.000000,,,,,,,,,,,,,,,,,,,,,,,,,,,,,,,,,,,,,,,,,,,,,,,,,,,,,,,,,,,,,,,
1656264897.150822,47.000000,0.000000,4283.589844,4257.948730,4094.358887,4094.358887,4218.974121,0.000000,4.000000,86.000000,,,,0.000000,4.000000,4.000000,4.000000,4.000000,4.000000,100.000000,,,,,,,,,,,,,,,,,,,,,,,,,,,,,,,,,,,,,,,,,,,,,,,,,,,,,,,,,,,,,,,
1656264897.158636,48.000000,0.000000,4288.205078,4248.717773,4092.307617,4098.974121,4231.282227,0.000000,4.000000,86.000000,,,,0.000000,4.000000,4.000000,4.000000,4.000000,4.000000,100.000000,,,,,,,,,,,,,,,,,,,,,,,,,,,,,,,,,,,,,,,,,,,,,,,,,,,,,,,,,,,,,,,
1656264897.166451,49.000000,0.000000,4297.436035,4241.538574,4098.461426,4115.384766,4240.512695,0.000000,4.000000,86.000000,,,,0.000000,4.000000,4.000000,4.000000,4.000000,4.000000,100.000000,,,,,,,,,,,,,,,,,,,,,,,,,,,,,,,,,,,,,,,,,,,,,,,,,,,,,,,,,,,,,,,
1656264897.174365,50.000000,0.000000,4305.641113,4234.871582,4097.948730,4109.230957,4225.128418,0.000000,4.000000,86.000000,,,,0.000000,4.000000,4.000000,4.000000,4.000000,4.000000,100.000000,,,,,,,,,,,,,,,,,,,,,,,,,,,,,,,,,,,,,,,,,,,,,,,,,,,,,,,,,,,,,,,
1656264897.182179,51.000000,0.000000,4301.025879,4247.692383,4078.461426,4090.769287,4220.512695,0.000000,4.000000,86.000000,,,,0.000000,4.000000,4.000000,4.000000,4.000000,4.000000,100.000000,,,,,,,,,,,,,,,,,,,,,,,,,,,,,,,,,,,,,,,2.606539,1.726901,1.121537,1.770843,4.027806,1.483269,1.740788,3.657490,2.084795,4.711501,6.837551,3.492028,3.854046,1.532351,3.823382,1.962685,4.092599,3.078969,1.851585,3.665969,3.090368,1.447249,3.211583,3.386452,3.617347
1656264897.190094,52.000000,0.000000,4264.615234,4267.179688,4086.666748,4077.948730,4218.461426,0.000000,4.000000,86.000000,,,,0.000000,4.000000,4.000000,4.000000,4.000000,4.000000,100.000000,,,,,,,,,,,,,,,,,,,,,,,,,,,,,,,,,,,,,,,,,,,,,,,,,,,,,,,,,,,,,,,
1656264897.197908,53.000000,0.000000,4258.461426,4253.333496,4128.717773,4085.128174,4211.794922,0.000000,4.000000,86.000000,,,,0.000000,4.000000,4.000000,4.000000,4.000000,4.000000,100.000000,,,,,,,,,,,,,,,,,,,,,,,,,,,,,,,,,,,,,,,,,,,,,,,,,,,,,,,,,,,,,,,
1656264897.205823,54.000000,0.000000,4283.589844,4232.820313,4137.948730,4089.230713,4213.846191,0.000000,4.000000,86.000000,,,,0.000000,4.000000,4.000000,4.000000,4.000000,4.000000,100.000000,,,,,,,,,,,,,,,,,,,,,,,,,,,,,,,,,,,,,,,,,,,,,,,,,,,,,,,,,,,,,,,
1656264897.213737,55.000000,0.000000,4281.025879,4225.641113,4114.871582,4073.846191,4208.717773,0.000000,4.000000,86.000000,,,,0.000000,4.000000,4.000000,4.000000,4.000000,4.000000,100.000000,,,,,,,,,,,,,,,,,,,,,,,,,,,,,,,,,,,,,,,,,,,,,,,,,,,,,,,,,,,,,,,
1656264897.221551,56.000000,0.000000,4275.384766,4246.153809,4099.487305,4084.102539,4225.641113,0.000000,4.000000,86.000000,,,,0.000000,4.000000,4.000000,4.000000,4.000000,4.000000,100.000000,,,,,,,,,,,,,,,,,,,,,,,,,,,,,,,,,,,,,,,,,,,,,,,,,,,,,,,,,,,,,,,
1656264897.229366,57.000000,0.000000,4257.948730,4276.922852,4081.025635,4096.410156,4251.282227,0.000000,4.000000,86.000000,,,,0.000000,4.000000,4.000000,4.000000,4.000000,4.000000,100.000000,,,,,,,,,,,,,,,,,,,,,,,,,,,,,,,,,,,,,,,,,,,,,,,,,,,,,,,,,,,,,,,
1656264897.237180,58.000000,0.000000,4235.897461,4265.641113,4074.871826,4077.435791,4234.358887,0.000000,4.000000,86.000000,,,,0.000000,4.000000,4.000000,4.000000,4.000000,4.000000,100.000000,,,,,,,,,,,,,,,,,,,,,,,,,,,,,,,,,,,,,,,,,,,,,,,,,,,,,,,,,,,,,,,
1656264897.245094,59.000000,0.000000,4244.615234,4242.563965,4084.102539,4065.641113,4208.205078,0.000000,4.000000,86.000000,,,,0.000000,4.000000,4.000000,4.000000,4.000000,4.000000,100.000000,,,,,,,,,,,,,,,,,,,,,,,,,,,,,,,,,,,,,,,,,,,,,,,,,,,,,,,,,,,,,,,
1656264897.252909,60.000000,0.000000,4240.512695,4243.589844,4078.461426,4059.487061,4204.102539,0.000000,4.000000,86.000000,,,,0.000000,4.000000,4.000000,4.000000,4.000000,4.000000,100.000000,,,,,,,,,,,,,,,,,,,,,,,,,,,,,,,,,,,,,,,,,,,,,,,,,,,,,,,,,,,,,,,
1656264897.260823,61.000000,0.000000,4231.794922,4247.692383,4083.589844,4066.153809,4211.794922,0.000000,4.000000,86.000000,,,,0.000000,4.000000,4.000000,4.000000,4.000000,4.000000,100.000000,,,,,,,,,,,,,,,,,,,,,,,,,,,,,,,,,,,,,,,,,,,,,,,,,,,,,,,,,,,,,,,
1656264897.268637,62.000000,0.000000,4262.563965,4229.743652,4100.512695,4090.256348,4214.871582,0.000000,4.000000,86.000000,,,,0.000000,4.000000,4.000000,4.000000,4.000000,4.000000,100.000000,,,,,,,,,,,,,,,,,,,,,,,,,,,,,,,,,,,,,,,,,,,,,,,,,,,,,,,,,,,,,,,
1656264897.276552,63.000000,0.000000,4288.205078,4214.358887,4108.717773,4099.487305,4212.820313,0.000000,4.000000,86.000000,,,,0.000000,4.000000,4.000000,4.000000,4.000000,4.000000,100.000000,,,,,,,,,,,,,,,,,,,,,,,,,,,,,,,,,,,,,,,,,,,,,,,,,,,,,,,,,,,,,,,
1656264897.284366,64.000000,0.000000,4275.384766,4242.051270,4102.051270,4100.000000,4230.256348,450.000000,4.000000,86.000000,,,,0.000000,4.000000,4.000000,4.000000,4.000000,4.000000,100.000000,,,,,,,,,,,,,,,,,,,,,,,,,,,,,,,,,,,,,,,,,,,,,,,,,,,,,,,,,,,,,,,
1656264897.292280,65.000000,0.000000,4245.641113,4255.897461,4077.435791,4091.281982,4238.461426,450.000000,4.000000,86.000000,,,,0.000000,4.000000,4.000000,4.000000,4.000000,4.000000,100.000000,,,,,,,,,,,,,,,,,,,,,,,,,,,,,,,,,,,,,,,,,,,,,,,,,,,,,,,,,,,,,,,
1656264897.300095,66.000000,0.000000,4242.563965,4231.794922,4064.615479,4087.692383,4226.666504,16196.000000,4.000000,86.000000,,,,0.000000,4.000000,4.000000,4.000000,4.000000,4.000000,100.000000,,,,,,,,,,,,,,,,,,,,,,,,,,,,,,,,,,,,,,,,,,,,,,,,,,,,,,,,,,,,,,,
1656264897.308009,67.000000,0.000000,4252.307617,4244.102539,4053.333252,4095.897461,4237.948730,450.000000,4.000000,86.000000,,,,0.000000,4.000000,4.000000,4.000000,4.000000,4.000000,100.000000,1.000000,25.000000,1.000000,1.000000,1.000000,1.000000,1.000000,,,,,,,,,,,,,,,,,,,,,,,,,,,,,,,,2.481960,1.554681,1.155430,1.554572,2.769851,1.391107,1.667073,4.317554,1.718834,3.480752,6.435161,2.924398,4.241472,1.570202,2.935981,1.989034,3.384754,2.997277,1.605124,2.578610,2.778584,1.248660,3.790469,2.909132,2.423321
1656264897.315824,68.000000,0.000000,4242.051270,4268.717773,4052.307617,4083.076904,4239.487305,16208.000000,4.000000,86.000000,,,,0.000000,4.000000,4.000000,4.000000,4.000000,4.000000,100.000000,,,,,,,,,,,,,,,,,,,,,,,,,,,,,,,,,,,,,,,,,,,,,,,,,,,,,,,,,,,,,,,
1656264897.323738,69.000000,0.000000,4252.820313,4246.666504,4076.410156,4088.205078,4230.256348,450.000000,4.000000,86.000000,,,,0.000000,4.000000,4.000000,4.000000,4.000000,4.000000,100.000000,,,,,,,,,,,,,,,,,,,,,,,,,,,,,,,,,,,,,,,,,,,,,,,,,,,,,,,,,,,,,,,
1656264897.331552,70.000000,0.000000,4276.410156,4241.538574,4075.897461,4128.717773,4255.897461,16170.000000,4.000000,86.000000,,,,0.000000,4.000000,4.000000,4.000000,4.000000,4.000000,100.000000,,,,,,,,,,,,,,,,,,,,,,,,,,,,,,,,,,,,,,,,,,,,,,,,,,,,,,,,,,,,,,,
1656264897.339467,71.000000,0.000000,4267.179688,4273.333496,4078.974365,4133.846191,4267.179688,450.000000,4.000000,86.000000,,,,0.000000,4.000000,4.000000,4.000000,4.000000,4.000000,100.000000,,,,,,,,,,,,,,,,,,,,,,,,,,,,,,,,,,,,,,,,,,,,,,,,,,,,,,,,,,,,,,,
1656264897.347281,72.000000,0.000000,4266.666504,4253.846191,4118.974121,4108.205078,4229.230957,450.000000,4.000000,86.000000,,,,0.000000,4.000000,4.000000,4.000000,4.000000,4.000000,100.000000,,,,,,,,,,,,,,,,,,,,,,,,,,,,,,,,,,,,,,,,,,,,,,,,,,,,,,,,,,,,,,,
1656264897.355195,73.000000,0.000000,4287.179688,4227.179688,4131.794922,4102.563965,4209.230957,16188.000000,4.000000,86.000000,,,,0.000000,4.000000,4.000000,4.000000,4.000000,4.000000,100.000000,,,,,,,,,,,,,,,,,,,,,,,,,,,,,,,,,,,,,,,,,,,,,,,,,,,,,,,,,,,,,,,
1656264897.363110,74.000000,0.000000,4295.897461,4246.153809,4115.384766,4111.282227,4230.256348,450.000000,4.000000,86.000000,,,,0.000000,4.000000,4.000000,4.000000,4.000000,4.000000,100.000000,,,,,,,,,,,,,,,,,,,,,,,,,,,,,,,,,,,,,,,,,,,,,,,,,,,,,,,,,,,,,,,
1656264897.370924,75.000000,0.000000,4293.846191,4255.384766,4103.589844,4120.000000,4252.820313,16193.000000,4.000000,86.000000,,,,0.000000,4.000000,4.000000,4.000000,4.000000,4.000000,100.000000,,,,,,,,,,,,,,,,,,,,,,,,,,,,,,,,,,,,,,,,,,,,,,,,,,,,,,,,,,,,,,,
1656264897.378838,76.000000,0.000000,4296.922852,4257.948730,4095.384521,4131.794922,4273.846191,450.000000,4.000000,86.000000,,,,0.000000,4.000000,4.000000,4.000000,4.000000,4.000000,100.000000,,,,,,,,,,,,,,,,,,,,,,,,,,,,,,,,,,,,,,,,,,,,,,,,,,,,,,,,,,,,,,,
1656264897.386653,77.000000,0.000000,4298.461426,4250.256348,4106.666504,4119.487305,4264.102539,450.000000,4.000000,86.000000,,,,0.000000,4.000000,4.000000,4.000000,4.000000,4.000000,100.000000,,,,,,,,,,,,,,,,,,,,,,,,,,,,,,,,,,,,,,,,,,,,,,,,,,,,,,,,,,,,,,,
1656264897.394467,78.000000,0.000000,4289.230957,4215.384766,4116.922852,4090.256348,4212.820313,450.000000,4.000000,86.000000,,,,0.000000,4.000000,4.000000,4.000000,4.000000,4.000000,100.000000,,,,,,,,,,,,,,,,,,,,,,,,,,,,,,,,,,,,,,,,,,,,,,,,,,,,,,,,,,,,,,,
1656264897.402381,79.000000,0.000000,4280.512695,4221.025879,4089.230713,4097.948730,4208.205078,16193.000000,4.000000,86.000000,,,,0.000000,4.000000,4.000000,4.000000,4.000000,4.000000,100.000000,,,,,,,,,,,,,,,,,,,,,,,,,,,,,,,,,,,,,,,,,,,,,,,,,,,,,,,,,,,,,,,
1656264897.410296,80.000000,0.000000,4262.051270,4261.538574,4059.487061,4111.282227,4252.820313,450.000000,4.000000,86.000000,,,,0.000000,4.000000,4.000000,4.000000,4.000000,4.000000,100.000000,,,,,,,,,,,,,,,,,,,,,,,,,,,,,,,,,,,,,,,,,,,,,,,,,,,,,,,,,,,,,,,
1656264897.418110,81.000000,0.000000,4252.820313,4272.307617,4081.025635,4107.179688,4270.256348,450.000000,4.000000,86.000000,,,,0.000000,4.000000,4.000000,4.000000,4.000000,4.000000,100.000000,,,,,,,,,,,,,,,,,,,,,,,,,,,,,,,,,,,,,,,,,,,,,,,,,,,,,,,,,,,,,,,
1656264897.426024,82.000000,0.000000,4262.051270,4256.410156,4123.589844,4096.410156,4243.589844,450.000000,4.000000,86.000000,,,,0.000000,4.000000,4.000000,4.000000,4.000000,4.000000,100.000000,,,,,,,,,,,,,,,,,,,,,,,,,,,,,,,,,,,,,,,,,,,,,,,,,,,,,,,,,,,,,,,
1656264897.433839,83.000000,0.000000,4271.794922,4233.846191,4131.282227,4084.615479,4216.922852,16193.000000,4.000000,86.000000,,,,0.000000,4.000000,4.000000,4.000000,4.000000,4.000000,100.000000,,,,,,,,,,,,,,,,,,,,,,,,,,,,,,,,,,,,,,,2.372975,1.569546,1.146597,1.379685,2.533988,1.303776,2.022037,4.703571,1.467205,3.325720,5.837106,2.527252,4.793042,1.615482,2.811859,2.222600,2.866527,2.806416,1.466768,2.406757,2.483774,1.173381,4.183751,2.524857,2.181660
1656264897.441753,84.000000,0.000000,4285.128418,4246.153809,4111.794922,4095.897461,4240.000000,450.000000,4.000000,86.000000,,,,0.000000,4.000000,4.000000,4.000000,4.000000,4.000000,100.000000,,,,,,,,,,,,,,,,,,,,,,,,,,,,,,,,,,,,,,,,,,,,,,,,,,,,,,,,,,,,,,,
1656264897.449568,85.000000,0.000000,4270.256348,4286.666504,4096.410156,4091.794922,4258.461426,450.000000,4.000000,86.000000,,,,0.000000,4.000000,4.000000,4.000000,4.000000,4.000000,100.000000,,,,,,,,,,,,,,,,,,,,,,,,,,,,,,,,,,,,,,,,,,,,,,,,,,,,,,,,,,,,,,,
1656264897.457482,86.000000,0.000000,4258.461426,4277.436035,4101.538574,4069.743652,4236.922852,450.000000,4.000000,86.000000,,,,0.000000,4.000000,4.000000,4.000000,4.000000,4.000000,100.000000,,,,,,,,,,,,,,,,,,,,,,,,,,,,,,,,,,,,,,,,,,,,,,,,,,,,,,,,,,,,,,,
1656264897.465296,87.000000,0.000000,4288.205078,4258.461426,4109.230957,4089.230713,4248.205078,16193.000000,4.000000,86.000000,,,,0.000000,4.000000,4.000000,4.000000,4.000000,4.000000,100.000000,,,,,,,,,,,,,,,,,,,,,,,,,,,,,,,,,,,,,,,,,,,,,,,,,,,,,,,,,,,,,,,
1656264897.473211,88.000000,0.000000,4309.230957,4279.487305,4095.897461,4121.538574,4290.256348,450.000000,4.000000,86.000000,,,,0.000000,4.000000,4.000000,4.000000,4.000000,4.000000,100.000000,,,,,,,,,,,,,,,,,,,,,,,,,,,,,,,,,,,,,,,,,,,,,,,,,,,,,,,,,,,,,,,
1656264897.481025,89.000000,0.000000,4292.820313,4288.717773,4076.923096,4107.692383,4284.615234,450.000000,4.000000,86.000000,,,,0.000000,4.000000,4.000000,4.000000,4.000000,4.000000,100.000000,,,,,,,,,,,,,,,,,,,,,,,,,,,,,,,,,,,,,,,,,,,,,,,,,,,,,,,,,,,,,,,
1656264897.488939,90.000000,0.000000,4273.846191,4249.743652,4084.102539,4071.794922,4237.948730,450.000000,4.000000,86.000000,,,,0.000000,4.000000,4.000000,4.000000,4.000000,4.000000,100.000000,,,,,,,,,,,,,,,,,,,,,,,,,,,,,,,,,,,,,,,,,,,,,,,,,,,,,,,,,,,,,,,
1656264897.496754,91.000000,0.000000,4278.974121,4224.615234,4095.384521,4071.794922,4225.641113,16193.000000,4.000000,86.000000,,,,0.000000,4.000000,4.000000,4.000000,4.000000,4.000000,100.000000,,,,,,,,,,,,,,,,,,,,,,,,,,,,,,,,,,,,,,,,,,,,,,,,,,,,,,,,,,,,,,,
1656264897.504668,92.000000,0.000000,4285.128418,4246.153809,4080.512939,4089.743652,4244.102539,450.000000,4.000000,86.000000,,,,0.000000,4.000000,4.000000,4.000000,4.000000,4.000000,100.000000,,,,,,,,,,,,,,,,,,,,,,,,,,,,,,,,,,,,,,,,,,,,,,,,,,,,,,,,,,,,,,,
1656264897.512482,93.000000,0.000000,4269.230957,4257.436035,4069.230713,4086.153809,4238.461426,450.000000,4.000000,86.000000,,,,0.000000,4.000000,4.000000,4.000000,4.000000,4.000000,100.000000,,,,,,,,,,,,,,,,,,,,,,,,,,,,,,,,,,,,,,,,,,,,,,,,,,,,,,,,,,,,,,,
1656264897.520397,94.000000,0.000000,4248.717773,4244.615234,4093.333252,4075.384521,4217.436035,450.000000,4.000000,86.000000,,,,0.000000,4.000000,4.000000,4.000000,4.000000,4.000000,100.000000,,,,,,,,,,,,,,,,,,,,,,,,,,,,,,,,,,,,,,,,,,,,,,,,,,,,,,,,,,,,,,,
1656264897.528211,95.000000,0.000000,4253.846191,4228.717773,4123.077148,4075.897461,4208.205078,16193.000000,4.000000,86.000000,,,,0.000000,4.000000,4.000000,4.000000,4.000000,4.000000,100.000000,,,,,,,,,,,,,,,,,,,,,,,,,,,,,,,,,,,,,,,,,,,,,,,,,,,,,,,,,,,,,,,
1656264897.536125,96.000000,0.000000,4269.230957,4227.179688,4115.384766,4078.461426,4217.436035,450.000000,4.000000,86.000000,,,,0.000000,4.000000,4.000000,4.000000,4.000000,4.000000,100.000000,,,,,,,,,,,,,,,,,,,,,,,,,,,,,,,,,,,,,,,,,,,,,,,,,,,,,,,,,,,,,,,
1656264897.544040,97.000000,0.000000,4263.589844,4247.179688,4091.794922,4072.307617,4232.820313,450.000000,4.000000,86.000000,,,,0.000000,4.000000,4.000000,4.000000,4.000000,4.000000,100.000000,,,,,,,,,,,,,,,,,,,,,,,,,,,,,,,,,,,,,,,,,,,,,,,,,,,,,,,,,,,,,,,
1656264897.551854,98.000000,0.000000,4249.230957,4246.666504,4086.666748,4059.487061,4218.461426,450.000000,4.000000,86.000000,,,,0.000000,4.000000,4.000000,4.000000,4.000000,4.000000,100.000000,,,,,,,,,,,,,,,,,,,,,,,,,,,,,,,,,,,,,,,,,,,,,,,,,,,,,,,,,,,,,,,
1656264897.559768,99.000000,0.000000,4256.922852,4223.589844,4097.436035,4057.435791,4194.871582,16193.000000,4.000000,86.000000,,,,0.000000,4.000000,4.000000,4.000000,4.000000,4.000000,100.000000,,,,,,,,,,,,,,,,,,,,,,,,,,,,,,,,,,,,,,,2.321883,1.785915,1.100598,1.251933,2.717999,1.205453,2.615765,4.637891,1.290676,3.580834,5.306479,2.213023,5.340544,1.624803,2.919996,2.559098,2.604650,2.547934,1.426614,2.591554,2.339424,1.179597,4.282321,2.248811,2.314672
1656264897.567583,100.000000,0.000000,4278.461426,4238.461426,4077.948730,4094.871826,4233.846191,450.000000,4.000000,86.000000,,,,0.000000,4.000000,4.000000,4.000000,4.000000,4.000000,100.000000,,,,,,,,,,,,,,,,,,,,,,,,,,,,,,,,,,,,,,,,,,,,,,,,,,,,,,,,,,,,,,,
1656264897.575497,101.000000,0.000000,4283.077148,4278.974121,4037.435791,4133.846191,4295.897461,450.000000,4.000000,86.000000,,,,0.000000,4.000000,4.000000,4.000000,4.000000,4.000000,100.000000,,,,,,,,,,,,,,,,,,,,,,,,,,,,,,,,,,,,,,,,,,,,,,,,,,,,,,,,,,,,,,,
1656264897.583312,102.000000,0.000000,4276.922852,4277.948730,4061.538574,4118.461426,4286.666504,450.000000,4.000000,86.000000,,,,0.000000,4.000000,4.000000,4.000000,4.000000,4.000000,100.000000,,,,,,,,,,,,,,,,,,,,,,,,,,,,,,,,,,,,,,,,,,,,,,,,,,,,,,,,,,,,,,,
1656264897.591226,103.000000,0.000000,4268.205078,4246.666504,4110.769043,4078.974365,4237.436035,16193.000000,4.000000,86.000000,,,,0.000000,4.000000,4.000000,4.000000,4.000000,4.000000,100.000000,,,,,,,,,,,,,,,,,,,,,,,,,,,,,,,,,,,,,,,,,,,,,,,,,,,,,,,,,,,,,,,
1656264897.599040,104.000000,0.000000,4263.077148,4231.794922,4100.512695,4065.641113,4230.256348,450.000000,4.000000,86.000000,,,,0.000000,4.000000,4.000000,4.000000,4.000000,4.000000,100.000000,,,,,,,,,,,,,,,,,,,,,,,,,,,,,,,,,,,,,,,,,,,,,,,,,,,,,,,,,,,,,,,
1656264897.606955,105.000000,0.000000,4284.102539,4229.230957,4073.846191,4078.461426,4243.077148,450.000000,4.000000,86.000000,,,,0.000000,4.000000,4.000000,4.000000,4.000000,4.000000,100.000000,,,,,,,,,,,,,,,,,,,,,,,,,,,,,,,,,,,,,,,,,,,,,,,,,,,,,,,,,,,,,,,
1656264897.614769,106.000000,0.000000,4289.743652,4227.692383,4081.025635,4083.589844,4228.205078,450.000000,4.000000,86.000000,,,,0.000000,4.000000,4.000000,4.000000,4.000000,4.000000,100.000000,,,,,,,,,,,,,,,,,,,,,,,,,,,,,,,,,,,,,,,,,,,,,,,,,,,,,,,,,,,,,,,
1656264897.622683,107.000000,0.000000,4278.461426,4223.589844,4108.205078,4085.128174,4218.461426,16193.000000,4.000000,86.000000,,,,0.000000,4.000000,4.000000,4.000000,4.000000,4.000000,100.000000,,,,,,,,,,,,,,,,,,,,,,,,,,,,,,,,,,,,,,,,,,,,,,,,,,,,,,,,,,,,,,,
1656264897.630498,108.000000,0.000000,4301.025879,4228.205078,4101.025879,4114.871582,4252.820313,450.000000,4.000000,86.000000,,,,0.000000,4.000000,4.000000,4.000000,4.000000,4.000000,100.000000,,,,,,,,,,,,,,,,,,,,,,,,,,,,,,,,,,,,,,,,,,,,,,,,,,,,,,,,,,,,,,,
1656264897.638412,109.000000,0.000000,4311.794922,4258.461426,4082.051270,4135.384766,4285.128418,450.000000,4.000000,86.000000,,,,0.000000,4.000000,4.000000,4.000000,4.000000,4.000000,100.000000,,,,,,,,,,,,,,,,,,,,,,,,,,,,,,,,,,,,,,,,,,,,,,,,,,,,,,,,,,,,,,,
1656264897.646226,110.000000,0.000000,4292.307617,4264.102539,4105.641113,4105.128418,4259.487305,450.000000,4.000000,86.000000,,,,0.000000,4.000000,4.000000,4.000000,4.000000,4.000000,100.000000,,,,,,,,,,,,,,,,,,,,,,,,,,,,,,,,,,,,,,,,,,,,,,,,,,,,,,,,,,,,,,,
1656264897.654141,111.000000,0.000000,4290.769043,4233.333496,4115.897461,4071.794922,4229.743652,16193.000000,4.000000,86.000000,,,,0.000000,4.000000,4.000000,4.000000,4.000000,4.000000,100.000000,,,,,,,,,,,,,,,,,,,,,,,,,,,,,,,,,,,,,,,,,,,,,,,,,,,,,,,,,,,,,,,
1656264897.662055,112.000000,0.000000,4307.179688,4244.102539,4099.487305,4088.205078,4248.717773,450.000000,4.000000,86.000000,,,,0.000000,4.000000,4.000000,4.000000,4.000000,4.000000,100.000000,,,,,,,,,,,,,,,,,,,,,,,,,,,,,,,,,,,,,,,,,,,,,,,,,,,,,,,,,,,,,,,
1656264897.669869,113.000000,0.000000,4324.102539,4264.102539,4114.871582,4120.512695,4263.077148,450.000000,4.000000,86.000000,,,,0.000000,4.000000,4.000000,4.000000,4.000000,4.000000,100.000000,,,,,,,,,,,,,,,,,,,,,,,,,,,,,,,,,,,,,,,,,,,,,,,,,,,,,,,,,,,,,,,
1656264897.677684,114.000000,0.000000,4322.563965,4246.666504,4137.948730,4119.487305,4250.256348,450.000000,4.000000,86.000000,,,,0.000000,4.000000,4.000000,4.000000,4.000000,4.000000,100.000000,,,,,,,,,,,,,,,,,,,,,,,,,,,,,,,,,,,,,,,,,,,,,,,,,,,,,,,,,,,,,,,
1656264897.685498,115.000000,0.000000,4314.358887,4235.384766,4129.230957,4114.871582,4251.282227,16193.000000,4.000000,86.000000,,,,0.000000,4.000000,4.000000,4.000000,4.000000,4.000000,100.000000,,,,,,,,,,,,,,,,,,,,,,,,,,,,,,,,,,,,,,,2.353076,2.174308,1.034424,1.190418,2.838145,1.085943,3.198100,4.096485,1.165557,3.719516,4.987341,1.971736,5.807861,1.584878,2.875331,2.942550,2.517181,2.231016,1.473900,2.686986,2.357071,1.236581,4.044996,2.093193,2.377540
1656264897.693413,116.000000,0.000000,4322.563965,4241.025879,4101.025879,4131.282227,4264.615234,450.000000,4.000000,86.000000,,,,0.000000,4.000000,4.000000,4.000000,4.000000,4.000000,100.000000,,,,,,,,,,,,,,,,,,,,,,,,,,,,,,,,,,,,,,,,,,,,,,,,,,,,,,,,,,,,,,,
1656264897.701227,117.000000,0.000000,4330.256348,4248.717773,4079.487061,4138.974121,4268.717773,450.000000,4.000000,86.000000,,,,0.000000,4.000000,4.000000,4.000000,4.000000,4.000000,100.000000,,,,,,,,,,,,,,,,,,,,,,,,,,,,,,,,,,,,,,,,,,,,,,,,,,,,,,,,,,,,,,,
1656264897.709141,118.000000,0.000000,4318.461426,4248.205078,4075.897461,4121.538574,4257.948730,450.000000,4.000000,86.000000,,,,0.000000,4.000000,4.000000,4.000000,4.000000,4.000000,100.000000,,,,,,,,,,,,,,,,,,,,,,,,,,,,,,,,,,,,,,,,,,,,,,,,,,,,,,,,,,,,,,,
1656264897.716956,119.000000,0.000000,4310.769043,4221.538574,4085.641113,4100.000000,4233.846191,16193.000000,4.000000,86.000000,,,,0.000000,4.000000,4.000000,4.000000,4.000000,4.000000,100.000000,,,,,,,,,,,,,,,,,,,,,,,,,,,,,,,,,,,,,,,,,,,,,,,,,,,,,,,,,,,,,,,
1656264897.724870,120.000000,0.000000,4315.897461,4214.358887,4084.102539,4105.128418,4241.025879,450.000000,4.000000,86.000000,,,,0.000000,4.000000,4.000000,4.000000,4.000000,4.000000,100.000000,,,,,,,,,,,,,,,,,,,,,,,,,,,,,,,,,,,,,,,,,,,,,,,,,,,,,,,,,,,,,,,
1656264897.732684,121.000000,0.000000,4286.153809,4244.615234,4082.051270,4092.307617,4247.179688,450.000000,4.000000,86.000000,,,,0.000000,4.000000,4.000000,4.000000,4.000000,4.000000,100.000000,,,,,,,,,,,,,,,,,,,,,,,,,,,,,,,,,,,,,,,,,,,,,,,,,,,,,,,,,,,,,,,
1656264897.740599,122.000000,0.000000,4252.820313,4249.743652,4106.666504,4058.974365,4202.563965,450.000000,4.000000,86.000000,,,,0.000000,4.000000,4.000000,4.000000,4.000000,4.000000,100.000000,,,,,,,,,,,,,,,,,,,,,,,,,,,,,,,,,,,,,,,,,,,,,,,,,,,,,,,,,,,,,,,
1656264897.748413,123.000000,0.000000,4265.128418,4231.282227,4102.051270,4079.487061,4192.307617,16193.000000,4.000000,86.000000,,,,0.000000,4.000000,4.000000,4.000000,4.000000,4.000000,100.000000,,,,,,,,,,,,,,,,,,,,,,,,,,,,,,,,,,,,,,,,,,,,,,,,,,,,,,,,,,,,,,,
1656264897.756327,124.000000,0.000000,4277.948730,4236.922852,4066.666748,4120.000000,4244.102539,450.000000,4.000000,86.000000,,,,0.000000,4.000000,4.000000,4.000000,4.000000,4.000000,100.000000,,,,,,,,,,,,,,,,,,,,,,,,,,,,,,,,,,,,,,,,,,,,,,,,,,,,,,,,,,,,,,,
1656264897.764142,125.000000,0.000000,4276.922852,4253.333496,4091.794922,4117.436035,4258.461426,450.000000,4.000000,86.000000,,,,0.000000,4.000000,4.000000,4.000000,4.000000,4.000000,100.000000,,,,,,,,,,,,,,,,,,,,,,,,,,,,,,,,,,,,,,,,,,,,,,,,,,,,,,,,,,,,,,,
1656264897.772056,126.000000,0.000000,4289.230957,4235.384766,4135.384766,4100.512695,4220.512695,450.000000,4.000000,86.000000,,,,0.000000,4.000000,4.000000,4.000000,4.000000,4.000000,100.000000,,,,,,,,,,,,,,,,,,,,,,,,,,,,,,,,,,,,,,,,,,,,,,,,,,,,,,,,,,,,,,,
1656264897.779871,127.000000,0.000000,4313.846191,4215.897461,4115.384766,4114.871582,4226.666504,241.000000,4.000000,86.000000,,,,0.000000,4.000000,4.000000,4.000000,4.000000,4.000000,100.000000,,,,,,,,,,,,,,,,,,,,,,,,,,,,,,,,,,,,,,,,,,,,,,,,,,,,,,,,,,,,,,,
1656264897.787785,0.000000,0.000000,4306.666504,4243.077148,4101.538574,4108.717773,4261.025879,450.000000,4.000000,86.000000,,,,0.000000,4.000000,4.000000,4.000000,4.000000,4.000000,100.000000,,,,,,,,,,,,,,,,,,,,,,,,,,,,,,,,,,,,,,,,,,,,,,,,,,,,,,,,,,,,,,,
1656264897.795599,1.000000,0.000000,4284.102539,4262.563965,4121.025879,4069.743652,4245.641113,450.000000,4.000000,86.000000,,,,0.000000,4.000000,4.000000,4.000000,4.000000,4.000000,100.000000,,,,,,,,,,,,,,,,,,,,,,,,,,,,,,,,,,,,,,,,,,,,,,,,,,,,,,,,,,,,,,,
1656264897.803514,2.000000,0.000000,4302.051270,4250.256348,4110.769043,4082.051270,4237.948730,16196.000000,4.000000,86.000000,,,,0.000000,4.000000,4.000000,4.000000,4.000000,4.000000,100.000000,,,,,,,,,,,,,,,,,,,,,,,,,,,,,,,,,,,,,,,,,,,,,,,,,,,,,,,,,,,,,,,
1656264897.811328,3.000000,0.000000,4320.000000,4245.641113,4089.743652,4114.358887,4253.846191,450.000000,4.000000,86.000000,,,,0.000000,4.000000,4.000000,4.000000,4.000000,4.000000,100.000000,1.000000,100.000000,4.000000,4.000000,4.000000,4.000000,4.000000,,,,,,,,,,,,,,,,,,,,,,,,,,,,,,,,2.496008,2.695817,0.964617,1.213766,2.773203,1.001427,3.603393,3.231925,1.100198,3.620379,4.968149,1.920828,6.246535,1.512154,2.644049,3.342544,2.472825,1.875144,1.612769,2.591292,2.489678,1.397379,3.539272,2.082635,2.300959
1656264897.819242,4.000000,0.000000,4301.538574,4245.128418,4108.205078,4095.897461,4241.025879,16180.000000,4.000000,86.000000,,,,0.000000,4.000000,4.000000,4.000000,4.000000,4.000000,100.000000,,,,,,,,,,,,,,,,,,,,,,,,,,,,,,,,,,,,,,,,,,,,,,,,,,,,,,,,,,,,,,,
1656264897.827057,5.000000,0.000000,4286.153809,4238.974121,4144.102539,4070.256348,4222.563965,450.000000,4.000000,86.000000,,,,0.000000,4.000000,4.000000,4.000000,4.000000,4.000000,100.000000,,,,,,,,,,,,,,,,,,,,,,,,,,,,,,,,,,,,,,,,,,,,,,,,,,,,,,,,,,,,,,,
1656264897.834971,6.000000,0.000000,4284.615234,4239.487305,4149.743652,4076.923096,4230.256348,16185.000000,4.000000,86.000000,,,,0.000000,4.000000,4.000000,4.000000,4.000000,4.000000,100.000000,,,,,,,,,,,,,,,,,,,,,,,,,,,,,,,,,,,,,,,,,,,,,,,,,,,,,,,,,,,,,,,
1656264897.842885,7.000000,0.000000,4289.743652,4249.743652,4140.512695,4095.384521,4247.179688,450.000000,4.000000,86.000000,,,,0.000000,4.000000,4.000000,4.000000,4.000000,4.000000,100.000000,,,,,,,,,,,,,,,,,,,,,,,,,,,,,,,,,,,,,,,,,,,,,,,,,,,,,,,,,,,,,,,
1656264897.850700,8.000000,0.000000,4306.153809,4236.410156,4129.743652,4117.436035,4255.384766,450.000000,4.000000,86.000000,,,,0.000000,4.000000,4.000000,4.000000,4.000000,4.000000,100.000000,,,,,,,,,,,,,,,,,,,,,,,,,,,,,,,,,,,,,,,,,,,,,,,,,,,,,,,,,,,,,,,
1656264897.858514,9.000000,0.000000,4314.358887,4219.487305,4106.666504,4124.102539,4251.282227,16188.000000,4.000000,86.000000,,,,0.000000,4.000000,4.000000,4.000000,4.000000,4.000000,100.000000,,,,,,,,,,,,,,,,,,,,,,,,,,,,,,,,,,,,,,,,,,,,,,,,,,,,,,,,,,,,,,,
1656264897.866428,10.000000,0.000000,4308.205078,4240.512695,4094.871826,4106.153809,4241.025879,450.000000,4.000000,86.000000,,,,0.000000,4.000000,4.000000,4.000000,4.000000,4.000000,100.000000,,,,,,,,,,,,,,,,,,,,,,,,,,,,,,,,,,,,,,,,,,,,,,,,,,,,,,,,,,,,,,,
1656264897.874243,11.000000,0.000000,4301.025879,4251.282227,4094.358887,4095.384521,4243.589844,16199.000000,4.000000,86.000000,,,,0.000000,4.000000,4.000000,4.000000,4.000000,4.000000,100.000000,,,,,,,,,,,,,,,,,,,,,,,,,,,,,,,,,,,,,,,,,,,,,,,,,,,,,,,,,,,,,,,
1656264897.882157,12.000000,0.000000,4291.794922,4231.794922,4086.666748,4096.410156,4258.974121,450.000000,4.000000,86.000000,,,,0.000000,4.000000,4.000000,4.000000,4.000000,4.000000,100.000000,,,,,,,,,,,,,,,,,,,,,,,,,,,,,,,,,,,,,,,,,,,,,,,,,,,,,,,,,,,,,,,
1656264897.890071,13.000000,0.000000,4287.179688,4217.948730,4084.615479,4095.384521,4243.589844,450.000000,4.000000,86.000000,,,,0.000000,4.000000,4.000000,4.000000,4.000000,4.000000,100.000000,,,,,,,,,,,,,,,,,,,,,,,,,,,,,,,,,,,,,,,,,,,,,,,,,,,,,,,,,,,,,,,
1656264897.897886,14.000000,0.000000,4282.563965,4215.897461,4095.897461,4079.487061,4208.717773,450.000000,4.000000,86.000000,,,,0.000000,4.000000,4.000000,4.000000,4.000000,4.000000,100.000000,,,,,,,,,,,,,,,,,,,,,,,,,,,,,,,,,,,,,,,,,,,,,,,,,,,,,,,,,,,,,,,
1656264897.905800,15.000000,0.000000,4275.384766,4226.666504,4104.615234,4063.589844,4216.922852,16199.000000,4.000000,86.000000,,,,0.000000,4.000000,4.000000,4.000000,4.000000,4.000000,100.000000,,,,,,,,,,,,,,,,,,,,,,,,,,,,,,,,,,,,,,,,,,,,,,,,,,,,,,,,,,,,,,,
1656264897.913615,16.000000,0.000000,4271.794922,4232.820313,4103.589844,4069.743652,4231.282227,0.000000,4.000000,86.000000,,,,0.000000,4.000000,4.000000,4.000000,4.000000,4.000000,100.000000,,,,,,,,,,,,,,,,,,,,,,,,,,,,,,,,,,,,,,,,,,,,,,,,,,,,,,,,,,,,,,,
1656264897.921529,17.000000,0.000000,4284.102539,4218.974121,4108.205078,4095.384521,4217.948730,0.000000,4.000000,86.000000,,,,0.000000,4.000000,4.000000,4.000000,4.000000,4.000000,100.000000,,,,,,,,,,,,,,,,,,,,,,,,,,,,,,,,,,,,,,,,,,,,,,,,,,,,,,,,,,,,,,,
1656264897.929343,18.000000,0.000000,4285.641113,4233.846191,4115.384766,4101.538574,4222.051270,0.000000,4.000000,86.000000,,,,0.000000,4.000000,4.000000,4.000000,4.000000,4.000000,100.000000,,,,,,,,,,,,,,,,,,,,,,,,,,,,,,,,,,,,,,,,,,,,,,,,,,,,,,,,,,,,,,,
1656264897.937258,19.000000,0.000000,4258.461426,4255.384766,4117.436035,4078.461426,4230.769043,0.000000,4.000000,86.000000,,,,0.000000,4.000000,4.000000,4.000000,4.000000,4.000000,100.000000,,,,,,,,,,,,,,,,,,,,,,,,,,,,,,,,,,,,,,,2.812783,3.322806,0.919640,1.306087,2.552662,1.005732,3.815045,2.314124,1.122663,3.356397,5.145084,2.161732,6.726456,1.449192,2.345937,3.675555,2.386114,1.534950,1.874317,2.362171,2.669131,1.768364,2.939862,2.247564,2.192414
1656264897.945072,20.000000,0.000000,4261.025879,4229.743652,4111.794922,4088.718018,4226.153809,0.000000,4.000000,86.000000,,,,0.000000,4.000000,4.000000,4.000000,4.000000,4.000000,100.000000,,,,,,,,,,,,,,,,,,,,,,,,,,,,,,,,,,,,,,,,,,,,,,,,,,,,,,,,,,,,,,,
1656264897.952986,21.000000,0.000000,4267.179688,4222.051270,4082.051270,4110.769043,4225.641113,0.000000,4.000000,86.000000,,,,0.000000,4.000000,4.000000,4.000000,4.000000,4.000000,100.000000,,,,,,,,,,,,,,,,,,,,,,,,,,,,,,,,,,,,,,,,,,,,,,,,,,,,,,,,,,,,,,,
1656264897.960801,22.000000,0.000000,4243.077148,4248.205078,4058.974365,4100.512695,4222.051270,0.000000,4.000000,86.000000,,,,0.000000,4.000000,4.000000,4.000000,4.000000,4.000000,100.000000,,,,,,,,,,,,,,,,,,,,,,,,,,,,,,,,,,,,,,,,,,,,,,,,,,,,,,,,,,,,,,,
1656264897.968715,23.000000,0.000000,4234.358887,4246.666504,4075.384521,4086.153809,4219.487305,0.000000,4.000000,86.000000,,,,0.000000,4.000000,4.000000,4.000000,4.000000,4.000000,100.000000,,,,,,,,,,,,,,,,,,,,,,,,,,,,,,,,,,,,,,,,,,,,,,,,,,,,,,,,,,,,,,,
1656264897.976529,24.000000,0.000000,4238.974121,4215.897461,4098.974121,4066.666748,4210.256348,0.000000,4.000000,86.000000,,,,0.000000,4.000000,4.000000,4.000000,4.000000,4.000000,100.000000,,,,,,,,,,,,,,,,,,,,,,,,,,,,,,,,,,,,,,,,,,,,,,,,,,,,,,,,,,,,,,,
1656264897.984444,25.000000,0.000000,4245.128418,4206.666504,4099.487305,4061.538574,4205.128418,0.000000,4.000000,86.000000,,,,0.000000,4.000000,4.000000,4.000000,4.000000,4.000000,100.000000,,,,,,,,,,,,,,,,,,,,,,,,,,,,,,,,,,,,,,,,,,,,,,,,,,,,,,,,,,,,,,,
1656264897.992258,26.000000,0.000000,4253.846191,4231.282227,4066.153809,4093.846191,4231.794922,0.000000,4.000000,86.000000,,,,0.000000,4.000000,4.000000,4.000000,4.000000,4.000000,100.000000,,,,,,,,,,,,,,,,,,,,,,,,,,,,,,,,,,,,,,,,,,,,,,,,,,,,,,,,,,,,,,,
1656264898.000172,27.000000,0.000000,4242.051270,4250.769043,4043.589844,4115.897461,4257.948730,0.000000,4.000000,86.000000,,,,0.000000,4.000000,4.000000,4.000000,4.000000,4.000000,100.000000,,,,,,,,,,,,,,,,,,,,,,,,,,,,,,,,,,,,,,,,,,,,,,,,,,,,,,,,,,,,,,,
1656264898.007987,28.000000,0.000000,4217.436035,4237.436035,4085.128174,4087.692383,4229.743652,0.000000,4.000000,86.000000,,,,0.000000,4.000000,4.000000,4.000000,4.000000,4.000000,100.000000,,,,,,,,,,,,,,,,,,,,,,,,,,,,,,,,,,,,,,,,,,,,,,,,,,,,,,,,,,,,,,,
1656264898.015901,29.000000,0.000000,4229.230957,4204.615234,4130.769043,4060.000000,4182.051270,0.000000,4.000000,86.000000,,,,0.000000,4.000000,4.000000,4.000000,4.000000,4.000000,100.000000,,,,,,,,,,,,,,,,,,,,,,,,,,,,,,,,,,,,,,,,,,,,,,,,,,,,,,,,,,,,,,,
