title:david_g_Backwards, start timestamp:1656264823.322335, stop timestamp:1656264828.365624, headset type:INSIGHT, headset serial:A2D201AE, headset firmware:932, channels:84, sampling rate:eeg_128;pm_0.1;pow_8, samples:646       , version:2.1, 
Timestamp,EEG.Counter,EEG.Interpolated,EEG.AF3,EEG.T7,EEG.Pz,EEG.T8,EEG.AF4,EEG.RawCq,EEG.Battery,EEG.BatteryPercent,MarkerIndex,MarkerType,MarkerValueInt,EEG.MarkerHardware,CQ.AF3,CQ.T7,CQ.Pz,CQ.T8,CQ.AF4,CQ.Overall,EQ.SampleRateQuality,EQ.OVERALL,EQ.AF3,EQ.T7,EQ.Pz,EQ.T8,EQ.AF4,PM.Engagement.IsActive,PM.Engagement.Scaled,PM.Engagement.Raw,PM.Engagement.Min,PM.Engagement.Max,PM.Excitement.IsActive,PM.Excitement.Scaled,PM.Excitement.Raw,PM.Excitement.Min,PM.Excitement.Max,PM.LongTermExcitement,PM.Stress.IsActive,PM.Stress.Scaled,PM.Stress.Raw,PM.Stress.Min,PM.Stress.Max,PM.Relaxation.IsActive,PM.Relaxation.Scaled,PM.Relaxation.Raw,PM.Relaxation.Min,PM.Relaxation.Max,PM.Interest.IsActive,PM.Interest.Scaled,PM.Interest.Raw,PM.Interest.Min,PM.Interest.Max,PM.Focus.IsActive,PM.Focus.Scaled,PM.Focus.Raw,PM.Focus.Min,PM.Focus.Max,POW.AF3.Theta,POW.AF3.Alpha,POW.AF3.BetaL,POW.AF3.BetaH,POW.AF3.Gamma,POW.T7.Theta,POW.T7.Alpha,POW.T7.BetaL,POW.T7.BetaH,POW.T7.Gamma,POW.Pz.Theta,POW.Pz.Alpha,POW.Pz.BetaL,POW.Pz.BetaH,POW.Pz.Gamma,POW.T8.Theta,POW.T8.Alpha,POW.T8.BetaL,POW.T8.BetaH,POW.T8.Gamma,POW.AF4.Theta,POW.AF4.Alpha,POW.AF4.BetaL,POW.AF4.BetaH,POW.AF4.Gamma
1656264823.322335,74.000000,0.000000,4235.897461,4197.948730,4104.102539,4108.717773,4197.436035,450.000000,4.000000,86.000000,,,,0.000000,4.000000,4.000000,4.000000,4.000000,4.000000,100.000000,,,,,,,,,,,,,,,,,,,,,,,,,,,,,,,,,,,,,,,,,,,,,,,,,,,,,,,,,,,,,,,
1656264823.330249,75.000000,0.000000,4234.871582,4206.153809,4085.128174,4086.153809,4186.666504,16101.000000,4.000000,86.000000,,,,0.000000,4.000000,4.000000,4.000000,4.000000,4.000000,100.000000,,,,,,,,,,,,,,,,,,,,,,,,,,,,,,,,,,,,,,,,,,,,,,,,,,,,,,,,,,,,,,,
1656264823.338063,76.000000,0.000000,4156.410156,4152.307617,4056.410156,4032.820557,4134.871582,450.000000,4.000000,86.000000,,,,0.000000,4.000000,4.000000,4.000000,4.000000,4.000000,100.000000,,,,,,,,,,,,,,,,,,,,,,,,,,,,,,,,,,,,,,,,,,,,,,,,,,,,,,,,,,,,,,,
1656264823.345978,77.000000,0.000000,4112.820313,4097.436035,4038.974365,3996.410156,4098.461426,450.000000,4.000000,86.000000,,,,0.000000,4.000000,4.000000,4.000000,4.000000,4.000000,100.000000,,,,,,,,,,,,,,,,,,,,,,,,,,,,,,,,,,,,,,,,,,,,,,,,,,,,,,,,,,,,,,,
1656264823.353792,78.000000,0.000000,4172.307617,4138.461426,4076.410156,4015.384521,4129.230957,450.000000,4.000000,86.000000,,,,0.000000,4.000000,4.000000,4.000000,4.000000,4.000000,100.000000,,,,,,,,,,,,,,,,,,,,,,,,,,,,,,,,,,,,,,,,,,,,,,,,,,,,,,,,,,,,,,,
1656264823.361706,79.000000,0.000000,4222.051270,4196.410156,4116.410156,4057.435791,4164.615234,16101.000000,4.000000,86.000000,,,,0.000000,4.000000,4.000000,4.000000,4.000000,4.000000,100.000000,,,,,,,,,,,,,,,,,,,,,,,,,,,,,,,,,,,,,,,,,,,,,,,,,,,,,,,,,,,,,,,
1656264823.369521,80.000000,0.000000,4195.897461,4175.384766,4103.077148,4063.076904,4156.410156,450.000000,4.000000,86.000000,,,,0.000000,4.000000,4.000000,4.000000,4.000000,4.000000,100.000000,,,,,,,,,,,,,,,,,,,,,,,,,,,,,,,,,,,,,,,,,,,,,,,,,,,,,,,,,,,,,,,
1656264823.377435,81.000000,0.000000,4137.948730,4137.436035,4065.641113,4026.666748,4136.922852,450.000000,4.000000,86.000000,,,,0.000000,4.000000,4.000000,4.000000,4.000000,4.000000,100.000000,,,,,,,,,,,,,,,,,,,,,,,,,,,,,,,,,,,,,,,,,,,,,,,,,,,,,,,,,,,,,,,
1656264823.385349,82.000000,0.000000,4097.436035,4115.897461,4025.128174,3978.461426,4107.692383,450.000000,4.000000,86.000000,,,,0.000000,4.000000,4.000000,4.000000,4.000000,4.000000,100.000000,,,,,,,,,,,,,,,,,,,,,,,,,,,,,,,,,,,,,,,,,,,,,,,,,,,,,,,,,,,,,,,
1656264823.393164,83.000000,0.000000,4155.384766,4141.538574,4033.333252,3994.358887,4128.717773,16101.000000,4.000000,86.000000,,,,0.000000,4.000000,4.000000,4.000000,4.000000,4.000000,100.000000,,,,,,,,,,,,,,,,,,,,,,,,,,,,,,,,,,,,,,,3.431561,0.878655,2.290813,20.339062,14.224154,0.917518,1.317560,1.074563,17.697338,9.784809,5.091063,3.708173,1.187356,8.135669,6.332247,0.979039,1.195041,1.827175,18.147188,8.859463,2.733648,0.788640,2.481965,13.343073,8.575255
1656264823.400978,84.000000,0.000000,4206.153809,4178.974121,4071.281982,4044.615479,4171.282227,450.000000,4.000000,86.000000,,,,0.000000,4.000000,4.000000,4.000000,4.000000,4.000000,100.000000,,,,,,,,,,,,,,,,,,,,,,,,,,,,,,,,,,,,,,,,,,,,,,,,,,,,,,,,,,,,,,,
1656264823.408892,85.000000,0.000000,4156.410156,4167.692383,4079.487061,4042.564209,4156.922852,450.000000,4.000000,86.000000,,,,0.000000,4.000000,4.000000,4.000000,4.000000,4.000000,100.000000,,,,,,,,,,,,,,,,,,,,,,,,,,,,,,,,,,,,,,,,,,,,,,,,,,,,,,,,,,,,,,,
1656264823.416807,86.000000,0.000000,4155.384766,4166.666504,4053.846191,4033.333252,4146.666504,450.000000,4.000000,86.000000,,,,0.000000,4.000000,4.000000,4.000000,4.000000,4.000000,100.000000,,,,,,,,,,,,,,,,,,,,,,,,,,,,,,,,,,,,,,,,,,,,,,,,,,,,,,,,,,,,,,,
1656264823.424621,87.000000,0.000000,4202.563965,4183.077148,4025.128174,4062.051270,4168.205078,16101.000000,4.000000,86.000000,,,,0.000000,4.000000,4.000000,4.000000,4.000000,4.000000,100.000000,,,,,,,,,,,,,,,,,,,,,,,,,,,,,,,,,,,,,,,,,,,,,,,,,,,,,,,,,,,,,,,
1656264823.432535,88.000000,0.000000,4171.282227,4168.205078,4048.205078,4091.794922,4178.974121,450.000000,4.000000,86.000000,,,,0.000000,4.000000,4.000000,4.000000,4.000000,4.000000,100.000000,,,,,,,,,,,,,,,,,,,,,,,,,,,,,,,,,,,,,,,,,,,,,,,,,,,,,,,,,,,,,,,
1656264823.440350,89.000000,0.000000,4111.282227,4124.615234,4073.846191,4047.179443,4142.563965,450.000000,4.000000,86.000000,,,,0.000000,4.000000,4.000000,4.000000,4.000000,4.000000,100.000000,,,,,,,,,,,,,,,,,,,,,,,,,,,,,,,,,,,,,,,,,,,,,,,,,,,,,,,,,,,,,,,
1656264823.448264,90.000000,0.000000,4103.589844,4105.641113,4045.128174,3984.615479,4096.922852,450.000000,4.000000,86.000000,,,,0.000000,4.000000,4.000000,4.000000,4.000000,4.000000,100.000000,,,,,,,,,,,,,,,,,,,,,,,,,,,,,,,,,,,,,,,,,,,,,,,,,,,,,,,,,,,,,,,
1656264823.456079,91.000000,0.000000,4147.179688,4147.692383,4040.000000,4022.564209,4120.512695,16101.000000,4.000000,86.000000,,,,0.000000,4.000000,4.000000,4.000000,4.000000,4.000000,100.000000,,,,,,,,,,,,,,,,,,,,,,,,,,,,,,,,,,,,,,,,,,,,,,,,,,,,,,,,,,,,,,,
1656264823.463993,92.000000,0.000000,4191.282227,4179.487305,4067.692383,4066.153809,4158.461426,450.000000,4.000000,86.000000,,,,0.000000,4.000000,4.000000,4.000000,4.000000,4.000000,100.000000,,,,,,,,,,,,,,,,,,,,,,,,,,,,,,,,,,,,,,,,,,,,,,,,,,,,,,,,,,,,,,,
1656264823.471807,93.000000,0.000000,4187.179688,4162.563965,4063.589844,4051.281982,4162.051270,450.000000,4.000000,86.000000,,,,0.000000,4.000000,4.000000,4.000000,4.000000,4.000000,100.000000,,,,,,,,,,,,,,,,,,,,,,,,,,,,,,,,,,,,,,,,,,,,,,,,,,,,,,,,,,,,,,,
1656264823.479722,94.000000,0.000000,4129.743652,4126.153809,4021.538574,4006.153809,4144.102539,450.000000,4.000000,86.000000,,,,0.000000,4.000000,4.000000,4.000000,4.000000,4.000000,100.000000,,,,,,,,,,,,,,,,,,,,,,,,,,,,,,,,,,,,,,,,,,,,,,,,,,,,,,,,,,,,,,,
1656264823.487536,95.000000,0.000000,4076.410156,4109.230957,3995.384521,3949.743652,4095.897461,16101.000000,4.000000,86.000000,,,,0.000000,4.000000,4.000000,4.000000,4.000000,4.000000,100.000000,,,,,,,,,,,,,,,,,,,,,,,,,,,,,,,,,,,,,,,,,,,,,,,,,,,,,,,,,,,,,,,
1656264823.495450,96.000000,0.000000,4126.153809,4164.102539,4018.974365,3993.333252,4107.179688,450.000000,4.000000,86.000000,,,,0.000000,4.000000,4.000000,4.000000,4.000000,4.000000,100.000000,,,,,,,,,,,,,,,,,,,,,,,,,,,,,,,,,,,,,,,,,,,,,,,,,,,,,,,,,,,,,,,
1656264823.503265,97.000000,0.000000,4190.256348,4218.461426,4043.076904,4078.974365,4181.538574,450.000000,4.000000,86.000000,,,,0.000000,4.000000,4.000000,4.000000,4.000000,4.000000,100.000000,,,,,,,,,,,,,,,,,,,,,,,,,,,,,,,,,,,,,,,,,,,,,,,,,,,,,,,,,,,,,,,
1656264823.511179,98.000000,0.000000,4167.692383,4194.358887,4062.051270,4065.641113,4184.102539,450.000000,4.000000,86.000000,,,,0.000000,4.000000,4.000000,4.000000,4.000000,4.000000,100.000000,,,,,,,,,,,,,,,,,,,,,,,,,,,,,,,,,,,,,,,,,,,,,,,,,,,,,,,,,,,,,,,
1656264823.518993,99.000000,0.000000,4120.512695,4122.051270,4067.692383,4004.615479,4112.820313,16101.000000,4.000000,86.000000,,,,0.000000,4.000000,4.000000,4.000000,4.000000,4.000000,100.000000,,,,,,,,,,,,,,,,,,,,,,,,,,,,,,,,,,,,,,,3.129443,0.849200,1.967942,19.749191,14.454939,1.146006,1.353916,1.134383,17.639963,9.128293,4.905674,3.223045,1.224311,7.714384,6.343220,0.766093,1.022368,1.548090,18.871387,9.029458,2.570783,0.729103,2.750994,13.338261,8.808530
1656264823.526908,100.000000,0.000000,4095.384521,4069.230713,4045.641113,3976.410156,4064.615479,450.000000,4.000000,86.000000,,,,0.000000,4.000000,4.000000,4.000000,4.000000,4.000000,100.000000,,,,,,,,,,,,,,,,,,,,,,,,,,,,,,,,,,,,,,,,,,,,,,,,,,,,,,,,,,,,,,,
1656264823.534722,101.000000,0.000000,4124.102539,4125.128418,4068.205078,4016.410156,4109.230957,450.000000,4.000000,86.000000,,,,0.000000,4.000000,4.000000,4.000000,4.000000,4.000000,100.000000,,,,,,,,,,,,,,,,,,,,,,,,,,,,,,,,,,,,,,,,,,,,,,,,,,,,,,,,,,,,,,,
1656264823.542537,102.000000,0.000000,4163.077148,4201.538574,4094.358887,4062.051270,4173.333496,450.000000,4.000000,86.000000,,,,0.000000,4.000000,4.000000,4.000000,4.000000,4.000000,100.000000,,,,,,,,,,,,,,,,,,,,,,,,,,,,,,,,,,,,,,,,,,,,,,,,,,,,,,,,,,,,,,,
1656264823.550451,103.000000,0.000000,4170.769043,4196.410156,4080.512939,4030.769287,4170.256348,16101.000000,4.000000,86.000000,,,,0.000000,4.000000,4.000000,4.000000,4.000000,4.000000,100.000000,,,,,,,,,,,,,,,,,,,,,,,,,,,,,,,,,,,,,,,,,,,,,,,,,,,,,,,,,,,,,,,
1656264823.558365,104.000000,0.000000,4153.846191,4157.948730,4051.281982,3987.179443,4134.871582,450.000000,4.000000,86.000000,,,,0.000000,4.000000,4.000000,4.000000,4.000000,4.000000,100.000000,,,,,,,,,,,,,,,,,,,,,,,,,,,,,,,,,,,,,,,,,,,,,,,,,,,,,,,,,,,,,,,
1656264823.566279,105.000000,0.000000,4120.000000,4127.179688,4009.230713,3986.153809,4111.282227,450.000000,4.000000,86.000000,,,,0.000000,4.000000,4.000000,4.000000,4.000000,4.000000,100.000000,,,,,,,,,,,,,,,,,,,,,,,,,,,,,,,,,,,,,,,,,,,,,,,,,,,,,,,,,,,,,,,
1656264823.574094,106.000000,0.000000,4141.025879,4148.205078,4022.051270,4016.410156,4131.794922,450.000000,4.000000,86.000000,,,,0.000000,4.000000,4.000000,4.000000,4.000000,4.000000,100.000000,,,,,,,,,,,,,,,,,,,,,,,,,,,,,,,,,,,,,,,,,,,,,,,,,,,,,,,,,,,,,,,
1656264823.582008,107.000000,0.000000,4158.974121,4167.692383,4076.410156,4040.000000,4142.563965,16101.000000,4.000000,86.000000,,,,0.000000,4.000000,4.000000,4.000000,4.000000,4.000000,100.000000,,,,,,,,,,,,,,,,,,,,,,,,,,,,,,,,,,,,,,,,,,,,,,,,,,,,,,,,,,,,,,,
1656264823.589823,108.000000,0.000000,4118.974121,4138.974121,4089.743652,4038.974365,4128.717773,450.000000,4.000000,86.000000,,,,0.000000,4.000000,4.000000,4.000000,4.000000,4.000000,100.000000,,,,,,,,,,,,,,,,,,,,,,,,,,,,,,,,,,,,,,,,,,,,,,,,,,,,,,,,,,,,,,,
1656264823.597737,109.000000,0.000000,4120.000000,4134.871582,4071.794922,4058.974365,4141.538574,450.000000,4.000000,86.000000,,,,0.000000,4.000000,4.000000,4.000000,4.000000,4.000000,100.000000,,,,,,,,,,,,,,,,,,,,,,,,,,,,,,,,,,,,,,,,,,,,,,,,,,,,,,,,,,,,,,,
1656264823.605551,110.000000,0.000000,4151.282227,4162.051270,4064.615479,4073.846191,4147.179688,450.000000,4.000000,86.000000,,,,0.000000,4.000000,4.000000,4.000000,4.000000,4.000000,100.000000,,,,,,,,,,,,,,,,,,,,,,,,,,,,,,,,,,,,,,,,,,,,,,,,,,,,,,,,,,,,,,,
1656264823.613466,111.000000,0.000000,4172.307617,4183.589844,4084.615479,4053.846191,4155.897461,16101.000000,4.000000,86.000000,,,,0.000000,4.000000,4.000000,4.000000,4.000000,4.000000,100.000000,,,,,,,,,,,,,,,,,,,,,,,,,,,,,,,,,,,,,,,,,,,,,,,,,,,,,,,,,,,,,,,
1656264823.621280,112.000000,0.000000,4151.282227,4155.897461,4081.025635,4026.666748,4140.512695,450.000000,4.000000,86.000000,,,,0.000000,4.000000,4.000000,4.000000,4.000000,4.000000,100.000000,,,,,,,,,,,,,,,,,,,,,,,,,,,,,,,,,,,,,,,,,,,,,,,,,,,,,,,,,,,,,,,
1656264823.629094,113.000000,0.000000,4104.615234,4101.025879,4053.333252,4002.564209,4109.743652,450.000000,4.000000,86.000000,,,,0.000000,4.000000,4.000000,4.000000,4.000000,4.000000,100.000000,,,,,,,,,,,,,,,,,,,,,,,,,,,,,,,,,,,,,,,,,,,,,,,,,,,,,,,,,,,,,,,
1656264823.637009,114.000000,0.000000,4143.077148,4132.820313,4077.948730,4029.743652,4162.563965,450.000000,4.000000,86.000000,,,,0.000000,4.000000,4.000000,4.000000,4.000000,4.000000,100.000000,,,,,,,,,,,,,,,,,,,,,,,,,,,,,,,,,,,,,,,,,,,,,,,,,,,,,,,,,,,,,,,
1656264823.644923,115.000000,0.000000,4212.820313,4216.410156,4121.538574,4089.230713,4219.487305,16101.000000,4.000000,86.000000,,,,0.000000,4.000000,4.000000,4.000000,4.000000,4.000000,100.000000,,,,,,,,,,,,,,,,,,,,,,,,,,,,,,,,,,,,,,,2.765837,0.940579,1.639437,19.469816,14.767794,1.363855,1.446764,1.188254,17.698444,8.566523,4.501169,2.856603,1.286954,7.229573,6.414880,0.716237,0.884858,1.485312,19.613573,9.400089,2.472581,0.756430,2.814949,13.638895,9.127837
1656264823.652737,116.000000,0.000000,4203.589844,4210.769043,4115.897461,4087.179443,4207.179688,450.000000,4.000000,86.000000,,,,0.000000,4.000000,4.000000,4.000000,4.000000,4.000000,100.000000,,,,,,,,,,,,,,,,,,,,,,,,,,,,,,,,,,,,,,,,,,,,,,,,,,,,,,,,,,,,,,,
1656264823.660652,117.000000,0.000000,4133.333496,4137.436035,4081.538574,4005.641113,4155.384766,450.000000,4.000000,86.000000,,,,0.000000,4.000000,4.000000,4.000000,4.000000,4.000000,100.000000,,,,,,,,,,,,,,,,,,,,,,,,,,,,,,,,,,,,,,,,,,,,,,,,,,,,,,,,,,,,,,,
1656264823.668466,118.000000,0.000000,4080.000000,4094.871826,4049.743652,3951.281982,4101.025879,450.000000,4.000000,86.000000,,,,0.000000,4.000000,4.000000,4.000000,4.000000,4.000000,100.000000,,,,,,,,,,,,,,,,,,,,,,,,,,,,,,,,,,,,,,,,,,,,,,,,,,,,,,,,,,,,,,,
1656264823.676380,119.000000,0.000000,4127.179688,4142.051270,4058.461426,4022.051270,4127.179688,16101.000000,4.000000,86.000000,,,,0.000000,4.000000,4.000000,4.000000,4.000000,4.000000,100.000000,,,,,,,,,,,,,,,,,,,,,,,,,,,,,,,,,,,,,,,,,,,,,,,,,,,,,,,,,,,,,,,
1656264823.684195,120.000000,0.000000,4212.307617,4228.205078,4092.820557,4101.538574,4200.000000,450.000000,4.000000,86.000000,,,,0.000000,4.000000,4.000000,4.000000,4.000000,4.000000,100.000000,,,,,,,,,,,,,,,,,,,,,,,,,,,,,,,,,,,,,,,,,,,,,,,,,,,,,,,,,,,,,,,
1656264823.692109,121.000000,0.000000,4215.897461,4229.743652,4102.051270,4068.205078,4198.461426,450.000000,4.000000,86.000000,,,,0.000000,4.000000,4.000000,4.000000,4.000000,4.000000,100.000000,,,,,,,,,,,,,,,,,,,,,,,,,,,,,,,,,,,,,,,,,,,,,,,,,,,,,,,,,,,,,,,
1656264823.699924,122.000000,0.000000,4160.512695,4164.102539,4070.769287,3997.948730,4131.794922,450.000000,4.000000,86.000000,,,,0.000000,4.000000,4.000000,4.000000,4.000000,4.000000,100.000000,,,,,,,,,,,,,,,,,,,,,,,,,,,,,,,,,,,,,,,,,,,,,,,,,,,,,,,,,,,,,,,
1656264823.707838,123.000000,0.000000,4120.000000,4120.000000,4012.820557,3961.025635,4087.692383,16101.000000,4.000000,86.000000,,,,0.000000,4.000000,4.000000,4.000000,4.000000,4.000000,100.000000,,,,,,,,,,,,,,,,,,,,,,,,,,,,,,,,,,,,,,,,,,,,,,,,,,,,,,,,,,,,,,,
1656264823.715652,124.000000,0.000000,4146.153809,4142.051270,4033.846191,3982.564209,4117.436035,450.000000,4.000000,86.000000,,,,0.000000,4.000000,4.000000,4.000000,4.000000,4.000000,100.000000,,,,,,,,,,,,,,,,,,,,,,,,,,,,,,,,,,,,,,,,,,,,,,,,,,,,,,,,,,,,,,,
1656264823.723567,125.000000,0.000000,4212.307617,4183.589844,4111.282227,4036.410156,4169.230957,450.000000,4.000000,86.000000,,,,0.000000,4.000000,4.000000,4.000000,4.000000,4.000000,100.000000,,,,,,,,,,,,,,,,,,,,,,,,,,,,,,,,,,,,,,,,,,,,,,,,,,,,,,,,,,,,,,,
1656264823.731381,126.000000,0.000000,4211.282227,4178.461426,4114.871582,4057.948730,4162.563965,450.000000,4.000000,86.000000,,,,0.000000,4.000000,4.000000,4.000000,4.000000,4.000000,100.000000,,,,,,,,,,,,,,,,,,,,,,,,,,,,,,,,,,,,,,,,,,,,,,,,,,,,,,,,,,,,,,,
1656264823.739195,127.000000,0.000000,4159.487305,4170.256348,4057.435791,4028.205078,4128.717773,241.000000,4.000000,86.000000,,,,0.000000,4.000000,4.000000,4.000000,4.000000,4.000000,100.000000,,,,,,,,,,,,,,,,,,,,,,,,,,,,,,,,,,,,,,,,,,,,,,,,,,,,,,,,,,,,,,,
1656264823.747110,0.000000,0.000000,4141.538574,4168.717773,4019.487061,3986.153809,4110.769043,450.000000,4.000000,86.000000,,,,0.000000,4.000000,4.000000,4.000000,4.000000,4.000000,100.000000,,,,,,,,,,,,,,,,,,,,,,,,,,,,,,,,,,,,,,,,,,,,,,,,,,,,,,,,,,,,,,,
1656264823.755024,1.000000,0.000000,4173.846191,4173.333496,4044.615479,4009.230713,4141.538574,450.000000,4.000000,86.000000,,,,0.000000,4.000000,4.000000,4.000000,4.000000,4.000000,100.000000,,,,,,,,,,,,,,,,,,,,,,,,,,,,,,,,,,,,,,,,,,,,,,,,,,,,,,,,,,,,,,,
1656264823.762838,2.000000,0.000000,4195.384766,4182.051270,4063.589844,4034.358887,4176.410156,16110.000000,4.000000,86.000000,,,,0.000000,4.000000,4.000000,4.000000,4.000000,4.000000,100.000000,,,,,,,,,,,,,,,,,,,,,,,,,,,,,,,,,,,,,,,,,,,,,,,,,,,,,,,,,,,,,,,
1656264823.770753,3.000000,0.000000,4156.410156,4167.692383,4054.871826,4010.769287,4152.820313,450.000000,4.000000,86.000000,,,,0.000000,4.000000,4.000000,4.000000,4.000000,4.000000,100.000000,1.000000,41.666668,1.000000,3.000000,3.000000,3.000000,1.000000,,,,,,,,,,,,,,,,,,,,,,,,,,,,,,,,2.376818,1.132759,1.394753,19.618147,15.099380,1.532240,1.605865,1.258846,17.751339,8.332804,3.920540,2.645366,1.327738,6.836565,6.457035,0.805850,0.850251,1.615094,20.343176,9.861813,2.381282,0.881106,2.694964,14.029741,9.402570
1656264823.778667,4.000000,0.000000,4148.717773,4157.948730,4063.076904,4028.718018,4147.692383,16129.000000,4.000000,86.000000,,,,0.000000,4.000000,4.000000,4.000000,4.000000,4.000000,100.000000,,,,,,,,,,,,,,,,,,,,,,,,,,,,,,,,,,,,,,,,,,,,,,,,,,,,,,,,,,,,,,,
1656264823.786481,5.000000,0.000000,4198.974121,4162.051270,4065.128174,4048.205078,4172.307617,450.000000,4.000000,86.000000,,,,0.000000,4.000000,4.000000,4.000000,4.000000,4.000000,100.000000,,,,,,,,,,,,,,,,,,,,,,,,,,,,,,,,,,,,,,,,,,,,,,,,,,,,,,,,,,,,,,,
1656264823.794396,6.000000,0.000000,4217.948730,4181.025879,4078.461426,4040.512939,4172.820313,16121.000000,4.000000,86.000000,,,,0.000000,4.000000,4.000000,4.000000,4.000000,4.000000,100.000000,,,,,,,,,,,,,,,,,,,,,,,,,,,,,,,,,,,,,,,,,,,,,,,,,,,,,,,,,,,,,,,
1656264823.802210,7.000000,0.000000,4177.436035,4159.487305,4074.358887,4024.615479,4156.922852,450.000000,4.000000,86.000000,,,,0.000000,4.000000,4.000000,4.000000,4.000000,4.000000,100.000000,,,,,,,,,,,,,,,,,,,,,,,,,,,,,,,,,,,,,,,,,,,,,,,,,,,,,,,,,,,,,,,
1656264823.810124,8.000000,0.000000,4121.538574,4106.153809,4040.512939,3992.307617,4129.230957,450.000000,4.000000,86.000000,,,,0.000000,4.000000,4.000000,4.000000,4.000000,4.000000,100.000000,,,,,,,,,,,,,,,,,,,,,,,,,,,,,,,,,,,,,,,,,,,,,,,,,,,,,,,,,,,,,,,
1656264823.817939,9.000000,0.000000,4147.179688,4156.410156,4068.718018,4029.743652,4145.641113,16139.000000,4.000000,86.000000,,,,0.000000,4.000000,4.000000,4.000000,4.000000,4.000000,100.000000,,,,,,,,,,,,,,,,,,,,,,,,,,,,,,,,,,,,,,,,,,,,,,,,,,,,,,,,,,,,,,,
1656264823.825753,10.000000,0.000000,4215.897461,4229.230957,4118.461426,4092.820557,4201.538574,450.000000,4.000000,86.000000,,,,0.000000,4.000000,4.000000,4.000000,4.000000,4.000000,100.000000,,,,,,,,,,,,,,,,,,,,,,,,,,,,,,,,,,,,,,,,,,,,,,,,,,,,,,,,,,,,,,,
1656264823.833668,11.000000,0.000000,4221.538574,4211.794922,4124.615234,4069.743652,4206.153809,16057.000000,4.000000,86.000000,,,,0.000000,4.000000,4.000000,4.000000,4.000000,4.000000,100.000000,,,,,,,,,,,,,,,,,,,,,,,,,,,,,,,,,,,,,,,,,,,,,,,,,,,,,,,,,,,,,,,
1656264823.841482,12.000000,0.000000,4174.358887,4141.538574,4086.153809,4001.538574,4140.000000,450.000000,4.000000,86.000000,,,,0.000000,4.000000,4.000000,4.000000,4.000000,4.000000,100.000000,,,,,,,,,,,,,,,,,,,,,,,,,,,,,,,,,,,,,,,,,,,,,,,,,,,,,,,,,,,,,,,
1656264823.849396,13.000000,0.000000,4123.077148,4082.051270,4030.769287,3964.102539,4084.615479,450.000000,4.000000,86.000000,,,,0.000000,4.000000,4.000000,4.000000,4.000000,4.000000,100.000000,,,,,,,,,,,,,,,,,,,,,,,,,,,,,,,,,,,,,,,,,,,,,,,,,,,,,,,,,,,,,,,
1656264823.857211,14.000000,0.000000,4144.102539,4124.615234,4039.487061,4008.205078,4139.487305,450.000000,4.000000,86.000000,,,,0.000000,4.000000,4.000000,4.000000,4.000000,4.000000,100.000000,,,,,,,,,,,,,,,,,,,,,,,,,,,,,,,,,,,,,,,,,,,,,,,,,,,,,,,,,,,,,,,
1656264823.865125,15.000000,0.000000,4212.307617,4202.563965,4084.102539,4076.410156,4219.487305,16057.000000,4.000000,86.000000,,,,0.000000,4.000000,4.000000,4.000000,4.000000,4.000000,100.000000,,,,,,,,,,,,,,,,,,,,,,,,,,,,,,,,,,,,,,,,,,,,,,,,,,,,,,,,,,,,,,,
1656264823.872939,16.000000,0.000000,4225.641113,4202.051270,4082.564209,4072.307617,4197.948730,0.000000,4.000000,86.000000,,,,0.000000,4.000000,4.000000,4.000000,4.000000,4.000000,100.000000,,,,,,,,,,,,,,,,,,,,,,,,,,,,,,,,,,,,,,,,,,,,,,,,,,,,,,,,,,,,,,,
1656264823.880854,17.000000,0.000000,4156.922852,4149.743652,4035.384521,4019.487061,4137.436035,0.000000,4.000000,86.000000,,,,0.000000,4.000000,4.000000,4.000000,4.000000,4.000000,100.000000,,,,,,,,,,,,,,,,,,,,,,,,,,,,,,,,,,,,,,,,,,,,,,,,,,,,,,,,,,,,,,,
1656264823.888768,18.000000,0.000000,4101.538574,4100.000000,4001.025635,3971.281982,4105.128418,0.000000,4.000000,86.000000,,,,0.000000,4.000000,4.000000,4.000000,4.000000,4.000000,100.000000,,,,,,,,,,,,,,,,,,,,,,,,,,,,,,,,,,,,,,,,,,,,,,,,,,,,,,,,,,,,,,,
1656264823.896582,19.000000,0.000000,4166.666504,4118.974121,4038.974365,3994.358887,4134.358887,0.000000,4.000000,86.000000,,,,0.000000,4.000000,4.000000,4.000000,4.000000,4.000000,100.000000,,,,,,,,,,,,,,,,,,,,,,,,,,,,,,,,,,,,,,,1.981105,1.340679,1.333998,20.067472,15.363537,1.631920,1.800040,1.411854,17.767925,8.534900,3.230331,2.630416,1.381069,6.665623,6.400686,1.069721,1.012576,1.863538,20.997038,10.300555,2.287417,1.076410,2.494121,14.284187,9.552937
1656264823.904497,20.000000,0.000000,4212.307617,4157.436035,4091.794922,4051.281982,4180.512695,0.000000,4.000000,86.000000,,,,0.000000,4.000000,4.000000,4.000000,4.000000,4.000000,100.000000,,,,,,,,,,,,,,,,,,,,,,,,,,,,,,,,,,,,,,,,,,,,,,,,,,,,,,,,,,,,,,,
1656264823.912311,21.000000,0.000000,4172.820313,4156.922852,4098.974121,4045.641113,4171.282227,0.000000,4.000000,86.000000,,,,0.000000,4.000000,4.000000,4.000000,4.000000,4.000000,100.000000,,,,,,,,,,,,,,,,,,,,,,,,,,,,,,,,,,,,,,,,,,,,,,,,,,,,,,,,,,,,,,,
1656264823.920225,22.000000,0.000000,4170.769043,4165.128418,4075.897461,4030.769287,4146.153809,0.000000,4.000000,86.000000,,,,0.000000,4.000000,4.000000,4.000000,4.000000,4.000000,100.000000,,,,,,,,,,,,,,,,,,,,,,,,,,,,,,,,,,,,,,,,,,,,,,,,,,,,,,,,,,,,,,,
1656264823.928040,23.000000,0.000000,4172.307617,4154.358887,4046.153809,4030.769287,4132.307617,0.000000,4.000000,86.000000,,,,0.000000,4.000000,4.000000,4.000000,4.000000,4.000000,100.000000,,,,,,,,,,,,,,,,,,,,,,,,,,,,,,,,,,,,,,,,,,,,,,,,,,,,,,,,,,,,,,,
1656264823.935954,24.000000,0.000000,4164.102539,4142.563965,4054.871826,4032.820557,4146.153809,0.000000,4.000000,86.000000,,,,0.000000,4.000000,4.000000,4.000000,4.000000,4.000000,100.000000,,,,,,,,,,,,,,,,,,,,,,,,,,,,,,,,,,,,,,,,,,,,,,,,,,,,,,,,,,,,,,,
1656264823.943868,25.000000,0.000000,4156.922852,4149.743652,4081.025635,4033.846191,4143.589844,0.000000,4.000000,86.000000,,,,0.000000,4.000000,4.000000,4.000000,4.000000,4.000000,100.000000,,,,,,,,,,,,,,,,,,,,,,,,,,,,,,,,,,,,,,,,,,,,,,,,,,,,,,,,,,,,,,,
1656264823.951683,26.000000,0.000000,4140.000000,4132.820313,4075.384521,4010.256348,4121.025879,0.000000,4.000000,86.000000,,,,0.000000,4.000000,4.000000,4.000000,4.000000,4.000000,100.000000,,,,,,,,,,,,,,,,,,,,,,,,,,,,,,,,,,,,,,,,,,,,,,,,,,,,,,,,,,,,,,,
1656264823.959497,27.000000,0.000000,4168.205078,4145.128418,4060.000000,4029.230713,4143.589844,0.000000,4.000000,86.000000,,,,0.000000,4.000000,4.000000,4.000000,4.000000,4.000000,100.000000,,,,,,,,,,,,,,,,,,,,,,,,,,,,,,,,,,,,,,,,,,,,,,,,,,,,,,,,,,,,,,,
1656264823.967412,28.000000,0.000000,4183.589844,4183.077148,4045.128174,4071.794922,4162.563965,0.000000,4.000000,86.000000,,,,0.000000,4.000000,4.000000,4.000000,4.000000,4.000000,100.000000,,,,,,,,,,,,,,,,,,,,,,,,,,,,,,,,,,,,,,,,,,,,,,,,,,,,,,,,,,,,,,,
1656264823.975226,29.000000,0.000000,4144.102539,4171.794922,4054.871826,4035.384521,4149.230957,0.000000,4.000000,86.000000,,,,0.000000,4.000000,4.000000,4.000000,4.000000,4.000000,100.000000,,,,,,,,,,,,,,,,,,,,,,,,,,,,,,,,,,,,,,,,,,,,,,,,,,,,,,,,,,,,,,,
1656264823.983140,30.000000,0.000000,4094.871826,4117.948730,4063.076904,3975.897461,4104.102539,0.000000,4.000000,86.000000,,,,0.000000,4.000000,4.000000,4.000000,4.000000,4.000000,100.000000,,,,,,,,,,,,,,,,,,,,,,,,,,,,,,,,,,,,,,,,,,,,,,,,,,,,,,,,,,,,,,,
1656264823.990955,31.000000,0.000000,4072.820557,4087.692383,4034.358887,3975.384521,4066.153809,0.000000,4.000000,86.000000,,,,0.000000,4.000000,4.000000,4.000000,4.000000,4.000000,100.000000,,,,,,,,,,,,,,,,,,,,,,,,,,,,,,,,,,,,,,,,,,,,,,,,,,,,,,,,,,,,,,,
1656264823.998869,32.000000,0.000000,4144.615234,4146.153809,4064.615479,4036.410156,4138.461426,0.000000,4.000000,86.000000,,,,0.000000,4.000000,4.000000,4.000000,4.000000,4.000000,100.000000,,,,,,,,,,,,,,,,,,,,,,,,,,,,,,,,,,,,,,,,,,,,,,,,,,,,,,,,,,,,,,,
1656264824.006683,33.000000,0.000000,4238.461426,4216.410156,4122.563965,4099.487305,4216.922852,0.000000,4.000000,86.000000,,,,0.000000,4.000000,4.000000,4.000000,4.000000,4.000000,100.000000,,,,,,,,,,,,,,,,,,,,,,,,,,,,,,,,,,,,,,,,,,,,,,,,,,,,,,,,,,,,,,,
1656264824.014598,34.000000,0.000000,4224.615234,4209.230957,4123.589844,4090.769287,4179.487305,0.000000,4.000000,86.000000,,,,0.000000,4.000000,4.000000,4.000000,4.000000,4.000000,100.000000,,,,,,,,,,,,,,,,,,,,,,,,,,,,,,,,,,,,,,,,,,,,,,,,,,,,,,,,,,,,,,,
1656264824.022412,35.000000,0.000000,4149.230957,4165.128418,4089.743652,4021.538574,4113.333496,0.000000,4.000000,86.000000,,,,0.000000,4.000000,4.000000,4.000000,4.000000,4.000000,100.000000,,,,,,,,,,,,,,,,,,,,,,,,,,,,,,,,,,,,,,,1.622487,1.470840,1.509463,20.534248,15.502712,1.642422,1.963450,1.723812,17.805868,9.118983,2.587279,2.820429,1.517966,6.801514,6.240543,1.574942,1.422339,2.136862,21.526728,10.652366,2.285059,1.301345,2.333645,14.312691,9.579980
1656264824.030326,36.000000,0.000000,4107.692383,4123.077148,4044.102539,3971.794922,4086.666748,0.000000,4.000000,86.000000,,,,0.000000,4.000000,4.000000,4.000000,4.000000,4.000000,100.000000,,,,,,,,,,,,,,,,,,,,,,,,,,,,,,,,,,,,,,,,,,,,,,,,,,,,,,,,,,,,,,,
1656264824.038141,37.000000,0.000000,4161.538574,4133.846191,4051.794922,4013.333252,4125.641113,0.000000,4.000000,86.000000,,,,0.000000,4.000000,4.000000,4.000000,4.000000,4.000000,100.000000,,,,,,,,,,,,,,,,,,,,,,,,,,,,,,,,,,,,,,,,,,,,,,,,,,,,,,,,,,,,,,,
1656264824.046055,38.000000,0.000000,4248.205078,4199.487305,4098.974121,4079.487061,4201.025879,0.000000,4.000000,86.000000,,,,0.000000,4.000000,4.000000,4.000000,4.000000,4.000000,100.000000,,,,,,,,,,,,,,,,,,,,,,,,,,,,,,,,,,,,,,,,,,,,,,,,,,,,,,,,,,,,,,,
1656264824.053969,39.000000,0.000000,4233.846191,4221.538574,4103.589844,4089.230713,4212.820313,0.000000,4.000000,86.000000,,,,0.000000,4.000000,4.000000,4.000000,4.000000,4.000000,100.000000,,,,,,,,,,,,,,,,,,,,,,,,,,,,,,,,,,,,,,,,,,,,,,,,,,,,,,,,,,,,,,,
1656264824.061784,40.000000,0.000000,4157.436035,4181.538574,4050.256348,4056.923096,4161.025879,0.000000,4.000000,86.000000,,,,0.000000,4.000000,4.000000,4.000000,4.000000,4.000000,100.000000,,,,,,,,,,,,,,,,,,,,,,,,,,,,,,,,,,,,,,,,,,,,,,,,,,,,,,,,,,,,,,,
1656264824.069698,41.000000,0.000000,4116.922852,4147.179688,4015.897461,4004.615479,4112.820313,0.000000,4.000000,86.000000,,,,0.000000,4.000000,4.000000,4.000000,4.000000,4.000000,100.000000,,,,,,,,,,,,,,,,,,,,,,,,,,,,,,,,,,,,,,,,,,,,,,,,,,,,,,,,,,,,,,,
1656264824.077513,42.000000,0.000000,4153.333496,4175.897461,4066.666748,4028.205078,4134.871582,0.000000,4.000000,86.000000,,,,0.000000,4.000000,4.000000,4.000000,4.000000,4.000000,100.000000,,,,,,,,,,,,,,,,,,,,,,,,,,,,,,,,,,,,,,,,,,,,,,,,,,,,,,,,,,,,,,,
1656264824.085427,43.000000,0.000000,4205.128418,4207.179688,4117.436035,4103.589844,4185.641113,0.000000,4.000000,86.000000,,,,0.000000,4.000000,4.000000,4.000000,4.000000,4.000000,100.000000,,,,,,,,,,,,,,,,,,,,,,,,,,,,,,,,,,,,,,,,,,,,,,,,,,,,,,,,,,,,,,,
1656264824.093241,44.000000,0.000000,4198.461426,4183.077148,4118.461426,4093.333252,4185.128418,0.000000,4.000000,86.000000,,,,0.000000,4.000000,4.000000,4.000000,4.000000,4.000000,100.000000,,,,,,,,,,,,,,,,,,,,,,,,,,,,,,,,,,,,,,,,,,,,,,,,,,,,,,,,,,,,,,,
1656264824.101156,45.000000,0.000000,4188.205078,4180.000000,4094.871826,4038.974365,4173.846191,0.000000,4.000000,86.000000,,,,0.000000,4.000000,4.000000,4.000000,4.000000,4.000000,100.000000,,,,,,,,,,,,,,,,,,,,,,,,,,,,,,,,,,,,,,,,,,,,,,,,,,,,,,,,,,,,,,,
1656264824.108970,46.000000,0.000000,4190.769043,4203.589844,4068.718018,4028.205078,4168.717773,0.000000,4.000000,86.000000,,,,0.000000,4.000000,4.000000,4.000000,4.000000,4.000000,100.000000,,,,,,,,,,,,,,,,,,,,,,,,,,,,,,,,,,,,,,,,,,,,,,,,,,,,,,,,,,,,,,,
1656264824.116884,47.000000,0.000000,4191.794922,4205.128418,4081.538574,4052.307617,4174.358887,0.000000,4.000000,86.000000,,,,0.000000,4.000000,4.000000,4.000000,4.000000,4.000000,100.000000,,,,,,,,,,,,,,,,,,,,,,,,,,,,,,,,,,,,,,,,,,,,,,,,,,,,,,,,,,,,,,,
1656264824.124699,48.000000,0.000000,4178.974121,4170.769043,4086.666748,4034.871826,4171.282227,0.000000,4.000000,86.000000,,,,0.000000,4.000000,4.000000,4.000000,4.000000,4.000000,100.000000,,,,,,,,,,,,,,,,,,,,,,,,,,,,,,,,,,,,,,,,,,,,,,,,,,,,,,,,,,,,,,,
1656264824.132613,49.000000,0.000000,4141.538574,4143.077148,4058.974365,4004.615479,4134.871582,0.000000,4.000000,86.000000,,,,0.000000,4.000000,4.000000,4.000000,4.000000,4.000000,100.000000,,,,,,,,,,,,,,,,,,,,,,,,,,,,,,,,,,,,,,,,,,,,,,,,,,,,,,,,,,,,,,,
1656264824.140427,50.000000,0.000000,4159.487305,4181.538574,4071.281982,4072.820557,4154.358887,0.000000,4.000000,86.000000,,,,0.000000,4.000000,4.000000,4.000000,4.000000,4.000000,100.000000,,,,,,,,,,,,,,,,,,,,,,,,,,,,,,,,,,,,,,,,,,,,,,,,,,,,,,,,,,,,,,,
1656264824.148342,51.000000,0.000000,4212.820313,4211.794922,4106.153809,4127.692383,4200.000000,0.000000,4.000000,86.000000,,,,0.000000,4.000000,4.000000,4.000000,4.000000,4.000000,100.000000,,,,,,,,,,,,,,,,,,,,,,,,,,,,,,,,,,,,,,,1.335123,1.500144,1.873932,20.702587,15.501176,1.576399,2.040871,2.216465,17.955751,9.901240,2.188982,3.197235,1.781637,7.228357,6.036747,2.327009,2.033138,2.390365,21.904224,10.905231,2.513635,1.522763,2.270900,14.206117,9.559051
1656264824.156156,52.000000,0.000000,4201.025879,4196.410156,4109.230957,4084.615479,4187.179688,0.000000,4.000000,86.000000,,,,0.000000,4.000000,4.000000,4.000000,4.000000,4.000000,100.000000,,,,,,,,,,,,,,,,,,,,,,,,,,,,,,,,,,,,,,,,,,,,,,,,,,,,,,,,,,,,,,,
1656264824.164070,53.000000,0.000000,4135.897461,4167.692383,4069.230713,4022.564209,4143.589844,0.000000,4.000000,86.000000,,,,0.000000,4.000000,4.000000,4.000000,4.000000,4.000000,100.000000,,,,,,,,,,,,,,,,,,,,,,,,,,,,,,,,,,,,,,,,,,,,,,,,,,,,,,,,,,,,,,,
1656264824.171885,54.000000,0.000000,4091.794922,4128.717773,4019.487061,3992.307617,4109.743652,0.000000,4.000000,86.000000,,,,0.000000,4.000000,4.000000,4.000000,4.000000,4.000000,100.000000,,,,,,,,,,,,,,,,,,,,,,,,,,,,,,,,,,,,,,,,,,,,,,,,,,,,,,,,,,,,,,,
1656264824.179799,55.000000,0.000000,4141.025879,4147.692383,4037.435791,4052.307617,4139.487305,0.000000,4.000000,86.000000,,,,0.000000,4.000000,4.000000,4.000000,4.000000,4.000000,100.000000,,,,,,,,,,,,,,,,,,,,,,,,,,,,,,,,,,,,,,,,,,,,,,,,,,,,,,,,,,,,,,,
1656264824.187614,56.000000,0.000000,4212.820313,4207.692383,4081.538574,4114.358887,4191.794922,0.000000,4.000000,86.000000,,,,0.000000,4.000000,4.000000,4.000000,4.000000,4.000000,100.000000,,,,,,,,,,,,,,,,,,,,,,,,,,,,,,,,,,,,,,,,,,,,,,,,,,,,,,,,,,,,,,,
1656264824.195528,57.000000,0.000000,4201.538574,4207.179688,4079.487061,4083.076904,4190.256348,0.000000,4.000000,86.000000,,,,0.000000,4.000000,4.000000,4.000000,4.000000,4.000000,100.000000,,,,,,,,,,,,,,,,,,,,,,,,,,,,,,,,,,,,,,,,,,,,,,,,,,,,,,,,,,,,,,,
1656264824.203342,58.000000,0.000000,4143.589844,4152.820313,4048.718018,4030.256348,4150.256348,0.000000,4.000000,86.000000,,,,0.000000,4.000000,4.000000,4.000000,4.000000,4.000000,100.000000,,,,,,,,,,,,,,,,,,,,,,,,,,,,,,,,,,,,,,,,,,,,,,,,,,,,,,,,,,,,,,,
1656264824.211257,59.000000,0.000000,4103.589844,4112.307617,4005.128174,3995.384521,4113.333496,0.000000,4.000000,86.000000,,,,0.000000,4.000000,4.000000,4.000000,4.000000,4.000000,100.000000,,,,,,,,,,,,,,,,,,,,,,,,,,,,,,,,,,,,,,,,,,,,,,,,,,,,,,,,,,,,,,,
1656264824.219171,60.000000,0.000000,4135.897461,4140.512695,4038.461426,4018.974365,4131.794922,0.000000,4.000000,86.000000,,,,0.000000,4.000000,4.000000,4.000000,4.000000,4.000000,100.000000,,,,,,,,,,,,,,,,,,,,,,,,,,,,,,,,,,,,,,,,,,,,,,,,,,,,,,,,,,,,,,,
1656264824.226985,61.000000,0.000000,4200.512695,4193.846191,4109.743652,4092.307617,4187.179688,0.000000,4.000000,86.000000,,,,0.000000,4.000000,4.000000,4.000000,4.000000,4.000000,100.000000,,,,,,,,,,,,,,,,,,,,,,,,,,,,,,,,,,,,,,,,,,,,,,,,,,,,,,,,,,,,,,,
1656264824.234800,62.000000,0.000000,4209.230957,4186.153809,4101.538574,4092.820557,4198.974121,0.000000,4.000000,86.000000,,,,0.000000,4.000000,4.000000,4.000000,4.000000,4.000000,100.000000,,,,,,,,,,,,,,,,,,,,,,,,,,,,,,,,,,,,,,,,,,,,,,,,,,,,,,,,,,,,,,,
1656264824.242714,63.000000,0.000000,4181.025879,4153.846191,4063.589844,4025.641113,4157.948730,0.000000,4.000000,86.000000,,,,0.000000,4.000000,4.000000,4.000000,4.000000,4.000000,100.000000,,,,,,,,,,,,,,,,,,,,,,,,,,,,,,,,,,,,,,,,,,,,,,,,,,,,,,,,,,,,,,,
1656264824.250628,64.000000,0.000000,4155.384766,4145.128418,4030.256348,3998.461426,4122.563965,450.000000,4.000000,86.000000,,,,0.000000,4.000000,4.000000,4.000000,4.000000,4.000000,100.000000,,,,,,,,,,,,,,,,,,,,,,,,,,,,,,,,,,,,,,,,,,,,,,,,,,,,,,,,,,,,,,,
1656264824.258443,65.000000,0.000000,4167.179688,4173.846191,4041.025635,4027.692383,4151.794922,450.000000,4.000000,86.000000,,,,0.000000,4.000000,4.000000,4.000000,4.000000,4.000000,100.000000,,,,,,,,,,,,,,,,,,,,,,,,,,,,,,,,,,,,,,,,,,,,,,,,,,,,,,,,,,,,,,,
1656264824.266357,66.000000,0.000000,4184.102539,4190.769043,4085.641113,4041.025635,4180.512695,16141.000000,4.000000,86.000000,,,,0.000000,4.000000,4.000000,4.000000,4.000000,4.000000,100.000000,,,,,,,,,,,,,,,,,,,,,,,,,,,,,,,,,,,,,,,,,,,,,,,,,,,,,,,,,,,,,,,
1656264824.274171,67.000000,0.000000,4154.871582,4167.179688,4092.307617,4030.769287,4148.717773,450.000000,4.000000,86.000000,,,,0.000000,4.000000,4.000000,4.000000,4.000000,4.000000,100.000000,1.000000,41.666668,1.000000,3.000000,3.000000,3.000000,1.000000,,,,,,,,,,,,,,,,,,,,,,,,,,,,,,,,1.163499,1.467510,2.289089,20.469259,15.375813,1.443251,1.998383,2.827275,18.283522,10.641305,2.189403,3.742269,2.160754,7.838529,5.881728,3.234400,2.666340,2.613696,22.157927,11.061646,3.052472,1.700789,2.256632,14.187536,9.584741
1656264824.282086,68.000000,0.000000,4160.000000,4167.692383,4066.666748,4061.025635,4151.282227,16097.000000,4.000000,86.000000,,,,0.000000,4.000000,4.000000,4.000000,4.000000,4.000000,100.000000,,,,,,,,,,,,,,,,,,,,,,,,,,,,,,,,,,,,,,,,,,,,,,,,,,,,,,,,,,,,,,,
1656264824.289900,69.000000,0.000000,4189.230957,4172.307617,4044.615479,4084.102539,4181.538574,450.000000,4.000000,86.000000,,,,0.000000,4.000000,4.000000,4.000000,4.000000,4.000000,100.000000,,,,,,,,,,,,,,,,,,,,,,,,,,,,,,,,,,,,,,,,,,,,,,,,,,,,,,,,,,,,,,,
1656264824.297814,70.000000,0.000000,4184.615234,4170.769043,4066.153809,4074.358887,4182.051270,16155.000000,4.000000,86.000000,,,,0.000000,4.000000,4.000000,4.000000,4.000000,4.000000,100.000000,,,,,,,,,,,,,,,,,,,,,,,,,,,,,,,,,,,,,,,,,,,,,,,,,,,,,,,,,,,,,,,
1656264824.305629,71.000000,0.000000,4156.410156,4163.077148,4082.051270,4051.794922,4160.512695,450.000000,4.000000,86.000000,,,,0.000000,4.000000,4.000000,4.000000,4.000000,4.000000,100.000000,,,,,,,,,,,,,,,,,,,,,,,,,,,,,,,,,,,,,,,,,,,,,,,,,,,,,,,,,,,,,,,
1656264824.313543,72.000000,0.000000,4125.641113,4135.384766,4066.153809,4021.025635,4135.897461,450.000000,4.000000,86.000000,,,,0.000000,4.000000,4.000000,4.000000,4.000000,4.000000,100.000000,,,,,,,,,,,,,,,,,,,,,,,,,,,,,,,,,,,,,,,,,,,,,,,,,,,,,,,,,,,,,,,
1656264824.321358,73.000000,0.000000,4155.384766,4166.666504,4070.256348,4050.769287,4155.384766,16088.000000,4.000000,86.000000,,,,0.000000,4.000000,4.000000,4.000000,4.000000,4.000000,100.000000,,,,,,,,,,,,,,,,,,,,,,,,,,,,,,,,,,,,,,,,,,,,,,,,,,,,,,,,,,,,,,,
1656264824.329272,74.000000,0.000000,4213.846191,4225.641113,4088.718018,4104.102539,4189.743652,450.000000,4.000000,86.000000,,,,0.000000,4.000000,4.000000,4.000000,4.000000,4.000000,100.000000,,,,,,,,,,,,,,,,,,,,,,,,,,,,,,,,,,,,,,,,,,,,,,,,,,,,,,,,,,,,,,,
1656264824.337086,75.000000,0.000000,4227.179688,4228.717773,4107.692383,4096.922852,4196.922852,16132.000000,4.000000,86.000000,,,,0.000000,4.000000,4.000000,4.000000,4.000000,4.000000,100.000000,,,,,,,,,,,,,,,,,,,,,,,,,,,,,,,,,,,,,,,,,,,,,,,,,,,,,,,,,,,,,,,
1656264824.345001,76.000000,0.000000,4162.563965,4180.512695,4084.615479,4042.564209,4163.589844,450.000000,4.000000,86.000000,,,,0.000000,4.000000,4.000000,4.000000,4.000000,4.000000,100.000000,,,,,,,,,,,,,,,,,,,,,,,,,,,,,,,,,,,,,,,,,,,,,,,,,,,,,,,,,,,,,,,
1656264824.352815,77.000000,0.000000,4094.871826,4143.589844,4044.102539,4000.512939,4120.512695,450.000000,4.000000,86.000000,,,,0.000000,4.000000,4.000000,4.000000,4.000000,4.000000,100.000000,,,,,,,,,,,,,,,,,,,,,,,,,,,,,,,,,,,,,,,,,,,,,,,,,,,,,,,,,,,,,,,
1656264824.360729,78.000000,0.000000,4151.794922,4190.256348,4079.487061,4031.281982,4143.077148,450.000000,4.000000,86.000000,,,,0.000000,4.000000,4.000000,4.000000,4.000000,4.000000,100.000000,,,,,,,,,,,,,,,,,,,,,,,,,,,,,,,,,,,,,,,,,,,,,,,,,,,,,,,,,,,,,,,
1656264824.368544,79.000000,0.000000,4237.436035,4236.410156,4130.769043,4085.641113,4185.128418,16132.000000,4.000000,86.000000,,,,0.000000,4.000000,4.000000,4.000000,4.000000,4.000000,100.000000,,,,,,,,,,,,,,,,,,,,,,,,,,,,,,,,,,,,,,,,,,,,,,,,,,,,,,,,,,,,,,,
1656264824.376458,80.000000,0.000000,4237.436035,4214.871582,4128.205078,4089.230713,4195.897461,450.000000,4.000000,86.000000,,,,0.000000,4.000000,4.000000,4.000000,4.000000,4.000000,100.000000,,,,,,,,,,,,,,,,,,,,,,,,,,,,,,,,,,,,,,,,,,,,,,,,,,,,,,,,,,,,,,,
1656264824.384372,81.000000,0.000000,4173.846191,4173.333496,4083.589844,4040.512939,4167.692383,450.000000,4.000000,86.000000,,,,0.000000,4.000000,4.000000,4.000000,4.000000,4.000000,100.000000,,,,,,,,,,,,,,,,,,,,,,,,,,,,,,,,,,,,,,,,,,,,,,,,,,,,,,,,,,,,,,,
1656264824.392187,82.000000,0.000000,4118.974121,4137.436035,4047.179443,3998.461426,4113.333496,450.000000,4.000000,86.000000,,,,0.000000,4.000000,4.000000,4.000000,4.000000,4.000000,100.000000,,,,,,,,,,,,,,,,,,,,,,,,,,,,,,,,,,,,,,,,,,,,,,,,,,,,,,,,,,,,,,,
1656264824.400001,83.000000,0.000000,4156.410156,4165.641113,4085.128174,4043.076904,4133.333496,16132.000000,4.000000,86.000000,,,,0.000000,4.000000,4.000000,4.000000,4.000000,4.000000,100.000000,,,,,,,,,,,,,,,,,,,,,,,,,,,,,,,,,,,,,,,1.181293,1.470797,2.607046,20.030716,15.167330,1.274561,1.851890,3.404455,18.791386,11.127373,2.588840,4.423187,2.607152,8.499407,5.861151,4.106931,3.100850,2.815335,22.432043,11.121082,3.828685,1.789032,2.182094,14.499699,9.710566
1656264824.407915,84.000000,0.000000,4205.128418,4215.384766,4134.358887,4089.230713,4180.000000,450.000000,4.000000,86.000000,,,,0.000000,4.000000,4.000000,4.000000,4.000000,4.000000,100.000000,,,,,,,,,,,,,,,,,,,,,,,,,,,,,,,,,,,,,,,,,,,,,,,,,,,,,,,,,,,,,,,
1656264824.415830,85.000000,0.000000,4189.743652,4205.641113,4120.000000,4067.179443,4175.384766,450.000000,4.000000,86.000000,,,,0.000000,4.000000,4.000000,4.000000,4.000000,4.000000,100.000000,,,,,,,,,,,,,,,,,,,,,,,,,,,,,,,,,,,,,,,,,,,,,,,,,,,,,,,,,,,,,,,
1656264824.423644,86.000000,0.000000,4177.436035,4181.538574,4072.307617,4056.923096,4172.820313,450.000000,4.000000,86.000000,,,,0.000000,4.000000,4.000000,4.000000,4.000000,4.000000,100.000000,,,,,,,,,,,,,,,,,,,,,,,,,,,,,,,,,,,,,,,,,,,,,,,,,,,,,,,,,,,,,,,
1656264824.431558,87.000000,0.000000,4180.000000,4169.743652,4038.461426,4063.076904,4171.794922,16132.000000,4.000000,86.000000,,,,0.000000,4.000000,4.000000,4.000000,4.000000,4.000000,100.000000,,,,,,,,,,,,,,,,,,,,,,,,,,,,,,,,,,,,,,,,,,,,,,,,,,,,,,,,,,,,,,,
1656264824.439373,88.000000,0.000000,4178.974121,4167.179688,4069.230713,4063.076904,4179.487305,450.000000,4.000000,86.000000,,,,0.000000,4.000000,4.000000,4.000000,4.000000,4.000000,100.000000,,,,,,,,,,,,,,,,,,,,,,,,,,,,,,,,,,,,,,,,,,,,,,,,,,,,,,,,,,,,,,,
1656264824.447287,89.000000,0.000000,4161.025879,4170.769043,4109.743652,4041.025635,4182.051270,450.000000,4.000000,86.000000,,,,0.000000,4.000000,4.000000,4.000000,4.000000,4.000000,100.000000,,,,,,,,,,,,,,,,,,,,,,,,,,,,,,,,,,,,,,,,,,,,,,,,,,,,,,,,,,,,,,,
1656264824.455102,90.000000,0.000000,4147.692383,4182.051270,4109.230957,4021.538574,4162.563965,450.000000,4.000000,86.000000,,,,0.000000,4.000000,4.000000,4.000000,4.000000,4.000000,100.000000,,,,,,,,,,,,,,,,,,,,,,,,,,,,,,,,,,,,,,,,,,,,,,,,,,,,,,,,,,,,,,,
1656264824.463016,91.000000,0.000000,4177.948730,4204.102539,4102.563965,4050.769287,4170.769043,16132.000000,4.000000,86.000000,,,,0.000000,4.000000,4.000000,4.000000,4.000000,4.000000,100.000000,,,,,,,,,,,,,,,,,,,,,,,,,,,,,,,,,,,,,,,,,,,,,,,,,,,,,,,,,,,,,,,
1656264824.470830,92.000000,0.000000,4200.512695,4201.025879,4085.641113,4060.512939,4188.717773,450.000000,4.000000,86.000000,,,,0.000000,4.000000,4.000000,4.000000,4.000000,4.000000,100.000000,,,,,,,,,,,,,,,,,,,,,,,,,,,,,,,,,,,,,,,,,,,,,,,,,,,,,,,,,,,,,,,
1656264824.478745,93.000000,0.000000,4196.410156,4196.922852,4086.153809,4045.128174,4195.384766,450.000000,4.000000,86.000000,,,,0.000000,4.000000,4.000000,4.000000,4.000000,4.000000,100.000000,,,,,,,,,,,,,,,,,,,,,,,,,,,,,,,,,,,,,,,,,,,,,,,,,,,,,,,,,,,,,,,
1656264824.486559,94.000000,0.000000,4178.974121,4196.410156,4087.692383,4051.281982,4183.589844,450.000000,4.000000,86.000000,,,,0.000000,4.000000,4.000000,4.000000,4.000000,4.000000,100.000000,,,,,,,,,,,,,,,,,,,,,,,,,,,,,,,,,,,,,,,,,,,,,,,,,,,,,,,,,,,,,,,
1656264824.494473,95.000000,0.000000,4152.307617,4164.615234,4068.205078,4040.512939,4150.256348,16132.000000,4.000000,86.000000,,,,0.000000,4.000000,4.000000,4.000000,4.000000,4.000000,100.000000,,,,,,,,,,,,,,,,,,,,,,,,,,,,,,,,,,,,,,,,,,,,,,,,,,,,,,,,,,,,,,,
1656264824.502288,96.000000,0.000000,4182.563965,4169.743652,4086.666748,4047.692383,4170.769043,450.000000,4.000000,86.000000,,,,0.000000,4.000000,4.000000,4.000000,4.000000,4.000000,100.000000,,,,,,,,,,,,,,,,,,,,,,,,,,,,,,,,,,,,,,,,,,,,,,,,,,,,,,,,,,,,,,,
1656264824.510202,97.000000,0.000000,4246.153809,4220.000000,4115.897461,4097.948730,4222.051270,450.000000,4.000000,86.000000,,,,0.000000,4.000000,4.000000,4.000000,4.000000,4.000000,100.000000,,,,,,,,,,,,,,,,,,,,,,,,,,,,,,,,,,,,,,,,,,,,,,,,,,,,,,,,,,,,,,,
1656264824.518016,98.000000,0.000000,4249.743652,4242.051270,4116.922852,4119.487305,4217.948730,450.000000,4.000000,86.000000,,,,0.000000,4.000000,4.000000,4.000000,4.000000,4.000000,100.000000,,,,,,,,,,,,,,,,,,,,,,,,,,,,,,,,,,,,,,,,,,,,,,,,,,,,,,,,,,,,,,,
1656264824.525931,99.000000,0.000000,4160.000000,4188.205078,4076.923096,4056.410156,4168.205078,16132.000000,4.000000,86.000000,,,,0.000000,4.000000,4.000000,4.000000,4.000000,4.000000,100.000000,,,,,,,,,,,,,,,,,,,,,,,,,,,,,,,,,,,,,,,1.452524,1.625040,2.721698,19.745556,14.914337,1.104116,1.650418,3.768137,19.337673,11.244211,3.240943,5.135480,3.054547,9.121732,6.012015,4.734501,3.179645,3.014580,22.915161,11.086965,4.644707,1.756554,1.965091,15.229876,9.904037
1656264824.533745,100.000000,0.000000,4085.641113,4123.589844,4022.051270,3974.871826,4125.128418,450.000000,4.000000,86.000000,,,,0.000000,4.000000,4.000000,4.000000,4.000000,4.000000,100.000000,,,,,,,,,,,,,,,,,,,,,,,,,,,,,,,,,,,,,,,,,,,,,,,,,,,,,,,,,,,,,,,
1656264824.541659,101.000000,0.000000,4174.358887,4186.666504,4054.871826,4024.615479,4164.102539,450.000000,4.000000,86.000000,,,,0.000000,4.000000,4.000000,4.000000,4.000000,4.000000,100.000000,,,,,,,,,,,,,,,,,,,,,,,,,,,,,,,,,,,,,,,,,,,,,,,,,,,,,,,,,,,,,,,
1656264824.549474,102.000000,0.000000,4278.461426,4260.000000,4133.846191,4120.000000,4229.743652,450.000000,4.000000,86.000000,,,,0.000000,4.000000,4.000000,4.000000,4.000000,4.000000,100.000000,,,,,,,,,,,,,,,,,,,,,,,,,,,,,,,,,,,,,,,,,,,,,,,,,,,,,,,,,,,,,,,
1656264824.557388,103.000000,0.000000,4234.358887,4209.743652,4139.487305,4105.641113,4215.384766,16132.000000,4.000000,86.000000,,,,0.000000,4.000000,4.000000,4.000000,4.000000,4.000000,100.000000,,,,,,,,,,,,,,,,,,,,,,,,,,,,,,,,,,,,,,,,,,,,,,,,,,,,,,,,,,,,,,,
1656264824.565302,104.000000,0.000000,4168.717773,4151.794922,4086.153809,4043.076904,4160.000000,450.000000,4.000000,86.000000,,,,0.000000,4.000000,4.000000,4.000000,4.000000,4.000000,100.000000,,,,,,,,,,,,,,,,,,,,,,,,,,,,,,,,,,,,,,,,,,,,,,,,,,,,,,,,,,,,,,,
1656264824.573117,105.000000,0.000000,4141.538574,4148.205078,4046.666748,4006.666748,4120.000000,450.000000,4.000000,86.000000,,,,0.000000,4.000000,4.000000,4.000000,4.000000,4.000000,100.000000,,,,,,,,,,,,,,,,,,,,,,,,,,,,,,,,,,,,,,,,,,,,,,,,,,,,,,,,,,,,,,,
1656264824.580931,106.000000,0.000000,4154.358887,4178.461426,4076.410156,4037.948730,4142.563965,450.000000,4.000000,86.000000,,,,0.000000,4.000000,4.000000,4.000000,4.000000,4.000000,100.000000,,,,,,,,,,,,,,,,,,,,,,,,,,,,,,,,,,,,,,,,,,,,,,,,,,,,,,,,,,,,,,,
1656264824.588846,107.000000,0.000000,4200.000000,4200.512695,4125.128418,4090.769287,4189.743652,16132.000000,4.000000,86.000000,,,,0.000000,4.000000,4.000000,4.000000,4.000000,4.000000,100.000000,,,,,,,,,,,,,,,,,,,,,,,,,,,,,,,,,,,,,,,,,,,,,,,,,,,,,,,,,,,,,,,
1656264824.596760,108.000000,0.000000,4209.743652,4196.410156,4128.717773,4091.281982,4186.153809,450.000000,4.000000,86.000000,,,,0.000000,4.000000,4.000000,4.000000,4.000000,4.000000,100.000000,,,,,,,,,,,,,,,,,,,,,,,,,,,,,,,,,,,,,,,,,,,,,,,,,,,,,,,,,,,,,,,
1656264824.604574,109.000000,0.000000,4187.692383,4196.922852,4084.615479,4068.718018,4157.948730,450.000000,4.000000,86.000000,,,,0.000000,4.000000,4.000000,4.000000,4.000000,4.000000,100.000000,,,,,,,,,,,,,,,,,,,,,,,,,,,,,,,,,,,,,,,,,,,,,,,,,,,,,,,,,,,,,,,
1656264824.612489,110.000000,0.000000,4173.846191,4171.282227,4034.871826,4051.794922,4136.410156,450.000000,4.000000,86.000000,,,,0.000000,4.000000,4.000000,4.000000,4.000000,4.000000,100.000000,,,,,,,,,,,,,,,,,,,,,,,,,,,,,,,,,,,,,,,,,,,,,,,,,,,,,,,,,,,,,,,
1656264824.620303,111.000000,0.000000,4189.743652,4166.153809,4067.692383,4073.846191,4157.948730,16132.000000,4.000000,86.000000,,,,0.000000,4.000000,4.000000,4.000000,4.000000,4.000000,100.000000,,,,,,,,,,,,,,,,,,,,,,,,,,,,,,,,,,,,,,,,,,,,,,,,,,,,,,,,,,,,,,,
1656264824.628217,112.000000,0.000000,4187.692383,4190.256348,4112.820313,4093.333252,4184.102539,450.000000,4.000000,86.000000,,,,0.000000,4.000000,4.000000,4.000000,4.000000,4.000000,100.000000,,,,,,,,,,,,,,,,,,,,,,,,,,,,,,,,,,,,,,,,,,,,,,,,,,,,,,,,,,,,,,,
1656264824.636032,113.000000,0.000000,4151.794922,4183.077148,4098.461426,4065.641113,4158.974121,450.000000,4.000000,86.000000,,,,0.000000,4.000000,4.000000,4.000000,4.000000,4.000000,100.000000,,,,,,,,,,,,,,,,,,,,,,,,,,,,,,,,,,,,,,,,,,,,,,,,,,,,,,,,,,,,,,,
1656264824.643946,114.000000,0.000000,4178.974121,4192.307617,4103.077148,4072.820557,4156.410156,450.000000,4.000000,86.000000,,,,0.000000,4.000000,4.000000,4.000000,4.000000,4.000000,100.000000,,,,,,,,,,,,,,,,,,,,,,,,,,,,,,,,,,,,,,,,,,,,,,,,,,,,,,,,,,,,,,,
1656264824.651760,115.000000,0.000000,4228.717773,4209.743652,4115.384766,4095.897461,4190.256348,16132.000000,4.000000,86.000000,,,,0.000000,4.000000,4.000000,4.000000,4.000000,4.000000,100.000000,,,,,,,,,,,,,,,,,,,,,,,,,,,,,,,,,,,,,,,1.978918,1.957494,2.610798,19.923796,14.625186,0.988502,1.455109,3.795497,19.664679,10.981207,3.814619,5.721852,3.411676,9.669129,6.308960,4.966840,2.909194,3.217058,23.649170,10.969230,5.234927,1.587178,1.598676,16.201206,10.053751
1656264824.659675,116.000000,0.000000,4222.563965,4196.922852,4132.820313,4072.307617,4200.512695,450.000000,4.000000,86.000000,,,,0.000000,4.000000,4.000000,4.000000,4.000000,4.000000,100.000000,,,,,,,,,,,,,,,,,,,,,,,,,,,,,,,,,,,,,,,,,,,,,,,,,,,,,,,,,,,,,,,
1656264824.667489,117.000000,0.000000,4167.179688,4165.641113,4141.025879,4038.461426,4159.487305,450.000000,4.000000,86.000000,,,,0.000000,4.000000,4.000000,4.000000,4.000000,4.000000,100.000000,,,,,,,,,,,,,,,,,,,,,,,,,,,,,,,,,,,,,,,,,,,,,,,,,,,,,,,,,,,,,,,
1656264824.675403,118.000000,0.000000,4120.000000,4132.820313,4090.256348,4015.384521,4110.769043,450.000000,4.000000,86.000000,,,,0.000000,4.000000,4.000000,4.000000,4.000000,4.000000,100.000000,,,,,,,,,,,,,,,,,,,,,,,,,,,,,,,,,,,,,,,,,,,,,,,,,,,,,,,,,,,,,,,
1656264824.683218,119.000000,0.000000,4173.846191,4152.307617,4067.692383,4037.435791,4150.769043,16132.000000,4.000000,86.000000,,,,0.000000,4.000000,4.000000,4.000000,4.000000,4.000000,100.000000,,,,,,,,,,,,,,,,,,,,,,,,,,,,,,,,,,,,,,,,,,,,,,,,,,,,,,,,,,,,,,,
1656264824.691032,120.000000,0.000000,4241.025879,4216.922852,4095.384521,4083.589844,4217.948730,450.000000,4.000000,86.000000,,,,0.000000,4.000000,4.000000,4.000000,4.000000,4.000000,100.000000,,,,,,,,,,,,,,,,,,,,,,,,,,,,,,,,,,,,,,,,,,,,,,,,,,,,,,,,,,,,,,,
1656264824.698747,121.000000,0.000000,4223.589844,4233.846191,4112.307617,4089.230713,4211.282227,450.000000,4.000000,86.000000,,,,0.000000,4.000000,4.000000,4.000000,4.000000,4.000000,100.000000,,,,,,,,,,,,,,,,,,,,,,,,,,,,,,,,,,,,,,,,,,,,,,,,,,,,,,,,,,,,,,,
1656264824.706661,122.000000,0.000000,4162.051270,4171.794922,4084.102539,4048.205078,4149.230957,450.000000,4.000000,86.000000,,,,0.000000,4.000000,4.000000,4.000000,4.000000,4.000000,100.000000,,,,,,,,,,,,,,,,,,,,,,,,,,,,,,,,,,,,,,,,,,,,,,,,,,,,,,,,,,,,,,,
1656264824.714575,123.000000,0.000000,4114.871582,4126.153809,4041.538574,4007.179443,4106.666504,16132.000000,4.000000,86.000000,,,,0.000000,4.000000,4.000000,4.000000,4.000000,4.000000,100.000000,,,,,,,,,,,,,,,,,,,,,,,,,,,,,,,,,,,,,,,,,,,,,,,,,,,,,,,,,,,,,,,
1656264824.722390,124.000000,0.000000,4164.102539,4178.974121,4081.538574,4046.666748,4149.743652,450.000000,4.000000,86.000000,,,,0.000000,4.000000,4.000000,4.000000,4.000000,4.000000,100.000000,,,,,,,,,,,,,,,,,,,,,,,,,,,,,,,,,,,,,,,,,,,,,,,,,,,,,,,,,,,,,,,
1656264824.730204,125.000000,0.000000,4246.153809,4234.358887,4157.948730,4115.384766,4212.820313,450.000000,4.000000,86.000000,,,,0.000000,4.000000,4.000000,4.000000,4.000000,4.000000,100.000000,,,,,,,,,,,,,,,,,,,,,,,,,,,,,,,,,,,,,,,,,,,,,,,,,,,,,,,,,,,,,,,
1656264824.738118,126.000000,0.000000,4248.205078,4230.256348,4156.410156,4110.769043,4221.025879,450.000000,4.000000,86.000000,,,,0.000000,4.000000,4.000000,4.000000,4.000000,4.000000,100.000000,,,,,,,,,,,,,,,,,,,,,,,,,,,,,,,,,,,,,,,,,,,,,,,,,,,,,,,,,,,,,,,
1656264824.746033,127.000000,0.000000,4201.538574,4216.410156,4101.538574,4055.897461,4191.794922,241.000000,4.000000,86.000000,,,,0.000000,4.000000,4.000000,4.000000,4.000000,4.000000,100.000000,,,,,,,,,,,,,,,,,,,,,,,,,,,,,,,,,,,,,,,,,,,,,,,,,,,,,,,,,,,,,,,
1656264824.753847,0.000000,0.000000,4166.666504,4176.922852,4073.333252,4013.333252,4137.948730,450.000000,4.000000,86.000000,,,,0.000000,4.000000,4.000000,4.000000,4.000000,4.000000,100.000000,,,,,,,,,,,,,,,,,,,,,,,,,,,,,,,,,,,,,,,,,,,,,,,,,,,,,,,,,,,,,,,
1656264824.761761,1.000000,0.000000,4188.205078,4168.717773,4092.820557,4030.769287,4141.025879,450.000000,4.000000,86.000000,,,,0.000000,4.000000,4.000000,4.000000,4.000000,4.000000,100.000000,,,,,,,,,,,,,,,,,,,,,,,,,,,,,,,,,,,,,,,,,,,,,,,,,,,,,,,,,,,,,,,
1656264824.769576,2.000000,0.000000,4223.077148,4205.641113,4108.205078,4057.948730,4186.666504,16163.000000,4.000000,86.000000,,,,0.000000,4.000000,4.000000,4.000000,4.000000,4.000000,100.000000,,,,,,,,,,,,,,,,,,,,,,,,,,,,,,,,,,,,,,,,,,,,,,,,,,,,,,,,,,,,,,,
1656264824.777390,3.000000,0.000000,4206.666504,4205.641113,4092.307617,4054.871826,4180.512695,450.000000,4.000000,86.000000,,,,0.000000,4.000000,4.000000,4.000000,4.000000,4.000000,100.000000,1.000000,41.666668,1.000000,3.000000,3.000000,3.000000,1.000000,,,,,,,,,,,,,,,,,,,,,,,,,,,,,,,,2.673997,2.389128,2.342465,20.651243,14.280049,1.024082,1.304980,3.476954,19.513433,10.420598,4.133505,6.003358,3.610725,10.137664,6.678879,4.781676,2.440616,3.390455,24.409754,10.781621,5.408869,1.323257,1.157048,17.031813,10.029367
1656264824.785305,4.000000,0.000000,4188.205078,4182.563965,4051.281982,4063.589844,4155.897461,16112.000000,4.000000,86.000000,,,,0.000000,4.000000,4.000000,4.000000,4.000000,4.000000,100.000000,,,,,,,,,,,,,,,,,,,,,,,,,,,,,,,,,,,,,,,,,,,,,,,,,,,,,,,,,,,,,,,
1656264824.793219,5.000000,0.000000,4185.128418,4168.717773,4013.846191,4047.179443,4138.974121,450.000000,4.000000,86.000000,,,,0.000000,4.000000,4.000000,4.000000,4.000000,4.000000,100.000000,,,,,,,,,,,,,,,,,,,,,,,,,,,,,,,,,,,,,,,,,,,,,,,,,,,,,,,,,,,,,,,
1656264824.801033,6.000000,0.000000,4181.025879,4172.307617,4037.948730,4026.153809,4136.410156,16159.000000,4.000000,86.000000,,,,0.000000,4.000000,4.000000,4.000000,4.000000,4.000000,100.000000,,,,,,,,,,,,,,,,,,,,,,,,,,,,,,,,,,,,,,,,,,,,,,,,,,,,,,,,,,,,,,,
1656264824.808948,7.000000,0.000000,4158.461426,4163.077148,4065.128174,4024.102539,4131.282227,450.000000,4.000000,86.000000,,,,0.000000,4.000000,4.000000,4.000000,4.000000,4.000000,100.000000,,,,,,,,,,,,,,,,,,,,,,,,,,,,,,,,,,,,,,,,,,,,,,,,,,,,,,,,,,,,,,,
1656264824.816862,8.000000,0.000000,4127.179688,4140.512695,4049.230713,4008.205078,4118.974121,450.000000,4.000000,86.000000,,,,0.000000,4.000000,4.000000,4.000000,4.000000,4.000000,100.000000,,,,,,,,,,,,,,,,,,,,,,,,,,,,,,,,,,,,,,,,,,,,,,,,,,,,,,,,,,,,,,,
1656264824.824776,9.000000,0.000000,4174.358887,4182.563965,4053.333252,4041.538574,4158.461426,16157.000000,4.000000,86.000000,,,,0.000000,4.000000,4.000000,4.000000,4.000000,4.000000,100.000000,,,,,,,,,,,,,,,,,,,,,,,,,,,,,,,,,,,,,,,,,,,,,,,,,,,,,,,,,,,,,,,
1656264824.832591,10.000000,0.000000,4249.230957,4238.461426,4067.179443,4092.307617,4201.538574,450.000000,4.000000,86.000000,,,,0.000000,4.000000,4.000000,4.000000,4.000000,4.000000,100.000000,,,,,,,,,,,,,,,,,,,,,,,,,,,,,,,,,,,,,,,,,,,,,,,,,,,,,,,,,,,,,,,
1656264824.840505,11.000000,0.000000,4237.436035,4214.871582,4090.256348,4082.051270,4190.769043,16136.000000,4.000000,86.000000,,,,0.000000,4.000000,4.000000,4.000000,4.000000,4.000000,100.000000,,,,,,,,,,,,,,,,,,,,,,,,,,,,,,,,,,,,,,,,,,,,,,,,,,,,,,,,,,,,,,,
1656264824.848319,12.000000,0.000000,4165.128418,4147.692383,4092.307617,4026.666748,4141.538574,450.000000,4.000000,86.000000,,,,0.000000,4.000000,4.000000,4.000000,4.000000,4.000000,100.000000,,,,,,,,,,,,,,,,,,,,,,,,,,,,,,,,,,,,,,,,,,,,,,,,,,,,,,,,,,,,,,,
1656264824.856234,13.000000,0.000000,4135.384766,4122.563965,4053.333252,3987.179443,4106.153809,450.000000,4.000000,86.000000,,,,0.000000,4.000000,4.000000,4.000000,4.000000,4.000000,100.000000,,,,,,,,,,,,,,,,,,,,,,,,,,,,,,,,,,,,,,,,,,,,,,,,,,,,,,,,,,,,,,,
1656264824.864048,14.000000,0.000000,4193.333496,4178.461426,4075.897461,4032.307617,4160.000000,450.000000,4.000000,86.000000,,,,0.000000,4.000000,4.000000,4.000000,4.000000,4.000000,100.000000,,,,,,,,,,,,,,,,,,,,,,,,,,,,,,,,,,,,,,,,,,,,,,,,,,,,,,,,,,,,,,,
1656264824.871962,15.000000,0.000000,4233.846191,4224.102539,4117.948730,4080.000000,4212.307617,16136.000000,4.000000,86.000000,,,,0.000000,4.000000,4.000000,4.000000,4.000000,4.000000,100.000000,,,,,,,,,,,,,,,,,,,,,,,,,,,,,,,,,,,,,,,,,,,,,,,,,,,,,,,,,,,,,,,
1656264824.879777,16.000000,0.000000,4205.128418,4190.769043,4094.871826,4055.384521,4179.487305,0.000000,4.000000,86.000000,,,,0.000000,4.000000,4.000000,4.000000,4.000000,4.000000,100.000000,,,,,,,,,,,,,,,,,,,,,,,,,,,,,,,,,,,,,,,,,,,,,,,,,,,,,,,,,,,,,,,
1656264824.887691,17.000000,0.000000,4159.487305,4143.077148,4047.179443,4009.230713,4130.769043,0.000000,4.000000,86.000000,,,,0.000000,4.000000,4.000000,4.000000,4.000000,4.000000,100.000000,,,,,,,,,,,,,,,,,,,,,,,,,,,,,,,,,,,,,,,,,,,,,,,,,,,,,,,,,,,,,,,
1656264824.895605,18.000000,0.000000,4127.179688,4130.769043,4024.102539,3981.025635,4103.589844,0.000000,4.000000,86.000000,,,,0.000000,4.000000,4.000000,4.000000,4.000000,4.000000,100.000000,,,,,,,,,,,,,,,,,,,,,,,,,,,,,,,,,,,,,,,,,,,,,,,,,,,,,,,,,,,,,,,
1656264824.903420,19.000000,0.000000,4156.410156,4182.051270,4070.256348,4014.871826,4122.563965,0.000000,4.000000,86.000000,,,,0.000000,4.000000,4.000000,4.000000,4.000000,4.000000,100.000000,,,,,,,,,,,,,,,,,,,,,,,,,,,,,,,,,,,,,,,3.332697,2.759211,2.020766,21.804588,13.889154,1.232053,1.212294,2.926167,18.762167,9.703751,4.023861,5.899090,3.666013,10.531942,7.045459,4.247621,2.015624,3.484102,24.810223,10.561898,5.109863,1.026831,0.754369,17.340309,9.769767
1656264824.911234,20.000000,0.000000,4202.051270,4223.589844,4122.051270,4069.743652,4176.410156,0.000000,4.000000,86.000000,,,,0.000000,4.000000,4.000000,4.000000,4.000000,4.000000,100.000000,,,,,,,,,,,,,,,,,,,,,,,,,,,,,,,,,,,,,,,,,,,,,,,,,,,,,,,,,,,,,,,
1656264824.919148,21.000000,0.000000,4214.871582,4212.307617,4120.512695,4076.923096,4191.282227,0.000000,4.000000,86.000000,,,,0.000000,4.000000,4.000000,4.000000,4.000000,4.000000,100.000000,,,,,,,,,,,,,,,,,,,,,,,,,,,,,,,,,,,,,,,,,,,,,,,,,,,,,,,,,,,,,,,
1656264824.927063,22.000000,0.000000,4207.179688,4188.205078,4084.102539,4048.718018,4150.769043,0.000000,4.000000,86.000000,,,,0.000000,4.000000,4.000000,4.000000,4.000000,4.000000,100.000000,,,,,,,,,,,,,,,,,,,,,,,,,,,,,,,,,,,,,,,,,,,,,,,,,,,,,,,,,,,,,,,
1656264824.934877,23.000000,0.000000,4173.333496,4156.410156,4039.487061,4016.410156,4120.512695,0.000000,4.000000,86.000000,,,,0.000000,4.000000,4.000000,4.000000,4.000000,4.000000,100.000000,,,,,,,,,,,,,,,,,,,,,,,,,,,,,,,,,,,,,,,,,,,,,,,,,,,,,,,,,,,,,,,
1656264824.942692,24.000000,0.000000,4182.563965,4172.307617,4054.358887,4036.923096,4161.025879,0.000000,4.000000,86.000000,,,,0.000000,4.000000,4.000000,4.000000,4.000000,4.000000,100.000000,,,,,,,,,,,,,,,,,,,,,,,,,,,,,,,,,,,,,,,,,,,,,,,,,,,,,,,,,,,,,,,
1656264824.950606,25.000000,0.000000,4212.307617,4205.641113,4086.666748,4073.333252,4192.820313,0.000000,4.000000,86.000000,,,,0.000000,4.000000,4.000000,4.000000,4.000000,4.000000,100.000000,,,,,,,,,,,,,,,,,,,,,,,,,,,,,,,,,,,,,,,,,,,,,,,,,,,,,,,,,,,,,,,
1656264824.958520,26.000000,0.000000,4190.256348,4188.717773,4076.923096,4055.897461,4174.358887,0.000000,4.000000,86.000000,,,,0.000000,4.000000,4.000000,4.000000,4.000000,4.000000,100.000000,,,,,,,,,,,,,,,,,,,,,,,,,,,,,,,,,,,,,,,,,,,,,,,,,,,,,,,,,,,,,,,
1656264824.966335,27.000000,0.000000,4178.461426,4182.563965,4055.384521,4043.076904,4176.410156,0.000000,4.000000,86.000000,,,,0.000000,4.000000,4.000000,4.000000,4.000000,4.000000,100.000000,,,,,,,,,,,,,,,,,,,,,,,,,,,,,,,,,,,,,,,,,,,,,,,,,,,,,,,,,,,,,,,
1656264824.974249,28.000000,0.000000,4181.538574,4181.025879,4024.102539,4045.128174,4164.102539,0.000000,4.000000,86.000000,,,,0.000000,4.000000,4.000000,4.000000,4.000000,4.000000,100.000000,,,,,,,,,,,,,,,,,,,,,,,,,,,,,,,,,,,,,,,,,,,,,,,,,,,,,,,,,,,,,,,
1656264824.982063,29.000000,0.000000,4178.974121,4171.794922,4016.410156,4045.641113,4143.077148,0.000000,4.000000,86.000000,,,,0.000000,4.000000,4.000000,4.000000,4.000000,4.000000,100.000000,,,,,,,,,,,,,,,,,,,,,,,,,,,,,,,,,,,,,,,,,,,,,,,,,,,,,,,,,,,,,,,
1656264824.989978,30.000000,0.000000,4158.461426,4167.692383,4024.102539,4037.435791,4144.615234,0.000000,4.000000,86.000000,,,,0.000000,4.000000,4.000000,4.000000,4.000000,4.000000,100.000000,,,,,,,,,,,,,,,,,,,,,,,,,,,,,,,,,,,,,,,,,,,,,,,,,,,,,,,,,,,,,,,
1656264824.997792,31.000000,0.000000,4118.974121,4154.358887,4012.820557,4011.794922,4127.692383,0.000000,4.000000,86.000000,,,,0.000000,4.000000,4.000000,4.000000,4.000000,4.000000,100.000000,,,,,,,,,,,,,,,,,,,,,,,,,,,,,,,,,,,,,,,,,,,,,,,,,,,,,,,,,,,,,,,
1656264825.005706,32.000000,0.000000,4155.897461,4174.358887,4029.743652,4034.358887,4146.153809,0.000000,4.000000,86.000000,,,,0.000000,4.000000,4.000000,4.000000,4.000000,4.000000,100.000000,,,,,,,,,,,,,,,,,,,,,,,,,,,,,,,,,,,,,,,,,,,,,,,,,,,,,,,,,,,,,,,
1656264825.013521,33.000000,0.000000,4225.641113,4227.179688,4066.666748,4078.461426,4192.820313,0.000000,4.000000,86.000000,,,,0.000000,4.000000,4.000000,4.000000,4.000000,4.000000,100.000000,,,,,,,,,,,,,,,,,,,,,,,,,,,,,,,,,,,,,,,,,,,,,,,,,,,,,,,,,,,,,,,
1656264825.021435,34.000000,0.000000,4216.410156,4233.846191,4067.692383,4081.538574,4197.436035,0.000000,4.000000,86.000000,,,,0.000000,4.000000,4.000000,4.000000,4.000000,4.000000,100.000000,,,,,,,,,,,,,,,,,,,,,,,,,,,,,,,,,,,,,,,,,,,,,,,,,,,,,,,,,,,,,,,
1656264825.029249,35.000000,0.000000,4162.563965,4167.179688,4033.846191,4056.923096,4155.897461,0.000000,4.000000,86.000000,,,,0.000000,4.000000,4.000000,4.000000,4.000000,4.000000,100.000000,,,,,,,,,,,,,,,,,,,,,,,,,,,,,,,,,,,,,,,3.775244,2.953321,1.735757,23.109653,13.502463,1.592698,1.206900,2.323849,17.536657,8.986065,3.537007,5.616967,3.651679,10.824238,7.374240,3.501492,1.882796,3.452332,24.526039,10.347045,4.459867,0.786205,0.484314,16.978933,9.322418
1656264825.037164,36.000000,0.000000,4115.897461,4101.025879,4007.179443,4015.384521,4104.615234,0.000000,4.000000,86.000000,,,,0.000000,4.000000,4.000000,4.000000,4.000000,4.000000,100.000000,,,,,,,,,,,,,,,,,,,,,,,,,,,,,,,,,,,,,,,,,,,,,,,,,,,,,,,,,,,,,,,
1656264825.044978,37.000000,0.000000,4157.948730,4146.666504,4042.051270,4050.256348,4133.333496,0.000000,4.000000,86.000000,,,,0.000000,4.000000,4.000000,4.000000,4.000000,4.000000,100.000000,,,,,,,,,,,,,,,,,,,,,,,,,,,,,,,,,,,,,,,,,,,,,,,,,,,,,,,,,,,,,,,
1656264825.052892,38.000000,0.000000,4243.589844,4233.333496,4080.512939,4131.282227,4200.000000,0.000000,4.000000,86.000000,,,,0.000000,4.000000,4.000000,4.000000,4.000000,4.000000,100.000000,,,,,,,,,,,,,,,,,,,,,,,,,,,,,,,,,,,,,,,,,,,,,,,,,,,,,,,,,,,,,,,
1656264825.060707,39.000000,0.000000,4235.384766,4228.205078,4058.974365,4108.717773,4200.000000,0.000000,4.000000,86.000000,,,,0.000000,4.000000,4.000000,4.000000,4.000000,4.000000,100.000000,,,,,,,,,,,,,,,,,,,,,,,,,,,,,,,,,,,,,,,,,,,,,,,,,,,,,,,,,,,,,,,
1656264825.068621,40.000000,0.000000,4168.717773,4171.282227,4029.743652,4033.333252,4160.000000,0.000000,4.000000,86.000000,,,,0.000000,4.000000,4.000000,4.000000,4.000000,4.000000,100.000000,,,,,,,,,,,,,,,,,,,,,,,,,,,,,,,,,,,,,,,,,,,,,,,,,,,,,,,,,,,,,,,
1656264825.076436,41.000000,0.000000,4126.666504,4133.846191,4018.461426,3999.487061,4115.384766,0.000000,4.000000,86.000000,,,,0.000000,4.000000,4.000000,4.000000,4.000000,4.000000,100.000000,,,,,,,,,,,,,,,,,,,,,,,,,,,,,,,,,,,,,,,,,,,,,,,,,,,,,,,,,,,,,,,
1656264825.084350,42.000000,0.000000,4147.179688,4168.205078,4038.461426,4017.435791,4129.230957,0.000000,4.000000,86.000000,,,,0.000000,4.000000,4.000000,4.000000,4.000000,4.000000,100.000000,,,,,,,,,,,,,,,,,,,,,,,,,,,,,,,,,,,,,,,,,,,,,,,,,,,,,,,,,,,,,,,
1656264825.092164,43.000000,0.000000,4203.077148,4221.538574,4073.333252,4071.794922,4196.922852,0.000000,4.000000,86.000000,,,,0.000000,4.000000,4.000000,4.000000,4.000000,4.000000,100.000000,,,,,,,,,,,,,,,,,,,,,,,,,,,,,,,,,,,,,,,,,,,,,,,,,,,,,,,,,,,,,,,
1656264825.100079,44.000000,0.000000,4212.820313,4205.128418,4085.641113,4091.794922,4212.307617,0.000000,4.000000,86.000000,,,,0.000000,4.000000,4.000000,4.000000,4.000000,4.000000,100.000000,,,,,,,,,,,,,,,,,,,,,,,,,,,,,,,,,,,,,,,,,,,,,,,,,,,,,,,,,,,,,,,
1656264825.107893,45.000000,0.000000,4184.102539,4180.512695,4066.666748,4064.615479,4180.000000,0.000000,4.000000,86.000000,,,,0.000000,4.000000,4.000000,4.000000,4.000000,4.000000,100.000000,,,,,,,,,,,,,,,,,,,,,,,,,,,,,,,,,,,,,,,,,,,,,,,,,,,,,,,,,,,,,,,
1656264825.115807,46.000000,0.000000,4165.128418,4181.538574,4022.564209,4043.589844,4158.461426,0.000000,4.000000,86.000000,,,,0.000000,4.000000,4.000000,4.000000,4.000000,4.000000,100.000000,,,,,,,,,,,,,,,,,,,,,,,,,,,,,,,,,,,,,,,,,,,,,,,,,,,,,,,,,,,,,,,
1656264825.123622,47.000000,0.000000,4190.769043,4191.794922,4038.461426,4061.025635,4174.871582,0.000000,4.000000,86.000000,,,,0.000000,4.000000,4.000000,4.000000,4.000000,4.000000,100.000000,,,,,,,,,,,,,,,,,,,,,,,,,,,,,,,,,,,,,,,,,,,,,,,,,,,,,,,,,,,,,,,
1656264825.131536,48.000000,0.000000,4205.641113,4195.897461,4081.025635,4071.281982,4192.307617,0.000000,4.000000,86.000000,,,,0.000000,4.000000,4.000000,4.000000,4.000000,4.000000,100.000000,,,,,,,,,,,,,,,,,,,,,,,,,,,,,,,,,,,,,,,,,,,,,,,,,,,,,,,,,,,,,,,
1656264825.139450,49.000000,0.000000,4178.461426,4190.256348,4065.641113,4049.230713,4182.563965,0.000000,4.000000,86.000000,,,,0.000000,4.000000,4.000000,4.000000,4.000000,4.000000,100.000000,,,,,,,,,,,,,,,,,,,,,,,,,,,,,,,,,,,,,,,,,,,,,,,,,,,,,,,,,,,,,,,
1656264825.147265,50.000000,0.000000,4189.743652,4199.487305,4038.461426,4058.461426,4180.512695,0.000000,4.000000,86.000000,,,,0.000000,4.000000,4.000000,4.000000,4.000000,4.000000,100.000000,,,,,,,,,,,,,,,,,,,,,,,,,,,,,,,,,,,,,,,,,,,,,,,,,,,,,,,,,,,,,,,
1656264825.155179,51.000000,0.000000,4206.666504,4203.077148,4026.153809,4066.666748,4172.307617,0.000000,4.000000,86.000000,,,,0.000000,4.000000,4.000000,4.000000,4.000000,4.000000,100.000000,,,,,,,,,,,,,,,,,,,,,,,,,,,,,,,,,,,,,,,3.877120,2.994578,1.521767,24.226488,13.176008,1.998861,1.316527,1.821593,16.193066,8.390051,3.014635,5.543187,3.613494,10.968513,7.662648,2.730257,2.131309,3.251230,23.491875,10.128981,3.706034,0.734428,0.370567,16.132584,8.806182
1656264825.162993,52.000000,0.000000,4188.717773,4202.051270,4042.051270,4063.589844,4180.512695,0.000000,4.000000,86.000000,,,,0.000000,4.000000,4.000000,4.000000,4.000000,4.000000,100.000000,,,,,,,,,,,,,,,,,,,,,,,,,,,,,,,,,,,,,,,,,,,,,,,,,,,,,,,,,,,,,,,
1656264825.170908,53.000000,0.000000,4151.794922,4193.846191,4044.102539,4049.743652,4182.051270,0.000000,4.000000,86.000000,,,,0.000000,4.000000,4.000000,4.000000,4.000000,4.000000,100.000000,,,,,,,,,,,,,,,,,,,,,,,,,,,,,,,,,,,,,,,,,,,,,,,,,,,,,,,,,,,,,,,
1656264825.178722,54.000000,0.000000,4114.871582,4163.589844,4020.000000,4010.769287,4140.512695,0.000000,4.000000,86.000000,,,,0.000000,4.000000,4.000000,4.000000,4.000000,4.000000,100.000000,,,,,,,,,,,,,,,,,,,,,,,,,,,,,,,,,,,,,,,,,,,,,,,,,,,,,,,,,,,,,,,
1656264825.186537,55.000000,0.000000,4150.256348,4175.384766,4040.000000,4040.000000,4160.000000,0.000000,4.000000,86.000000,,,,0.000000,4.000000,4.000000,4.000000,4.000000,4.000000,100.000000,,,,,,,,,,,,,,,,,,,,,,,,,,,,,,,,,,,,,,,,,,,,,,,,,,,,,,,,,,,,,,,
1656264825.194451,56.000000,0.000000,4216.922852,4212.820313,4078.461426,4096.410156,4221.538574,0.000000,4.000000,86.000000,,,,0.000000,4.000000,4.000000,4.000000,4.000000,4.000000,100.000000,,,,,,,,,,,,,,,,,,,,,,,,,,,,,,,,,,,,,,,,,,,,,,,,,,,,,,,,,,,,,,,
1656264825.202365,57.000000,0.000000,4224.102539,4214.871582,4093.846191,4087.692383,4216.922852,0.000000,4.000000,86.000000,,,,0.000000,4.000000,4.000000,4.000000,4.000000,4.000000,100.000000,,,,,,,,,,,,,,,,,,,,,,,,,,,,,,,,,,,,,,,,,,,,,,,,,,,,,,,,,,,,,,,
1656264825.210180,58.000000,0.000000,4171.794922,4182.563965,4063.589844,4026.153809,4153.846191,0.000000,4.000000,86.000000,,,,0.000000,4.000000,4.000000,4.000000,4.000000,4.000000,100.000000,,,,,,,,,,,,,,,,,,,,,,,,,,,,,,,,,,,,,,,,,,,,,,,,,,,,,,,,,,,,,,,
1656264825.218094,59.000000,0.000000,4117.948730,4140.512695,4015.384521,3980.000000,4111.794922,0.000000,4.000000,86.000000,,,,0.000000,4.000000,4.000000,4.000000,4.000000,4.000000,100.000000,,,,,,,,,,,,,,,,,,,,,,,,,,,,,,,,,,,,,,,,,,,,,,,,,,,,,,,,,,,,,,,
1656264825.225908,60.000000,0.000000,4151.282227,4180.000000,4030.256348,4035.897461,4155.897461,0.000000,4.000000,86.000000,,,,0.000000,4.000000,4.000000,4.000000,4.000000,4.000000,100.000000,,,,,,,,,,,,,,,,,,,,,,,,,,,,,,,,,,,,,,,,,,,,,,,,,,,,,,,,,,,,,,,
1656264825.233823,61.000000,0.000000,4227.692383,4248.205078,4062.564209,4104.615234,4213.333496,0.000000,4.000000,86.000000,,,,0.000000,4.000000,4.000000,4.000000,4.000000,4.000000,100.000000,,,,,,,,,,,,,,,,,,,,,,,,,,,,,,,,,,,,,,,,,,,,,,,,,,,,,,,,,,,,,,,
1656264825.241637,62.000000,0.000000,4242.563965,4236.410156,4069.743652,4089.230713,4210.769043,0.000000,4.000000,86.000000,,,,0.000000,4.000000,4.000000,4.000000,4.000000,4.000000,100.000000,,,,,,,,,,,,,,,,,,,,,,,,,,,,,,,,,,,,,,,,,,,,,,,,,,,,,,,,,,,,,,,
1656264825.249551,63.000000,0.000000,4203.589844,4174.871582,4063.076904,4040.512939,4164.615234,0.000000,4.000000,86.000000,,,,0.000000,4.000000,4.000000,4.000000,4.000000,4.000000,100.000000,,,,,,,,,,,,,,,,,,,,,,,,,,,,,,,,,,,,,,,,,,,,,,,,,,,,,,,,,,,,,,,
1656264825.257366,64.000000,0.000000,4157.948730,4133.333496,4018.461426,4008.205078,4123.077148,450.000000,4.000000,86.000000,,,,0.000000,4.000000,4.000000,4.000000,4.000000,4.000000,100.000000,,,,,,,,,,,,,,,,,,,,,,,,,,,,,,,,,,,,,,,,,,,,,,,,,,,,,,,,,,,,,,,
1656264825.265280,65.000000,0.000000,4181.538574,4172.307617,4014.358887,4034.871826,4147.692383,450.000000,4.000000,86.000000,,,,0.000000,4.000000,4.000000,4.000000,4.000000,4.000000,100.000000,,,,,,,,,,,,,,,,,,,,,,,,,,,,,,,,,,,,,,,,,,,,,,,,,,,,,,,,,,,,,,,
1656264825.273094,66.000000,0.000000,4237.436035,4211.282227,4080.000000,4075.897461,4186.666504,16124.000000,4.000000,86.000000,,,,0.000000,4.000000,4.000000,4.000000,4.000000,4.000000,100.000000,,,,,,,,,,,,,,,,,,,,,,,,,,,,,,,,,,,,,,,,,,,,,,,,,,,,,,,,,,,,,,,
1656264825.281009,67.000000,0.000000,4216.922852,4185.641113,4102.051270,4066.666748,4175.384766,450.000000,4.000000,86.000000,,,,0.000000,4.000000,2.000000,4.000000,4.000000,4.000000,83.333336,1.000000,50.000000,1.000000,2.000000,3.000000,3.000000,3.000000,,,,,,,,,,,,,,,,,,,,,,,,,,,,,,,,3.630052,3.048790,1.361482,24.879286,12.924286,2.356320,1.544376,1.465234,15.157822,7.991134,2.916799,6.000490,3.511814,10.945748,7.894441,2.071395,2.679569,2.879057,21.932976,9.860847,3.084326,0.970627,0.375800,15.215671,8.355759
1656264825.288823,68.000000,0.000000,4163.077148,4176.922852,4033.846191,4042.564209,4156.410156,304.000000,4.000000,86.000000,,,,0.000000,4.000000,2.000000,4.000000,4.000000,4.000000,83.333336,,,,,,,,,,,,,,,,,,,,,,,,,,,,,,,,,,,,,,,,,,,,,,,,,,,,,,,,,,,,,,,
1656264825.296737,69.000000,0.000000,4147.179688,4183.077148,3981.538574,4010.769287,4137.948730,450.000000,4.000000,86.000000,,,,0.000000,4.000000,2.000000,4.000000,4.000000,4.000000,83.333336,,,,,,,,,,,,,,,,,,,,,,,,,,,,,,,,,,,,,,,,,,,,,,,,,,,,,,,,,,,,,,,
1656264825.304552,70.000000,0.000000,4187.692383,4184.615234,4031.281982,4012.820557,4151.794922,16182.000000,4.000000,86.000000,,,,0.000000,4.000000,2.000000,4.000000,4.000000,4.000000,83.333336,,,,,,,,,,,,,,,,,,,,,,,,,,,,,,,,,,,,,,,,,,,,,,,,,,,,,,,,,,,,,,,
1656264825.312466,71.000000,0.000000,4204.102539,4176.410156,4074.358887,4047.179443,4188.717773,450.000000,4.000000,86.000000,,,,0.000000,4.000000,2.000000,4.000000,4.000000,4.000000,83.333336,,,,,,,,,,,,,,,,,,,,,,,,,,,,,,,,,,,,,,,,,,,,,,,,,,,,,,,,,,,,,,,
1656264825.320380,72.000000,0.000000,4168.717773,4161.538574,4044.102539,4051.281982,4188.205078,450.000000,4.000000,86.000000,,,,0.000000,4.000000,2.000000,4.000000,4.000000,4.000000,83.333336,,,,,,,,,,,,,,,,,,,,,,,,,,,,,,,,,,,,,,,,,,,,,,,,,,,,,,,,,,,,,,,
1656264825.328195,73.000000,0.000000,4187.692383,4196.922852,4020.512939,4071.794922,4195.384766,16116.000000,4.000000,86.000000,,,,0.000000,4.000000,2.000000,4.000000,4.000000,4.000000,83.333336,,,,,,,,,,,,,,,,,,,,,,,,,,,,,,,,,,,,,,,,,,,,,,,,,,,,,,,,,,,,,,,
1656264825.336009,74.000000,0.000000,4222.051270,4234.871582,4015.384521,4092.820557,4198.974121,450.000000,4.000000,86.000000,,,,0.000000,4.000000,2.000000,4.000000,4.000000,4.000000,83.333336,,,,,,,,,,,,,,,,,,,,,,,,,,,,,,,,,,,,,,,,,,,,,,,,,,,,,,,,,,,,,,,
1656264825.343924,75.000000,0.000000,4209.743652,4218.461426,4034.871826,4058.974365,4171.794922,16148.000000,4.000000,86.000000,,,,0.000000,4.000000,2.000000,4.000000,4.000000,4.000000,83.333336,,,,,,,,,,,,,,,,,,,,,,,,,,,,,,,,,,,,,,,,,,,,,,,,,,,,,,,,,,,,,,,
1656264825.351838,76.000000,0.000000,4169.230957,4165.128418,4049.743652,4017.435791,4143.077148,450.000000,4.000000,86.000000,,,,0.000000,4.000000,2.000000,4.000000,4.000000,4.000000,83.333336,,,,,,,,,,,,,,,,,,,,,,,,,,,,,,,,,,,,,,,,,,,,,,,,,,,,,,,,,,,,,,,
1656264825.359652,77.000000,0.000000,4135.897461,4124.615234,4022.564209,4006.666748,4126.153809,450.000000,4.000000,86.000000,,,,0.000000,4.000000,2.000000,4.000000,4.000000,4.000000,83.333336,,,,,,,,,,,,,,,,,,,,,,,,,,,,,,,,,,,,,,,,,,,,,,,,,,,,,,,,,,,,,,,
1656264825.367567,78.000000,0.000000,4188.717773,4175.384766,4028.718018,4039.487061,4169.230957,450.000000,4.000000,86.000000,,,,0.000000,4.000000,2.000000,4.000000,4.000000,4.000000,83.333336,,,,,,,,,,,,,,,,,,,,,,,,,,,,,,,,,,,,,,,,,,,,,,,,,,,,,,,,,,,,,,,
1656264825.375381,79.000000,0.000000,4261.025879,4232.307617,4061.025635,4080.000000,4218.461426,16148.000000,4.000000,86.000000,,,,0.000000,4.000000,2.000000,4.000000,4.000000,4.000000,83.333336,,,,,,,,,,,,,,,,,,,,,,,,,,,,,,,,,,,,,,,,,,,,,,,,,,,,,,,,,,,,,,,
1656264825.383295,80.000000,0.000000,4231.794922,4210.769043,4059.487061,4074.358887,4200.512695,450.000000,4.000000,86.000000,,,,0.000000,4.000000,2.000000,4.000000,4.000000,4.000000,83.333336,,,,,,,,,,,,,,,,,,,,,,,,,,,,,,,,,,,,,,,,,,,,,,,,,,,,,,,,,,,,,,,
1656264825.391110,81.000000,0.000000,4150.769043,4168.205078,4028.205078,4019.487061,4153.333496,450.000000,4.000000,86.000000,,,,0.000000,4.000000,2.000000,4.000000,4.000000,4.000000,83.333336,,,,,,,,,,,,,,,,,,,,,,,,,,,,,,,,,,,,,,,,,,,,,,,,,,,,,,,,,,,,,,,
1656264825.399024,82.000000,0.000000,4113.333496,4136.410156,3984.102539,3975.384521,4115.384766,450.000000,4.000000,86.000000,,,,0.000000,4.000000,2.000000,4.000000,4.000000,4.000000,83.333336,,,,,,,,,,,,,,,,,,,,,,,,,,,,,,,,,,,,,,,,,,,,,,,,,,,,,,,,,,,,,,,
1656264825.406838,83.000000,0.000000,4160.000000,4156.922852,3996.923096,4017.435791,4138.461426,16148.000000,4.000000,86.000000,,,,0.000000,4.000000,2.000000,4.000000,4.000000,4.000000,83.333336,,,,,,,,,,,,,,,,,,,,,,,,,,,,,,,,,,,,,,,3.140796,3.316660,1.228594,24.970728,12.691496,2.561260,1.857703,1.224728,14.712170,7.814488,3.571095,7.031758,3.257413,10.769726,8.024583,1.556442,3.359810,2.409512,20.249435,9.499157,2.707059,1.505909,0.440991,14.656856,8.050838
1656264825.414753,84.000000,0.000000,4215.897461,4213.333496,4047.179443,4086.153809,4197.436035,450.000000,4.000000,86.000000,,,,0.000000,4.000000,2.000000,4.000000,4.000000,4.000000,83.333336,,,,,,,,,,,,,,,,,,,,,,,,,,,,,,,,,,,,,,,,,,,,,,,,,,,,,,,,,,,,,,,
1656264825.422567,85.000000,0.000000,4213.846191,4221.538574,4060.512939,4083.076904,4203.077148,450.000000,4.000000,86.000000,,,,0.000000,4.000000,2.000000,4.000000,4.000000,4.000000,83.333336,,,,,,,,,,,,,,,,,,,,,,,,,,,,,,,,,,,,,,,,,,,,,,,,,,,,,,,,,,,,,,,
1656264825.430481,86.000000,0.000000,4192.307617,4179.487305,4030.769287,4033.846191,4158.974121,450.000000,4.000000,86.000000,,,,0.000000,4.000000,2.000000,4.000000,4.000000,4.000000,83.333336,,,,,,,,,,,,,,,,,,,,,,,,,,,,,,,,,,,,,,,,,,,,,,,,,,,,,,,,,,,,,,,
1656264825.438296,87.000000,0.000000,4163.589844,4155.897461,3983.076904,4001.025635,4131.282227,16148.000000,4.000000,86.000000,,,,0.000000,4.000000,2.000000,4.000000,4.000000,4.000000,83.333336,,,,,,,,,,,,,,,,,,,,,,,,,,,,,,,,,,,,,,,,,,,,,,,,,,,,,,,,,,,,,,,
1656264825.446210,88.000000,0.000000,4156.922852,4189.230957,4000.000000,4035.384521,4167.692383,450.000000,4.000000,86.000000,,,,0.000000,4.000000,2.000000,4.000000,4.000000,4.000000,83.333336,,,,,,,,,,,,,,,,,,,,,,,,,,,,,,,,,,,,,,,,,,,,,,,,,,,,,,,,,,,,,,,
1656264825.454025,89.000000,0.000000,4170.256348,4207.179688,4058.974365,4060.512939,4185.128418,450.000000,4.000000,86.000000,,,,0.000000,4.000000,2.000000,4.000000,4.000000,4.000000,83.333336,,,,,,,,,,,,,,,,,,,,,,,,,,,,,,,,,,,,,,,,,,,,,,,,,,,,,,,,,,,,,,,
1656264825.461939,90.000000,0.000000,4175.897461,4171.794922,4077.435791,4023.076904,4158.461426,450.000000,4.000000,86.000000,,,,0.000000,4.000000,2.000000,4.000000,4.000000,4.000000,83.333336,,,,,,,,,,,,,,,,,,,,,,,,,,,,,,,,,,,,,,,,,,,,,,,,,,,,,,,,,,,,,,,
1656264825.469753,91.000000,0.000000,4188.717773,4158.974121,4058.461426,4022.564209,4167.692383,16148.000000,4.000000,86.000000,,,,0.000000,4.000000,2.000000,4.000000,4.000000,4.000000,83.333336,,,,,,,,,,,,,,,,,,,,,,,,,,,,,,,,,,,,,,,,,,,,,,,,,,,,,,,,,,,,,,,
1656264825.477668,92.000000,0.000000,4180.000000,4172.820313,4033.846191,4035.897461,4175.897461,450.000000,4.000000,86.000000,,,,0.000000,4.000000,2.000000,4.000000,4.000000,4.000000,83.333336,,,,,,,,,,,,,,,,,,,,,,,,,,,,,,,,,,,,,,,,,,,,,,,,,,,,,,,,,,,,,,,
1656264825.485482,93.000000,0.000000,4170.256348,4185.641113,4053.333252,4033.333252,4164.102539,450.000000,4.000000,86.000000,,,,0.000000,4.000000,2.000000,4.000000,4.000000,4.000000,83.333336,,,,,,,,,,,,,,,,,,,,,,,,,,,,,,,,,,,,,,,,,,,,,,,,,,,,,,,,,,,,,,,
1656264825.493396,94.000000,0.000000,4167.692383,4168.717773,4055.384521,4019.487061,4151.794922,450.000000,4.000000,86.000000,,,,0.000000,4.000000,2.000000,4.000000,4.000000,4.000000,83.333336,,,,,,,,,,,,,,,,,,,,,,,,,,,,,,,,,,,,,,,,,,,,,,,,,,,,,,,,,,,,,,,
1656264825.501211,95.000000,0.000000,4153.333496,4127.692383,4020.512939,4003.076904,4137.436035,16148.000000,4.000000,86.000000,,,,0.000000,4.000000,2.000000,4.000000,4.000000,4.000000,83.333336,,,,,,,,,,,,,,,,,,,,,,,,,,,,,,,,,,,,,,,,,,,,,,,,,,,,,,,,,,,,,,,
1656264825.509125,96.000000,0.000000,4185.641113,4167.179688,4034.871826,4056.923096,4168.205078,450.000000,4.000000,86.000000,,,,0.000000,4.000000,2.000000,4.000000,4.000000,4.000000,83.333336,,,,,,,,,,,,,,,,,,,,,,,,,,,,,,,,,,,,,,,,,,,,,,,,,,,,,,,,,,,,,,,
1656264825.516939,97.000000,0.000000,4227.692383,4243.589844,4061.025635,4102.563965,4207.692383,450.000000,4.000000,86.000000,,,,0.000000,4.000000,2.000000,4.000000,4.000000,4.000000,83.333336,,,,,,,,,,,,,,,,,,,,,,,,,,,,,,,,,,,,,,,,,,,,,,,,,,,,,,,,,,,,,,,
1656264825.524754,98.000000,0.000000,4220.000000,4240.000000,4070.769287,4074.358887,4197.436035,450.000000,4.000000,86.000000,,,,0.000000,4.000000,2.000000,4.000000,4.000000,4.000000,83.333336,,,,,,,,,,,,,,,,,,,,,,,,,,,,,,,,,,,,,,,,,,,,,,,,,,,,,,,,,,,,,,,
1656264825.532668,99.000000,0.000000,4162.563965,4164.102539,4053.846191,4039.487061,4156.922852,16148.000000,4.000000,86.000000,,,,0.000000,4.000000,2.000000,4.000000,4.000000,4.000000,83.333336,,,,,,,,,,,,,,,,,,,,,,,,,,,,,,,,,,,,,,,2.631320,3.886183,1.130845,24.573231,12.411515,2.594857,2.181021,1.071683,14.856052,7.816326,4.906445,8.344829,2.813913,10.469499,8.009996,1.162867,3.989458,1.975118,18.836891,9.046082,2.529468,2.217566,0.532741,14.675797,7.886042
1656264825.540483,100.000000,0.000000,4133.846191,4115.384766,4022.564209,4017.435791,4137.436035,450.000000,4.000000,86.000000,,,,0.000000,4.000000,2.000000,4.000000,4.000000,4.000000,83.333336,,,,,,,,,,,,,,,,,,,,,,,,,,,,,,,,,,,,,,,,,,,,,,,,,,,,,,,,,,,,,,,
1656264825.548397,101.000000,0.000000,4213.846191,4177.436035,4043.589844,4040.000000,4181.538574,450.000000,4.000000,86.000000,,,,0.000000,4.000000,2.000000,4.000000,4.000000,4.000000,83.333336,,,,,,,,,,,,,,,,,,,,,,,,,,,,,,,,,,,,,,,,,,,,,,,,,,,,,,,,,,,,,,,
1656264825.556211,102.000000,0.000000,4257.436035,4241.025879,4072.820557,4082.051270,4221.025879,450.000000,4.000000,86.000000,,,,0.000000,4.000000,2.000000,4.000000,4.000000,4.000000,83.333336,,,,,,,,,,,,,,,,,,,,,,,,,,,,,,,,,,,,,,,,,,,,,,,,,,,,,,,,,,,,,,,
1656264825.564126,103.000000,0.000000,4208.717773,4223.589844,4077.435791,4077.948730,4207.692383,16148.000000,4.000000,86.000000,,,,0.000000,4.000000,2.000000,4.000000,4.000000,4.000000,83.333336,,,,,,,,,,,,,,,,,,,,,,,,,,,,,,,,,,,,,,,,,,,,,,,,,,,,,,,,,,,,,,,
1656264825.571940,104.000000,0.000000,4166.153809,4163.589844,4069.743652,4024.615479,4153.333496,450.000000,4.000000,86.000000,,,,0.000000,4.000000,2.000000,4.000000,4.000000,4.000000,83.333336,,,,,,,,,,,,,,,,,,,,,,,,,,,,,,,,,,,,,,,,,,,,,,,,,,,,,,,,,,,,,,,
1656264825.579854,105.000000,0.000000,4138.974121,4115.384766,4051.794922,3981.538574,4096.922852,450.000000,4.000000,86.000000,,,,0.000000,4.000000,2.000000,4.000000,4.000000,4.000000,83.333336,,,,,,,,,,,,,,,,,,,,,,,,,,,,,,,,,,,,,,,,,,,,,,,,,,,,,,,,,,,,,,,
1656264825.587669,106.000000,0.000000,4152.307617,4170.256348,4066.153809,4018.461426,4136.410156,450.000000,4.000000,86.000000,,,,0.000000,4.000000,2.000000,4.000000,4.000000,4.000000,83.333336,,,,,,,,,,,,,,,,,,,,,,,,,,,,,,,,,,,,,,,,,,,,,,,,,,,,,,,,,,,,,,,
1656264825.595583,107.000000,0.000000,4193.846191,4235.384766,4094.358887,4067.692383,4200.000000,16148.000000,4.000000,86.000000,,,,0.000000,4.000000,2.000000,4.000000,4.000000,4.000000,83.333336,,,,,,,,,,,,,,,,,,,,,,,,,,,,,,,,,,,,,,,,,,,,,,,,,,,,,,,,,,,,,,,
1656264825.603397,108.000000,0.000000,4218.461426,4219.487305,4102.563965,4076.923096,4200.512695,450.000000,4.000000,86.000000,,,,0.000000,4.000000,2.000000,4.000000,4.000000,4.000000,83.333336,,,,,,,,,,,,,,,,,,,,,,,,,,,,,,,,,,,,,,,,,,,,,,,,,,,,,,,,,,,,,,,
1656264825.611312,109.000000,0.000000,4205.128418,4192.307617,4073.846191,4070.256348,4184.615234,450.000000,4.000000,86.000000,,,,0.000000,4.000000,2.000000,4.000000,4.000000,4.000000,83.333336,,,,,,,,,,,,,,,,,,,,,,,,,,,,,,,,,,,,,,,,,,,,,,,,,,,,,,,,,,,,,,,
1656264825.619126,110.000000,0.000000,4162.051270,4177.948730,4032.820557,4041.025635,4165.641113,450.000000,4.000000,86.000000,,,,0.000000,4.000000,2.000000,4.000000,4.000000,4.000000,83.333336,,,,,,,,,,,,,,,,,,,,,,,,,,,,,,,,,,,,,,,,,,,,,,,,,,,,,,,,,,,,,,,
1656264825.627040,111.000000,0.000000,4184.102539,4198.974121,4062.564209,4052.307617,4180.512695,16148.000000,4.000000,86.000000,,,,0.000000,4.000000,2.000000,4.000000,4.000000,4.000000,83.333336,,,,,,,,,,,,,,,,,,,,,,,,,,,,,,,,,,,,,,,,,,,,,,,,,,,,,,,,,,,,,,,
1656264825.634855,112.000000,0.000000,4224.102539,4210.256348,4118.461426,4075.897461,4195.384766,450.000000,4.000000,86.000000,,,,0.000000,4.000000,2.000000,4.000000,4.000000,4.000000,83.333336,,,,,,,,,,,,,,,,,,,,,,,,,,,,,,,,,,,,,,,,,,,,,,,,,,,,,,,,,,,,,,,
1656264825.642769,113.000000,0.000000,4207.692383,4191.794922,4124.102539,4062.564209,4188.205078,450.000000,4.000000,86.000000,,,,0.000000,4.000000,2.000000,4.000000,4.000000,4.000000,83.333336,,,,,,,,,,,,,,,,,,,,,,,,,,,,,,,,,,,,,,,,,,,,,,,,,,,,,,,,,,,,,,,
1656264825.650584,114.000000,0.000000,4198.461426,4206.666504,4083.076904,4073.846191,4201.538574,450.000000,4.000000,86.000000,,,,0.000000,4.000000,2.000000,4.000000,4.000000,4.000000,83.333336,,,,,,,,,,,,,,,,,,,,,,,,,,,,,,,,,,,,,,,,,,,,,,,,,,,,,,,,,,,,,,,
1656264825.658498,115.000000,0.000000,4196.922852,4209.230957,4047.692383,4075.384521,4186.666504,16148.000000,4.000000,86.000000,,,,0.000000,4.000000,2.000000,4.000000,4.000000,4.000000,83.333336,,,,,,,,,,,,,,,,,,,,,,,,,,,,,,,,,,,,,,,2.272552,4.662716,1.071813,23.841988,12.045534,2.453798,2.423016,0.984647,15.332705,7.925108,6.442687,9.452043,2.252842,10.060389,7.850345,0.846223,4.435354,1.699712,17.919502,8.554044,2.437284,2.896816,0.644403,15.188677,7.791033
1656264825.666412,116.000000,0.000000,4209.230957,4192.820313,4093.333252,4068.205078,4176.410156,450.000000,4.000000,86.000000,,,,0.000000,4.000000,2.000000,4.000000,4.000000,4.000000,83.333336,,,,,,,,,,,,,,,,,,,,,,,,,,,,,,,,,,,,,,,,,,,,,,,,,,,,,,,,,,,,,,,
1656264825.674227,117.000000,0.000000,4211.794922,4186.153809,4125.128418,4078.974365,4189.743652,450.000000,4.000000,86.000000,,,,0.000000,4.000000,2.000000,4.000000,4.000000,4.000000,83.333336,,,,,,,,,,,,,,,,,,,,,,,,,,,,,,,,,,,,,,,,,,,,,,,,,,,,,,,,,,,,,,,
1656264825.682141,118.000000,0.000000,4180.512695,4184.102539,4089.230713,4068.205078,4180.000000,450.000000,4.000000,86.000000,,,,0.000000,4.000000,2.000000,4.000000,4.000000,4.000000,83.333336,,,,,,,,,,,,,,,,,,,,,,,,,,,,,,,,,,,,,,,,,,,,,,,,,,,,,,,,,,,,,,,
1656264825.689955,119.000000,0.000000,4209.743652,4213.333496,4094.871826,4080.512939,4187.692383,16148.000000,4.000000,86.000000,,,,0.000000,4.000000,2.000000,4.000000,4.000000,4.000000,83.333336,,,,,,,,,,,,,,,,,,,,,,,,,,,,,,,,,,,,,,,,,,,,,,,,,,,,,,,,,,,,,,,
1656264825.697870,120.000000,0.000000,4266.153809,4245.641113,4121.025879,4127.692383,4211.794922,450.000000,4.000000,86.000000,,,,0.000000,4.000000,2.000000,4.000000,4.000000,4.000000,83.333336,,,,,,,,,,,,,,,,,,,,,,,,,,,,,,,,,,,,,,,,,,,,,,,,,,,,,,,,,,,,,,,
1656264825.705684,121.000000,0.000000,4256.922852,4234.871582,4116.410156,4129.743652,4213.846191,450.000000,4.000000,86.000000,,,,0.000000,4.000000,2.000000,4.000000,4.000000,4.000000,83.333336,,,,,,,,,,,,,,,,,,,,,,,,,,,,,,,,,,,,,,,,,,,,,,,,,,,,,,,,,,,,,,,
1656264825.713498,122.000000,0.000000,4198.974121,4181.025879,4088.718018,4067.692383,4181.025879,450.000000,4.000000,86.000000,,,,0.000000,4.000000,2.000000,4.000000,4.000000,4.000000,83.333336,,,,,,,,,,,,,,,,,,,,,,,,,,,,,,,,,,,,,,,,,,,,,,,,,,,,,,,,,,,,,,,
1656264825.721413,123.000000,0.000000,4150.769043,4141.538574,4066.666748,4028.718018,4139.487305,16148.000000,4.000000,86.000000,,,,0.000000,4.000000,2.000000,4.000000,4.000000,4.000000,83.333336,,,,,,,,,,,,,,,,,,,,,,,,,,,,,,,,,,,,,,,,,,,,,,,,,,,,,,,,,,,,,,,
1656264825.729327,124.000000,0.000000,4188.205078,4190.769043,4097.948730,4069.743652,4154.358887,450.000000,4.000000,86.000000,,,,0.000000,4.000000,2.000000,4.000000,4.000000,4.000000,83.333336,,,,,,,,,,,,,,,,,,,,,,,,,,,,,,,,,,,,,,,,,,,,,,,,,,,,,,,,,,,,,,,
1656264825.737141,125.000000,0.000000,4253.333496,4257.948730,4135.384766,4107.179688,4192.820313,450.000000,4.000000,86.000000,,,,0.000000,4.000000,2.000000,4.000000,4.000000,4.000000,83.333336,,,,,,,,,,,,,,,,,,,,,,,,,,,,,,,,,,,,,,,,,,,,,,,,,,,,,,,,,,,,,,,
1656264825.744956,126.000000,0.000000,4246.666504,4253.846191,4133.846191,4100.512695,4204.102539,450.000000,4.000000,86.000000,,,,0.000000,4.000000,2.000000,4.000000,4.000000,4.000000,83.333336,,,,,,,,,,,,,,,,,,,,,,,,,,,,,,,,,,,,,,,,,,,,,,,,,,,,,,,,,,,,,,,
1656264825.752870,127.000000,0.000000,4208.205078,4198.974121,4096.410156,4069.743652,4181.025879,241.000000,4.000000,86.000000,,,,0.000000,4.000000,2.000000,4.000000,4.000000,4.000000,83.333336,,,,,,,,,,,,,,,,,,,,,,,,,,,,,,,,,,,,,,,,,,,,,,,,,,,,,,,,,,,,,,,
1656264825.760784,0.000000,0.000000,4178.974121,4149.230957,4051.281982,4022.564209,4136.922852,450.000000,4.000000,86.000000,,,,0.000000,4.000000,2.000000,4.000000,4.000000,4.000000,83.333336,,,,,,,,,,,,,,,,,,,,,,,,,,,,,,,,,,,,,,,,,,,,,,,,,,,,,,,,,,,,,,,
1656264825.768599,1.000000,0.000000,4197.436035,4179.487305,4064.102539,4048.718018,4169.230957,450.000000,4.000000,86.000000,,,,0.000000,4.000000,2.000000,4.000000,4.000000,4.000000,83.333336,,,,,,,,,,,,,,,,,,,,,,,,,,,,,,,,,,,,,,,,,,,,,,,,,,,,,,,,,,,,,,,
1656264825.776413,2.000000,0.000000,4248.717773,4240.512695,4095.384521,4113.846191,4240.512695,16114.000000,4.000000,86.000000,,,,0.000000,4.000000,2.000000,4.000000,4.000000,4.000000,83.333336,,,,,,,,,,,,,,,,,,,,,,,,,,,,,,,,,,,,,,,,,,,,,,,,,,,,,,,,,,,,,,,
1656264825.784228,3.000000,0.000000,4255.897461,4242.563965,4091.794922,4102.051270,4229.743652,450.000000,4.000000,86.000000,,,,0.000000,4.000000,2.000000,4.000000,4.000000,4.000000,83.333336,1.000000,50.000000,1.000000,2.000000,3.000000,3.000000,3.000000,,,,,,,,,,,,,,,,,,,,,,,,,,,,,,,,2.170841,5.388538,1.044503,22.962677,11.581484,2.182737,2.542557,0.938455,15.779631,8.109590,7.604946,9.856987,1.714732,9.577717,7.602249,0.603965,4.656376,1.627997,17.526442,8.098226,2.311641,3.348508,0.790845,15.901214,7.670222
1656264825.792142,4.000000,0.000000,4210.769043,4203.077148,4063.589844,4054.871826,4176.922852,16084.000000,4.000000,86.000000,,,,0.000000,4.000000,4.000000,4.000000,4.000000,4.000000,100.000000,,,,,,,,,,,,,,,,,,,,,,,,,,,,,,,,,,,,,,,,,,,,,,,,,,,,,,,,,,,,,,,
1656264825.799956,5.000000,0.000000,4170.256348,4167.179688,4040.000000,4022.564209,4146.153809,450.000000,4.000000,86.000000,,,,0.000000,4.000000,4.000000,4.000000,4.000000,4.000000,100.000000,,,,,,,,,,,,,,,,,,,,,,,,,,,,,,,,,,,,,,,,,,,,,,,,,,,,,,,,,,,,,,,
1656264825.807871,6.000000,0.000000,4193.333496,4184.102539,4077.948730,4037.435791,4157.436035,16066.000000,4.000000,86.000000,,,,0.000000,4.000000,4.000000,4.000000,4.000000,4.000000,100.000000,,,,,,,,,,,,,,,,,,,,,,,,,,,,,,,,,,,,,,,,,,,,,,,,,,,,,,,,,,,,,,,
1656264825.815785,7.000000,0.000000,4226.666504,4204.615234,4124.615234,4072.307617,4176.410156,450.000000,4.000000,86.000000,,,,0.000000,4.000000,4.000000,4.000000,4.000000,4.000000,100.000000,,,,,,,,,,,,,,,,,,,,,,,,,,,,,,,,,,,,,,,,,,,,,,,,,,,,,,,,,,,,,,,
1656264825.823599,8.000000,0.000000,4221.025879,4198.974121,4121.538574,4074.871826,4181.538574,450.000000,4.000000,86.000000,,,,0.000000,4.000000,4.000000,4.000000,4.000000,4.000000,100.000000,,,,,,,,,,,,,,,,,,,,,,,,,,,,,,,,,,,,,,,,,,,,,,,,,,,,,,,,,,,,,,,
1656264825.831514,9.000000,0.000000,4212.307617,4205.128418,4097.948730,4067.692383,4178.461426,309.000000,4.000000,86.000000,,,,0.000000,4.000000,4.000000,4.000000,4.000000,4.000000,100.000000,,,,,,,,,,,,,,,,,,,,,,,,,,,,,,,,,,,,,,,,,,,,,,,,,,,,,,,,,,,,,,,
1656264825.839328,10.000000,0.000000,4221.025879,4208.717773,4082.564209,4064.615479,4170.769043,450.000000,4.000000,86.000000,,,,0.000000,4.000000,4.000000,4.000000,4.000000,4.000000,100.000000,,,,,,,,,,,,,,,,,,,,,,,,,,,,,,,,,,,,,,,,,,,,,,,,,,,,,,,,,,,,,,,
1656264825.847143,11.000000,0.000000,4259.487305,4227.692383,4104.615234,4092.820557,4199.487305,16148.000000,4.000000,86.000000,,,,0.000000,4.000000,4.000000,4.000000,4.000000,4.000000,100.000000,,,,,,,,,,,,,,,,,,,,,,,,,,,,,,,,,,,,,,,,,,,,,,,,,,,,,,,,,,,,,,,
1656264825.855057,12.000000,0.000000,4233.333496,4208.717773,4088.718018,4074.871826,4196.410156,450.000000,4.000000,86.000000,,,,0.000000,4.000000,4.000000,4.000000,4.000000,4.000000,100.000000,,,,,,,,,,,,,,,,,,,,,,,,,,,,,,,,,,,,,,,,,,,,,,,,,,,,,,,,,,,,,,,
1656264825.862871,13.000000,0.000000,4150.769043,4154.871582,4050.256348,4013.333252,4149.230957,450.000000,4.000000,86.000000,,,,0.000000,4.000000,4.000000,4.000000,4.000000,4.000000,100.000000,,,,,,,,,,,,,,,,,,,,,,,,,,,,,,,,,,,,,,,,,,,,,,,,,,,,,,,,,,,,,,,
1656264825.870786,14.000000,0.000000,4181.538574,4195.384766,4070.256348,4053.846191,4184.102539,450.000000,4.000000,86.000000,,,,0.000000,4.000000,4.000000,4.000000,4.000000,4.000000,100.000000,,,,,,,,,,,,,,,,,,,,,,,,,,,,,,,,,,,,,,,,,,,,,,,,,,,,,,,,,,,,,,,
1656264825.878600,15.000000,0.000000,4255.384766,4270.769043,4082.564209,4117.948730,4237.436035,16148.000000,4.000000,86.000000,,,,0.000000,4.000000,4.000000,4.000000,4.000000,4.000000,100.000000,,,,,,,,,,,,,,,,,,,,,,,,,,,,,,,,,,,,,,,,,,,,,,,,,,,,,,,,,,,,,,,
1656264825.886514,16.000000,0.000000,4243.589844,4266.153809,4078.461426,4102.051270,4218.461426,0.000000,4.000000,86.000000,,,,0.000000,4.000000,4.000000,4.000000,4.000000,4.000000,100.000000,,,,,,,,,,,,,,,,,,,,,,,,,,,,,,,,,,,,,,,,,,,,,,,,,,,,,,,,,,,,,,,
1656264825.894429,17.000000,0.000000,4170.256348,4205.641113,4065.128174,4055.384521,4175.384766,0.000000,4.000000,86.000000,,,,0.000000,4.000000,4.000000,4.000000,4.000000,4.000000,100.000000,,,,,,,,,,,,,,,,,,,,,,,,,,,,,,,,,,,,,,,,,,,,,,,,,,,,,,,,,,,,,,,
1656264825.902243,18.000000,0.000000,4112.820313,4153.846191,4033.846191,4014.871826,4140.512695,0.000000,4.000000,86.000000,,,,0.000000,4.000000,4.000000,4.000000,4.000000,4.000000,100.000000,,,,,,,,,,,,,,,,,,,,,,,,,,,,,,,,,,,,,,,,,,,,,,,,,,,,,,,,,,,,,,,
1656264825.910157,19.000000,0.000000,4173.846191,4184.615234,4053.846191,4050.769287,4169.743652,0.000000,4.000000,86.000000,,,,0.000000,4.000000,4.000000,4.000000,4.000000,4.000000,100.000000,,,,,,,,,,,,,,,,,,,,,,,,,,,,,,,,,,,,,,,2.257383,5.767621,1.060059,22.088959,11.050741,1.829140,2.548936,0.906352,15.945639,8.375785,7.917257,9.306810,1.283315,9.076311,7.355436,0.468530,4.690635,1.710132,17.506563,7.724225,2.129005,3.472683,1.003991,16.461256,7.455787
1656264825.917972,20.000000,0.000000,4264.615234,4245.641113,4090.256348,4124.615234,4240.000000,0.000000,4.000000,86.000000,,,,0.000000,4.000000,4.000000,4.000000,4.000000,4.000000,100.000000,,,,,,,,,,,,,,,,,,,,,,,,,,,,,,,,,,,,,,,,,,,,,,,,,,,,,,,,,,,,,,,
1656264825.925786,21.000000,0.000000,4244.615234,4234.871582,4090.256348,4115.384766,4238.974121,0.000000,4.000000,86.000000,,,,0.000000,4.000000,4.000000,4.000000,4.000000,4.000000,100.000000,,,,,,,,,,,,,,,,,,,,,,,,,,,,,,,,,,,,,,,,,,,,,,,,,,,,,,,,,,,,,,,
1656264825.933700,22.000000,0.000000,4177.436035,4192.820313,4082.051270,4067.692383,4188.717773,0.000000,4.000000,86.000000,,,,0.000000,4.000000,4.000000,4.000000,4.000000,4.000000,100.000000,,,,,,,,,,,,,,,,,,,,,,,,,,,,,,,,,,,,,,,,,,,,,,,,,,,,,,,,,,,,,,,
1656264825.941615,23.000000,0.000000,4148.717773,4166.666504,4061.538574,4044.615479,4158.974121,0.000000,4.000000,86.000000,,,,0.000000,4.000000,4.000000,4.000000,4.000000,4.000000,100.000000,,,,,,,,,,,,,,,,,,,,,,,,,,,,,,,,,,,,,,,,,,,,,,,,,,,,,,,,,,,,,,,
1656264825.949429,24.000000,0.000000,4183.589844,4192.820313,4073.333252,4061.025635,4186.666504,0.000000,4.000000,86.000000,,,,0.000000,4.000000,4.000000,4.000000,4.000000,4.000000,100.000000,,,,,,,,,,,,,,,,,,,,,,,,,,,,,,,,,,,,,,,,,,,,,,,,,,,,,,,,,,,,,,,
1656264825.957243,25.000000,0.000000,4228.205078,4245.128418,4115.897461,4111.794922,4238.461426,0.000000,4.000000,86.000000,,,,0.000000,4.000000,4.000000,4.000000,4.000000,4.000000,100.000000,,,,,,,,,,,,,,,,,,,,,,,,,,,,,,,,,,,,,,,,,,,,,,,,,,,,,,,,,,,,,,,
1656264825.965158,26.000000,0.000000,4220.512695,4246.666504,4105.641113,4121.025879,4238.974121,0.000000,4.000000,86.000000,,,,0.000000,4.000000,4.000000,4.000000,4.000000,4.000000,100.000000,,,,,,,,,,,,,,,,,,,,,,,,,,,,,,,,,,,,,,,,,,,,,,,,,,,,,,,,,,,,,,,
1656264825.972972,27.000000,0.000000,4203.077148,4214.358887,4070.256348,4072.307617,4200.512695,0.000000,4.000000,86.000000,,,,0.000000,4.000000,4.000000,4.000000,4.000000,4.000000,100.000000,,,,,,,,,,,,,,,,,,,,,,,,,,,,,,,,,,,,,,,,,,,,,,,,,,,,,,,,,,,,,,,
1656264825.980787,28.000000,0.000000,4200.000000,4187.692383,4048.718018,4031.794922,4164.102539,0.000000,4.000000,86.000000,,,,0.000000,4.000000,4.000000,4.000000,4.000000,4.000000,100.000000,,,,,,,,,,,,,,,,,,,,,,,,,,,,,,,,,,,,,,,,,,,,,,,,,,,,,,,,,,,,,,,
1656264825.988701,29.000000,0.000000,4207.179688,4201.538574,4047.179443,4053.333252,4186.153809,0.000000,4.000000,86.000000,,,,0.000000,4.000000,4.000000,4.000000,4.000000,4.000000,100.000000,,,,,,,,,,,,,,,,,,,,,,,,,,,,,,,,,,,,,,,,,,,,,,,,,,,,,,,,,,,,,,,
1656264825.996615,30.000000,0.000000,4209.743652,4213.333496,4062.051270,4082.564209,4219.487305,0.000000,4.000000,86.000000,,,,0.000000,4.000000,4.000000,4.000000,4.000000,4.000000,100.000000,,,,,,,,,,,,,,,,,,,,,,,,,,,,,,,,,,,,,,,,,,,,,,,,,,,,,,,,,,,,,,,
1656264826.004430,31.000000,0.000000,4190.256348,4186.666504,4072.820557,4067.179443,4192.307617,0.000000,4.000000,86.000000,,,,0.000000,4.000000,4.000000,4.000000,4.000000,4.000000,100.000000,,,,,,,,,,,,,,,,,,,,,,,,,,,,,,,,,,,,,,,,,,,,,,,,,,,,,,,,,,,,,,,
1656264826.012244,32.000000,0.000000,4188.717773,4203.589844,4070.256348,4065.641113,4176.410156,0.000000,4.000000,86.000000,,,,0.000000,4.000000,4.000000,4.000000,4.000000,4.000000,100.000000,,,,,,,,,,,,,,,,,,,,,,,,,,,,,,,,,,,,,,,,,,,,,,,,,,,,,,,,,,,,,,,
1656264826.020158,33.000000,0.000000,4197.436035,4233.846191,4058.974365,4073.846191,4182.051270,0.000000,4.000000,86.000000,,,,0.000000,4.000000,4.000000,4.000000,4.000000,4.000000,100.000000,,,,,,,,,,,,,,,,,,,,,,,,,,,,,,,,,,,,,,,,,,,,,,,,,,,,,,,,,,,,,,,
1656264826.027973,34.000000,0.000000,4200.512695,4229.230957,4080.512939,4067.179443,4184.615234,0.000000,4.000000,86.000000,,,,0.000000,4.000000,4.000000,4.000000,4.000000,4.000000,100.000000,,,,,,,,,,,,,,,,,,,,,,,,,,,,,,,,,,,,,,,,,,,,,,,,,,,,,,,,,,,,,,,
1656264826.035887,35.000000,1.000000,4197.115234,4223.653809,4079.423096,4064.102539,4181.474121,0.000000,4.000000,86.000000,,,,0.000000,4.000000,4.000000,4.000000,4.000000,4.000000,100.000000,,,,,,,,,,,,,,,,,,,,,,,,,,,,,,,,,,,,,,,2.434947,5.612712,1.151431,21.297773,10.508293,1.439341,2.486727,0.867733,15.855106,8.721194,7.232409,7.977731,0.983957,8.596452,7.179571,0.506593,4.610555,1.855207,17.593388,7.429439,1.916324,3.292783,1.320816,16.614197,7.138335
1656264826.043701,36.000000,1.000000,4193.717773,4218.077148,4078.333252,4061.025635,4178.333496,0.000000,4.000000,86.000000,,,,0.000000,4.000000,4.000000,4.000000,4.000000,4.000000,100.000000,,,,,,,,,,,,,,,,,,,,,,,,,,,,,,,,,,,,,,,,,,,,,,,,,,,,,,,,,,,,,,,
1656264826.051516,37.000000,1.000000,4190.320313,4212.500000,4077.243652,4057.948730,4175.192383,0.000000,4.000000,86.000000,,,,0.000000,4.000000,4.000000,4.000000,4.000000,4.000000,100.000000,,,,,,,,,,,,,,,,,,,,,,,,,,,,,,,,,,,,,,,,,,,,,,,,,,,,,,,,,,,,,,,
1656264826.059330,38.000000,1.000000,4186.922852,4206.922852,4076.153809,4054.871826,4172.051270,0.000000,4.000000,86.000000,,,,0.000000,4.000000,4.000000,4.000000,4.000000,4.000000,100.000000,,,,,,,,,,,,,,,,,,,,,,,,,,,,,,,,,,,,,,,,,,,,,,,,,,,,,,,,,,,,,,,
1656264826.067145,39.000000,1.000000,4183.525879,4201.346191,4075.064209,4051.794922,4168.910156,0.000000,4.000000,86.000000,,,,0.000000,4.000000,4.000000,4.000000,4.000000,4.000000,100.000000,,,,,,,,,,,,,,,,,,,,,,,,,,,,,,,,,,,,,,,,,,,,,,,,,,,,,,,,,,,,,,,
1656264826.074959,40.000000,1.000000,4180.128418,4195.769043,4073.974365,4048.718018,4165.769043,0.000000,4.000000,86.000000,,,,0.000000,4.000000,4.000000,4.000000,4.000000,4.000000,100.000000,,,,,,,,,,,,,,,,,,,,,,,,,,,,,,,,,,,,,,,,,,,,,,,,,,,,,,,,,,,,,,,
1656264826.082773,41.000000,1.000000,4176.730957,4190.192383,4072.884521,4045.641113,4162.628418,0.000000,4.000000,86.000000,,,,0.000000,4.000000,4.000000,4.000000,4.000000,4.000000,100.000000,,,,,,,,,,,,,,,,,,,,,,,,,,,,,,,,,,,,,,,,,,,,,,,,,,,,,,,,,,,,,,,
1656264826.090588,42.000000,0.000000,4173.333496,4184.615234,4071.794922,4042.564209,4159.487305,0.000000,4.000000,86.000000,,,,0.000000,4.000000,4.000000,4.000000,4.000000,4.000000,100.000000,,,,,,,,,,,,,,,,,,,,,,,,,,,,,,,,,,,,,,,,,,,,,,,,,,,,,,,,,,,,,,,
1656264826.098302,43.000000,0.000000,4247.692383,4208.205078,4089.743652,4102.051270,4207.179688,0.000000,4.000000,86.000000,,,,0.000000,4.000000,4.000000,4.000000,4.000000,4.000000,100.000000,,,,,,,,,,,,,,,,,,,,,,,,,,,,,,,,,,,,,,,,,,,,,,,,,,,,,,,,,,,,,,,
1656264826.106117,44.000000,0.000000,4254.358887,4212.307617,4074.871826,4103.589844,4217.436035,0.000000,4.000000,86.000000,,,,0.000000,4.000000,4.000000,4.000000,4.000000,4.000000,100.000000,,,,,,,,,,,,,,,,,,,,,,,,,,,,,,,,,,,,,,,,,,,,,,,,,,,,,,,,,,,,,,,
1656264826.113931,45.000000,0.000000,4198.461426,4194.358887,4068.718018,4077.948730,4177.948730,0.000000,4.000000,86.000000,,,,0.000000,4.000000,4.000000,4.000000,4.000000,4.000000,100.000000,,,,,,,,,,,,,,,,,,,,,,,,,,,,,,,,,,,,,,,,,,,,,,,,,,,,,,,,,,,,,,,
1656264826.121646,46.000000,0.000000,4152.307617,4159.487305,4053.846191,4049.743652,4133.846191,0.000000,4.000000,86.000000,,,,0.000000,4.000000,4.000000,4.000000,4.000000,4.000000,100.000000,,,,,,,,,,,,,,,,,,,,,,,,,,,,,,,,,,,,,,,,,,,,,,,,,,,,,,,,,,,,,,,
1656264826.129460,47.000000,0.000000,4172.307617,4172.307617,4076.410156,4045.128174,4156.410156,0.000000,4.000000,86.000000,,,,0.000000,4.000000,4.000000,4.000000,4.000000,4.000000,100.000000,,,,,,,,,,,,,,,,,,,,,,,,,,,,,,,,,,,,,,,,,,,,,,,,,,,,,,,,,,,,,,,
1656264826.137275,48.000000,0.000000,4223.589844,4218.461426,4113.333496,4067.692383,4206.153809,0.000000,4.000000,86.000000,,,,0.000000,4.000000,4.000000,4.000000,4.000000,4.000000,100.000000,,,,,,,,,,,,,,,,,,,,,,,,,,,,,,,,,,,,,,,,,,,,,,,,,,,,,,,,,,,,,,,
1656264826.144989,49.000000,0.000000,4220.000000,4220.512695,4089.230713,4074.358887,4187.179688,0.000000,4.000000,86.000000,,,,0.000000,4.000000,4.000000,4.000000,4.000000,4.000000,100.000000,,,,,,,,,,,,,,,,,,,,,,,,,,,,,,,,,,,,,,,,,,,,,,,,,,,,,,,,,,,,,,,
1656264826.152704,50.000000,0.000000,4193.846191,4198.461426,4056.923096,4073.333252,4163.077148,0.000000,4.000000,86.000000,,,,0.000000,4.000000,4.000000,4.000000,4.000000,4.000000,100.000000,,,,,,,,,,,,,,,,,,,,,,,,,,,,,,,,,,,,,,,,,,,,,,,,,,,,,,,,,,,,,,,
1656264826.160518,51.000000,0.000000,4186.153809,4183.077148,4034.871826,4068.718018,4184.102539,0.000000,4.000000,86.000000,,,,0.000000,4.000000,4.000000,4.000000,4.000000,4.000000,100.000000,,,,,,,,,,,,,,,,,,,,,,,,,,,,,,,,,,,,,,,2.586844,4.967034,1.335839,20.623125,10.038217,1.074033,2.411536,0.825859,15.726851,9.111699,5.829767,6.390745,0.822395,8.151091,7.085915,0.764160,4.466667,1.992730,17.563206,7.217859,1.734968,2.948492,1.739514,16.326315,6.783405
1656264826.168232,52.000000,0.000000,4202.051270,4192.307617,4045.128174,4072.820557,4198.974121,0.000000,4.000000,86.000000,,,,0.000000,4.000000,4.000000,4.000000,4.000000,4.000000,100.000000,,,,,,,,,,,,,,,,,,,,,,,,,,,,,,,,,,,,,,,,,,,,,,,,,,,,,,,,,,,,,,,
1656264826.176047,53.000000,0.000000,4205.641113,4197.436035,4086.153809,4073.333252,4179.487305,0.000000,4.000000,86.000000,,,,0.000000,4.000000,4.000000,4.000000,4.000000,4.000000,100.000000,,,,,,,,,,,,,,,,,,,,,,,,,,,,,,,,,,,,,,,,,,,,,,,,,,,,,,,,,,,,,,,
1656264826.183861,54.000000,0.000000,4176.410156,4162.051270,4107.179688,4049.743652,4155.384766,0.000000,4.000000,86.000000,,,,0.000000,4.000000,4.000000,4.000000,4.000000,4.000000,100.000000,,,,,,,,,,,,,,,,,,,,,,,,,,,,,,,,,,,,,,,,,,,,,,,,,,,,,,,,,,,,,,,
1656264826.191576,55.000000,0.000000,4191.794922,4178.974121,4117.948730,4067.179443,4175.897461,0.000000,4.000000,86.000000,,,,0.000000,4.000000,4.000000,4.000000,4.000000,4.000000,100.000000,,,,,,,,,,,,,,,,,,,,,,,,,,,,,,,,,,,,,,,,,,,,,,,,,,,,,,,,,,,,,,,
1656264826.199290,56.000000,0.000000,4224.615234,4228.717773,4106.153809,4093.333252,4203.077148,0.000000,4.000000,86.000000,,,,0.000000,4.000000,4.000000,4.000000,4.000000,4.000000,100.000000,,,,,,,,,,,,,,,,,,,,,,,,,,,,,,,,,,,,,,,,,,,,,,,,,,,,,,,,,,,,,,,
1656264826.207105,57.000000,0.000000,4210.256348,4222.051270,4103.589844,4071.794922,4195.897461,0.000000,4.000000,86.000000,,,,0.000000,4.000000,4.000000,4.000000,4.000000,4.000000,100.000000,,,,,,,,,,,,,,,,,,,,,,,,,,,,,,,,,,,,,,,,,,,,,,,,,,,,,,,,,,,,,,,
1656264826.214819,58.000000,0.000000,4176.410156,4183.589844,4109.230957,4037.435791,4161.025879,0.000000,4.000000,86.000000,,,,0.000000,4.000000,4.000000,4.000000,4.000000,4.000000,100.000000,,,,,,,,,,,,,,,,,,,,,,,,,,,,,,,,,,,,,,,,,,,,,,,,,,,,,,,,,,,,,,,
1656264826.222634,59.000000,0.000000,4142.563965,4153.333496,4080.512939,4023.589844,4121.025879,0.000000,4.000000,86.000000,,,,0.000000,4.000000,4.000000,4.000000,4.000000,4.000000,100.000000,,,,,,,,,,,,,,,,,,,,,,,,,,,,,,,,,,,,,,,,,,,,,,,,,,,,,,,,,,,,,,,
1656264826.230348,60.000000,0.000000,4171.794922,4190.256348,4090.769287,4066.666748,4155.897461,0.000000,4.000000,86.000000,,,,0.000000,4.000000,4.000000,4.000000,4.000000,4.000000,100.000000,,,,,,,,,,,,,,,,,,,,,,,,,,,,,,,,,,,,,,,,,,,,,,,,,,,,,,,,,,,,,,,
1656264826.238163,61.000000,0.000000,4231.282227,4240.512695,4140.000000,4109.743652,4213.846191,0.000000,4.000000,86.000000,,,,0.000000,4.000000,4.000000,4.000000,4.000000,4.000000,100.000000,,,,,,,,,,,,,,,,,,,,,,,,,,,,,,,,,,,,,,,,,,,,,,,,,,,,,,,,,,,,,,,
1656264826.245877,62.000000,0.000000,4233.846191,4224.102539,4154.358887,4095.897461,4205.128418,0.000000,4.000000,86.000000,,,,0.000000,4.000000,4.000000,4.000000,4.000000,4.000000,100.000000,,,,,,,,,,,,,,,,,,,,,,,,,,,,,,,,,,,,,,,,,,,,,,,,,,,,,,,,,,,,,,,
1656264826.253691,63.000000,0.000000,4189.743652,4172.307617,4114.358887,4070.769287,4168.205078,0.000000,4.000000,86.000000,,,,0.000000,4.000000,4.000000,4.000000,4.000000,4.000000,100.000000,,,,,,,,,,,,,,,,,,,,,,,,,,,,,,,,,,,,,,,,,,,,,,,,,,,,,,,,,,,,,,,
1656264826.261406,64.000000,0.000000,4152.820313,4129.230957,4073.846191,4038.974365,4127.692383,450.000000,4.000000,86.000000,,,,0.000000,4.000000,4.000000,4.000000,4.000000,4.000000,100.000000,,,,,,,,,,,,,,,,,,,,,,,,,,,,,,,,,,,,,,,,,,,,,,,,,,,,,,,,,,,,,,,
1656264826.269121,65.000000,0.000000,4188.717773,4169.743652,4101.025879,4053.846191,4153.333496,450.000000,4.000000,86.000000,,,,0.000000,4.000000,4.000000,4.000000,4.000000,4.000000,100.000000,,,,,,,,,,,,,,,,,,,,,,,,,,,,,,,,,,,,,,,,,,,,,,,,,,,,,,,,,,,,,,,
1656264826.276935,66.000000,0.000000,4230.256348,4244.102539,4121.025879,4113.333496,4227.692383,16094.000000,4.000000,86.000000,,,,0.000000,4.000000,4.000000,4.000000,4.000000,4.000000,100.000000,,,,,,,,,,,,,,,,,,,,,,,,,,,,,,,,,,,,,,,,,,,,,,,,,,,,,,,,,,,,,,,
1656264826.284649,67.000000,0.000000,4220.000000,4239.487305,4107.179688,4112.307617,4235.384766,450.000000,4.000000,86.000000,,,,0.000000,4.000000,4.000000,4.000000,4.000000,4.000000,100.000000,0.972656,50.000000,1.000000,2.000000,3.000000,3.000000,3.000000,,,,,,,,,,,,,,,,,,,,,,,,,,,,,,,,2.658075,4.043157,1.622221,19.994444,9.722733,0.784245,2.356030,0.820335,15.746439,9.466307,4.214602,5.134343,0.810143,7.713217,7.005136,1.241587,4.273543,2.105078,17.270018,7.094734,1.625357,2.605988,2.207614,15.704728,6.480327
1656264826.292464,68.000000,0.000000,4209.230957,4192.307617,4111.282227,4063.076904,4183.589844,16076.000000,4.000000,86.000000,,,,0.000000,4.000000,4.000000,4.000000,4.000000,4.000000,100.000000,,,,,,,,,,,,,,,,,,,,,,,,,,,,,,,,,,,,,,,,,,,,,,,,,,,,,,,,,,,,,,,
1656264826.300178,69.000000,0.000000,4170.256348,4162.051270,4087.179443,4029.230713,4126.153809,450.000000,4.000000,86.000000,,,,0.000000,4.000000,4.000000,4.000000,4.000000,4.000000,100.000000,,,,,,,,,,,,,,,,,,,,,,,,,,,,,,,,,,,,,,,,,,,,,,,,,,,,,,,,,,,,,,,
1656264826.307993,70.000000,0.000000,4153.846191,4193.846191,4077.435791,4042.051270,4128.717773,16057.000000,4.000000,86.000000,,,,0.000000,4.000000,4.000000,4.000000,4.000000,4.000000,100.000000,,,,,,,,,,,,,,,,,,,,,,,,,,,,,,,,,,,,,,,,,,,,,,,,,,,,,,,,,,,,,,,
1656264826.315707,71.000000,0.000000,4173.846191,4227.179688,4113.846191,4061.025635,4156.922852,450.000000,4.000000,86.000000,,,,0.000000,4.000000,4.000000,4.000000,4.000000,4.000000,100.000000,,,,,,,,,,,,,,,,,,,,,,,,,,,,,,,,,,,,,,,,,,,,,,,,,,,,,,,,,,,,,,,
1656264826.323522,72.000000,0.000000,4162.051270,4181.538574,4113.846191,4043.589844,4140.512695,450.000000,4.000000,86.000000,,,,0.000000,4.000000,4.000000,4.000000,4.000000,4.000000,100.000000,,,,,,,,,,,,,,,,,,,,,,,,,,,,,,,,,,,,,,,,,,,,,,,,,,,,,,,,,,,,,,,
1656264826.331236,73.000000,0.000000,4181.025879,4159.487305,4084.615479,4046.666748,4144.615234,16064.000000,4.000000,86.000000,,,,0.000000,4.000000,4.000000,4.000000,4.000000,4.000000,100.000000,,,,,,,,,,,,,,,,,,,,,,,,,,,,,,,,,,,,,,,,,,,,,,,,,,,,,,,,,,,,,,,
1656264826.339051,74.000000,0.000000,4220.000000,4192.820313,4064.615479,4058.974365,4169.230957,450.000000,4.000000,86.000000,,,,0.000000,4.000000,4.000000,4.000000,4.000000,4.000000,100.000000,,,,,,,,,,,,,,,,,,,,,,,,,,,,,,,,,,,,,,,,,,,,,,,,,,,,,,,,,,,,,,,
1656264826.346765,75.000000,0.000000,4212.820313,4217.948730,4066.666748,4059.487061,4187.179688,16180.000000,4.000000,86.000000,,,,0.000000,4.000000,4.000000,4.000000,4.000000,4.000000,100.000000,,,,,,,,,,,,,,,,,,,,,,,,,,,,,,,,,,,,,,,,,,,,,,,,,,,,,,,,,,,,,,,
1656264826.354579,76.000000,0.000000,4172.820313,4204.102539,4070.769287,4051.794922,4179.487305,450.000000,4.000000,86.000000,,,,0.000000,4.000000,4.000000,4.000000,4.000000,4.000000,100.000000,,,,,,,,,,,,,,,,,,,,,,,,,,,,,,,,,,,,,,,,,,,,,,,,,,,,,,,,,,,,,,,
1656264826.362294,77.000000,0.000000,4150.769043,4168.205078,4061.538574,4030.256348,4143.589844,450.000000,4.000000,86.000000,,,,0.000000,4.000000,4.000000,4.000000,4.000000,4.000000,100.000000,,,,,,,,,,,,,,,,,,,,,,,,,,,,,,,,,,,,,,,,,,,,,,,,,,,,,,,,,,,,,,,
1656264826.370108,78.000000,0.000000,4194.358887,4194.358887,4070.769287,4062.564209,4168.205078,450.000000,4.000000,86.000000,,,,0.000000,4.000000,4.000000,4.000000,4.000000,4.000000,100.000000,,,,,,,,,,,,,,,,,,,,,,,,,,,,,,,,,,,,,,,,,,,,,,,,,,,,,,,,,,,,,,,
1656264826.377823,79.000000,0.000000,4234.871582,4238.974121,4089.743652,4102.051270,4203.077148,16180.000000,4.000000,86.000000,,,,0.000000,4.000000,4.000000,4.000000,4.000000,4.000000,100.000000,,,,,,,,,,,,,,,,,,,,,,,,,,,,,,,,,,,,,,,,,,,,,,,,,,,,,,,,,,,,,,,
1656264826.385637,80.000000,0.000000,4223.077148,4223.589844,4089.743652,4085.641113,4192.307617,450.000000,4.000000,86.000000,,,,0.000000,4.000000,4.000000,4.000000,4.000000,4.000000,100.000000,,,,,,,,,,,,,,,,,,,,,,,,,,,,,,,,,,,,,,,,,,,,,,,,,,,,,,,,,,,,,,,
1656264826.393352,81.000000,0.000000,4189.743652,4185.128418,4058.974365,4050.769287,4180.000000,450.000000,4.000000,86.000000,,,,0.000000,4.000000,4.000000,4.000000,4.000000,4.000000,100.000000,,,,,,,,,,,,,,,,,,,,,,,,,,,,,,,,,,,,,,,,,,,,,,,,,,,,,,,,,,,,,,,
1656264826.401166,82.000000,0.000000,4157.948730,4166.666504,4030.769287,4022.564209,4161.025879,450.000000,4.000000,86.000000,,,,0.000000,4.000000,4.000000,4.000000,4.000000,4.000000,100.000000,,,,,,,,,,,,,,,,,,,,,,,,,,,,,,,,,,,,,,,,,,,,,,,,,,,,,,,,,,,,,,,
1656264826.408881,83.000000,0.000000,4196.922852,4198.461426,4065.128174,4056.923096,4187.179688,16180.000000,4.000000,86.000000,,,,0.000000,4.000000,4.000000,4.000000,4.000000,4.000000,100.000000,,,,,,,,,,,,,,,,,,,,,,,,,,,,,,,,,,,,,,,2.620325,3.091104,1.995605,19.230696,9.584300,0.617571,2.322144,0.902734,15.877618,9.666157,2.946644,4.566771,0.940641,7.257582,6.810686,1.875189,4.007809,2.230252,16.632250,7.035732,1.605943,2.377506,2.651392,14.855111,6.294830
1656264826.416695,84.000000,0.000000,4253.846191,4238.974121,4108.205078,4092.307617,4232.307617,450.000000,4.000000,86.000000,,,,0.000000,4.000000,4.000000,4.000000,4.000000,4.000000,100.000000,,,,,,,,,,,,,,,,,,,,,,,,,,,,,,,,,,,,,,,,,,,,,,,,,,,,,,,,,,,,,,,
1656264826.424410,85.000000,0.000000,4229.230957,4228.717773,4096.922852,4068.205078,4216.410156,450.000000,4.000000,86.000000,,,,0.000000,4.000000,4.000000,4.000000,4.000000,4.000000,100.000000,,,,,,,,,,,,,,,,,,,,,,,,,,,,,,,,,,,,,,,,,,,,,,,,,,,,,,,,,,,,,,,
1656264826.432224,86.000000,0.000000,4164.615234,4172.307617,4047.692383,4036.923096,4156.410156,450.000000,4.000000,86.000000,,,,0.000000,4.000000,4.000000,4.000000,4.000000,4.000000,100.000000,,,,,,,,,,,,,,,,,,,,,,,,,,,,,,,,,,,,,,,,,,,,,,,,,,,,,,,,,,,,,,,
1656264826.439939,87.000000,0.000000,4120.000000,4129.230957,4014.358887,4001.538574,4107.179688,16180.000000,4.000000,86.000000,,,,0.000000,4.000000,4.000000,4.000000,4.000000,4.000000,100.000000,,,,,,,,,,,,,,,,,,,,,,,,,,,,,,,,,,,,,,,,,,,,,,,,,,,,,,,,,,,,,,,
1656264826.447753,88.000000,0.000000,4155.897461,4168.717773,4061.025635,4015.897461,4133.333496,450.000000,4.000000,86.000000,,,,0.000000,4.000000,4.000000,4.000000,4.000000,4.000000,100.000000,,,,,,,,,,,,,,,,,,,,,,,,,,,,,,,,,,,,,,,,,,,,,,,,,,,,,,,,,,,,,,,
1656264826.455468,89.000000,0.000000,4223.077148,4205.641113,4095.384521,4068.718018,4201.025879,450.000000,4.000000,86.000000,,,,0.000000,4.000000,4.000000,4.000000,4.000000,4.000000,100.000000,,,,,,,,,,,,,,,,,,,,,,,,,,,,,,,,,,,,,,,,,,,,,,,,,,,,,,,,,,,,,,,
1656264826.463182,90.000000,0.000000,4220.000000,4188.205078,4065.128174,4083.589844,4220.512695,450.000000,4.000000,86.000000,,,,0.000000,4.000000,4.000000,4.000000,4.000000,4.000000,100.000000,,,,,,,,,,,,,,,,,,,,,,,,,,,,,,,,,,,,,,,,,,,,,,,,,,,,,,,,,,,,,,,
1656264826.470996,91.000000,0.000000,4174.358887,4191.794922,4033.846191,4066.666748,4180.000000,16180.000000,4.000000,86.000000,,,,0.000000,4.000000,4.000000,4.000000,4.000000,4.000000,100.000000,,,,,,,,,,,,,,,,,,,,,,,,,,,,,,,,,,,,,,,,,,,,,,,,,,,,,,,,,,,,,,,
1656264826.478711,92.000000,0.000000,4152.307617,4193.333496,4012.820557,4029.743652,4133.846191,450.000000,4.000000,86.000000,,,,0.000000,4.000000,4.000000,4.000000,4.000000,4.000000,100.000000,,,,,,,,,,,,,,,,,,,,,,,,,,,,,,,,,,,,,,,,,,,,,,,,,,,,,,,,,,,,,,,
1656264826.486525,93.000000,0.000000,4182.563965,4194.358887,4046.153809,4028.205078,4143.589844,450.000000,4.000000,86.000000,,,,0.000000,4.000000,4.000000,4.000000,4.000000,4.000000,100.000000,,,,,,,,,,,,,,,,,,,,,,,,,,,,,,,,,,,,,,,,,,,,,,,,,,,,,,,,,,,,,,,
1656264826.494240,94.000000,0.000000,4198.974121,4187.692383,4093.333252,4064.615479,4171.794922,450.000000,4.000000,86.000000,,,,0.000000,4.000000,4.000000,4.000000,4.000000,4.000000,100.000000,,,,,,,,,,,,,,,,,,,,,,,,,,,,,,,,,,,,,,,,,,,,,,,,,,,,,,,,,,,,,,,
1656264826.502054,95.000000,0.000000,4176.922852,4155.384766,4078.461426,4061.025635,4174.358887,16180.000000,4.000000,86.000000,,,,0.000000,4.000000,4.000000,4.000000,4.000000,4.000000,100.000000,,,,,,,,,,,,,,,,,,,,,,,,,,,,,,,,,,,,,,,,,,,,,,,,,,,,,,,,,,,,,,,
1656264826.509769,96.000000,0.000000,4182.563965,4167.692383,4055.897461,4044.102539,4179.487305,450.000000,4.000000,86.000000,,,,0.000000,4.000000,4.000000,4.000000,4.000000,4.000000,100.000000,,,,,,,,,,,,,,,,,,,,,,,,,,,,,,,,,,,,,,,,,,,,,,,,,,,,,,,,,,,,,,,
1656264826.517583,97.000000,0.000000,4191.794922,4194.871582,4050.769287,4057.435791,4178.974121,450.000000,4.000000,86.000000,,,,0.000000,4.000000,4.000000,4.000000,4.000000,4.000000,100.000000,,,,,,,,,,,,,,,,,,,,,,,,,,,,,,,,,,,,,,,,,,,,,,,,,,,,,,,,,,,,,,,
1656264826.525298,98.000000,0.000000,4199.487305,4189.743652,4067.692383,4074.871826,4180.000000,450.000000,4.000000,86.000000,,,,0.000000,4.000000,4.000000,4.000000,4.000000,4.000000,100.000000,,,,,,,,,,,,,,,,,,,,,,,,,,,,,,,,,,,,,,,,,,,,,,,,,,,,,,,,,,,,,,,
1656264826.533112,99.000000,0.000000,4194.358887,4171.794922,4065.641113,4049.230713,4170.256348,16180.000000,4.000000,86.000000,,,,0.000000,4.000000,4.000000,4.000000,4.000000,4.000000,100.000000,,,,,,,,,,,,,,,,,,,,,,,,,,,,,,,,,,,,,,,2.523852,2.310059,2.385130,18.195950,9.564227,0.576225,2.295558,1.115302,15.885229,9.621401,2.301225,4.638889,1.156820,6.818016,6.397089,2.528421,3.646170,2.407229,15.645793,6.983513,1.679325,2.305093,2.989132,13.872986,6.247632
1656264826.540827,100.000000,0.000000,4154.871582,4152.820313,4041.025635,4002.564209,4137.948730,450.000000,4.000000,86.000000,,,,0.000000,4.000000,4.000000,4.000000,4.000000,4.000000,100.000000,,,,,,,,,,,,,,,,,,,,,,,,,,,,,,,,,,,,,,,,,,,,,,,,,,,,,,,,,,,,,,,
1656264826.548641,101.000000,0.000000,4188.717773,4180.000000,4077.948730,4039.487061,4171.794922,450.000000,4.000000,86.000000,,,,0.000000,4.000000,4.000000,4.000000,4.000000,4.000000,100.000000,,,,,,,,,,,,,,,,,,,,,,,,,,,,,,,,,,,,,,,,,,,,,,,,,,,,,,,,,,,,,,,
1656264826.556356,102.000000,0.000000,4255.384766,4223.077148,4113.846191,4107.692383,4237.436035,450.000000,4.000000,86.000000,,,,0.000000,4.000000,4.000000,4.000000,4.000000,4.000000,100.000000,,,,,,,,,,,,,,,,,,,,,,,,,,,,,,,,,,,,,,,,,,,,,,,,,,,,,,,,,,,,,,,
1656264826.564170,103.000000,0.000000,4237.948730,4222.563965,4100.000000,4104.102539,4233.846191,16180.000000,4.000000,86.000000,,,,0.000000,4.000000,4.000000,4.000000,4.000000,4.000000,100.000000,,,,,,,,,,,,,,,,,,,,,,,,,,,,,,,,,,,,,,,,,,,,,,,,,,,,,,,,,,,,,,,
1656264826.571884,104.000000,0.000000,4169.230957,4179.487305,4088.205078,4052.307617,4166.666504,450.000000,4.000000,86.000000,,,,0.000000,4.000000,4.000000,4.000000,4.000000,4.000000,100.000000,,,,,,,,,,,,,,,,,,,,,,,,,,,,,,,,,,,,,,,,,,,,,,,,,,,,,,,,,,,,,,,
1656264826.579699,105.000000,0.000000,4127.179688,4141.025879,4088.718018,4014.871826,4113.333496,450.000000,4.000000,86.000000,,,,0.000000,4.000000,4.000000,4.000000,4.000000,4.000000,100.000000,,,,,,,,,,,,,,,,,,,,,,,,,,,,,,,,,,,,,,,,,,,,,,,,,,,,,,,,,,,,,,,
1656264826.587413,106.000000,0.000000,4166.153809,4187.179688,4086.153809,4052.820557,4166.666504,450.000000,4.000000,86.000000,,,,0.000000,4.000000,4.000000,4.000000,4.000000,4.000000,100.000000,,,,,,,,,,,,,,,,,,,,,,,,,,,,,,,,,,,,,,,,,,,,,,,,,,,,,,,,,,,,,,,
1656264826.595128,107.000000,0.000000,4222.051270,4242.051270,4079.487061,4092.820557,4218.461426,16180.000000,4.000000,86.000000,,,,0.000000,4.000000,4.000000,4.000000,4.000000,4.000000,100.000000,,,,,,,,,,,,,,,,,,,,,,,,,,,,,,,,,,,,,,,,,,,,,,,,,,,,,,,,,,,,,,,
1656264826.602942,108.000000,0.000000,4228.717773,4223.077148,4098.974121,4075.384521,4197.436035,450.000000,4.000000,86.000000,,,,0.000000,4.000000,4.000000,4.000000,4.000000,4.000000,100.000000,,,,,,,,,,,,,,,,,,,,,,,,,,,,,,,,,,,,,,,,,,,,,,,,,,,,,,,,,,,,,,,
1656264826.610757,109.000000,0.000000,4194.358887,4179.487305,4097.948730,4049.743652,4172.307617,450.000000,4.000000,86.000000,,,,0.000000,4.000000,4.000000,4.000000,4.000000,4.000000,100.000000,,,,,,,,,,,,,,,,,,,,,,,,,,,,,,,,,,,,,,,,,,,,,,,,,,,,,,,,,,,,,,,
1656264826.618471,110.000000,0.000000,4140.000000,4131.794922,4048.718018,4023.076904,4128.717773,450.000000,4.000000,86.000000,,,,0.000000,4.000000,4.000000,4.000000,4.000000,4.000000,100.000000,,,,,,,,,,,,,,,,,,,,,,,,,,,,,,,,,,,,,,,,,,,,,,,,,,,,,,,,,,,,,,,
1656264826.626186,111.000000,0.000000,4152.820313,4149.743652,4050.256348,4032.307617,4128.717773,16180.000000,4.000000,86.000000,,,,0.000000,4.000000,4.000000,4.000000,4.000000,4.000000,100.000000,,,,,,,,,,,,,,,,,,,,,,,,,,,,,,,,,,,,,,,,,,,,,,,,,,,,,,,,,,,,,,,
1656264826.634000,112.000000,0.000000,4205.128418,4227.692383,4088.718018,4078.461426,4186.666504,450.000000,4.000000,86.000000,,,,0.000000,4.000000,4.000000,4.000000,4.000000,4.000000,100.000000,,,,,,,,,,,,,,,,,,,,,,,,,,,,,,,,,,,,,,,,,,,,,,,,,,,,,,,,,,,,,,,
1656264826.641715,113.000000,0.000000,4199.487305,4243.589844,4086.666748,4086.153809,4188.205078,450.000000,4.000000,86.000000,,,,0.000000,4.000000,4.000000,4.000000,4.000000,4.000000,100.000000,,,,,,,,,,,,,,,,,,,,,,,,,,,,,,,,,,,,,,,,,,,,,,,,,,,,,,,,,,,,,,,
1656264826.649529,114.000000,0.000000,4176.410156,4199.487305,4062.051270,4051.794922,4149.743652,450.000000,4.000000,86.000000,,,,0.000000,4.000000,4.000000,4.000000,4.000000,4.000000,100.000000,,,,,,,,,,,,,,,,,,,,,,,,,,,,,,,,,,,,,,,,,,,,,,,,,,,,,,,,,,,,,,,
1656264826.657244,115.000000,0.000000,4174.358887,4173.333496,4036.923096,4028.718018,4151.282227,16180.000000,4.000000,86.000000,,,,0.000000,4.000000,4.000000,4.000000,4.000000,4.000000,100.000000,,,,,,,,,,,,,,,,,,,,,,,,,,,,,,,,,,,,,,,2.431734,1.774140,2.709688,16.932947,9.546947,0.644560,2.255298,1.460714,15.483114,9.333220,2.249042,4.980086,1.393141,6.483894,5.752761,3.060753,3.191371,2.599937,14.401296,6.863511,1.912810,2.347043,3.183248,12.876457,6.312269
1656264826.665058,116.000000,0.000000,4187.179688,4197.948730,4045.641113,4061.025635,4195.384766,450.000000,4.000000,86.000000,,,,0.000000,4.000000,4.000000,4.000000,4.000000,4.000000,100.000000,,,,,,,,,,,,,,,,,,,,,,,,,,,,,,,,,,,,,,,,,,,,,,,,,,,,,,,,,,,,,,,
1656264826.672772,117.000000,0.000000,4195.897461,4209.743652,4077.948730,4083.589844,4205.641113,450.000000,4.000000,86.000000,,,,0.000000,4.000000,4.000000,4.000000,4.000000,4.000000,100.000000,,,,,,,,,,,,,,,,,,,,,,,,,,,,,,,,,,,,,,,,,,,,,,,,,,,,,,,,,,,,,,,
1656264826.680587,118.000000,0.000000,4186.666504,4179.487305,4080.512939,4049.230713,4167.692383,450.000000,4.000000,86.000000,,,,0.000000,4.000000,4.000000,4.000000,4.000000,4.000000,100.000000,,,,,,,,,,,,,,,,,,,,,,,,,,,,,,,,,,,,,,,,,,,,,,,,,,,,,,,,,,,,,,,
1656264826.688301,119.000000,0.000000,4196.410156,4177.436035,4063.589844,4063.076904,4175.897461,16180.000000,4.000000,86.000000,,,,0.000000,4.000000,4.000000,4.000000,4.000000,4.000000,100.000000,,,,,,,,,,,,,,,,,,,,,,,,,,,,,,,,,,,,,,,,,,,,,,,,,,,,,,,,,,,,,,,
1656264826.696116,120.000000,0.000000,4211.794922,4194.358887,4041.025635,4106.666504,4220.512695,450.000000,4.000000,86.000000,,,,0.000000,4.000000,4.000000,4.000000,4.000000,4.000000,100.000000,,,,,,,,,,,,,,,,,,,,,,,,,,,,,,,,,,,,,,,,,,,,,,,,,,,,,,,,,,,,,,,
1656264826.703830,121.000000,0.000000,4216.410156,4202.563965,4047.692383,4092.820557,4226.666504,450.000000,4.000000,86.000000,,,,0.000000,4.000000,4.000000,4.000000,4.000000,4.000000,100.000000,,,,,,,,,,,,,,,,,,,,,,,,,,,,,,,,,,,,,,,,,,,,,,,,,,,,,,,,,,,,,,,
1656264826.711645,122.000000,0.000000,4203.077148,4183.589844,4061.025635,4041.025635,4175.897461,450.000000,4.000000,86.000000,,,,0.000000,4.000000,4.000000,4.000000,4.000000,4.000000,100.000000,,,,,,,,,,,,,,,,,,,,,,,,,,,,,,,,,,,,,,,,,,,,,,,,,,,,,,,,,,,,,,,
1656264826.719359,123.000000,0.000000,4172.820313,4141.025879,4040.000000,4018.974365,4135.384766,16180.000000,4.000000,86.000000,,,,0.000000,4.000000,4.000000,4.000000,4.000000,4.000000,100.000000,,,,,,,,,,,,,,,,,,,,,,,,,,,,,,,,,,,,,,,,,,,,,,,,,,,,,,,,,,,,,,,
1656264826.727174,124.000000,0.000000,4197.436035,4175.384766,4042.051270,4072.820557,4187.179688,450.000000,4.000000,86.000000,,,,0.000000,4.000000,4.000000,4.000000,4.000000,4.000000,100.000000,,,,,,,,,,,,,,,,,,,,,,,,,,,,,,,,,,,,,,,,,,,,,,,,,,,,,,,,,,,,,,,
1656264826.734888,125.000000,0.000000,4245.641113,4241.538574,4060.000000,4111.282227,4234.358887,450.000000,4.000000,86.000000,,,,0.000000,4.000000,4.000000,4.000000,4.000000,4.000000,100.000000,,,,,,,,,,,,,,,,,,,,,,,,,,,,,,,,,,,,,,,,,,,,,,,,,,,,,,,,,,,,,,,
1656264826.742703,126.000000,0.000000,4239.487305,4241.538574,4061.025635,4091.281982,4214.358887,450.000000,4.000000,86.000000,,,,0.000000,4.000000,4.000000,4.000000,4.000000,4.000000,100.000000,,,,,,,,,,,,,,,,,,,,,,,,,,,,,,,,,,,,,,,,,,,,,,,,,,,,,,,,,,,,,,,
