title:david_g_Backwards, start timestamp:1656266207.113713, stop timestamp:1656266212.121005, headset type:INSIGHT, headset serial:A2D201AE, headset firmware:932, channels:84, sampling rate:eeg_128;pm_0.1;pow_8, samples:640       , version:2.1, 
Timestamp,EEG.Counter,EEG.Interpolated,EEG.AF3,EEG.T7,EEG.Pz,EEG.T8,EEG.AF4,EEG.RawCq,EEG.Battery,EEG.BatteryPercent,MarkerIndex,MarkerType,MarkerValueInt,EEG.MarkerHardware,CQ.AF3,CQ.T7,CQ.Pz,CQ.T8,CQ.AF4,CQ.Overall,EQ.SampleRateQuality,EQ.OVERALL,EQ.AF3,EQ.T7,EQ.Pz,EQ.T8,EQ.AF4,PM.Engagement.IsActive,PM.Engagement.Scaled,PM.Engagement.Raw,PM.Engagement.Min,PM.Engagement.Max,PM.Excitement.IsActive,PM.Excitement.Scaled,PM.Excitement.Raw,PM.Excitement.Min,PM.Excitement.Max,PM.LongTermExcitement,PM.Stress.IsActive,PM.Stress.Scaled,PM.Stress.Raw,PM.Stress.Min,PM.Stress.Max,PM.Relaxation.IsActive,PM.Relaxation.Scaled,PM.Relaxation.Raw,PM.Relaxation.Min,PM.Relaxation.Max,PM.Interest.IsActive,PM.Interest.Scaled,PM.Interest.Raw,PM.Interest.Min,PM.Interest.Max,PM.Focus.IsActive,PM.Focus.Scaled,PM.Focus.Raw,PM.Focus.Min,PM.Focus.Max,POW.AF3.Theta,POW.AF3.Alpha,POW.AF3.BetaL,POW.AF3.BetaH,POW.AF3.Gamma,POW.T7.Theta,POW.T7.Alpha,POW.T7.BetaL,POW.T7.BetaH,POW.T7.Gamma,POW.Pz.Theta,POW.Pz.Alpha,POW.Pz.BetaL,POW.Pz.BetaH,POW.Pz.Gamma,POW.T8.Theta,POW.T8.Alpha,POW.T8.BetaL,POW.T8.BetaH,POW.T8.Gamma,POW.AF4.Theta,POW.AF4.Alpha,POW.AF4.BetaL,POW.AF4.BetaH,POW.AF4.Gamma
1656266207.113713,46.000000,0.000000,4250.256348,4248.205078,4122.051270,4090.256348,4212.307617,0.000000,4.000000,91.000000,,,,0.000000,4.000000,4.000000,4.000000,4.000000,4.000000,100.000000,,,,,,,,,,,,,,,,,,,,,,,,,,,,,,,,,,,,,,,,,,,,,,,,,,,,,,,,,,,,,,,
1656266207.121627,47.000000,0.000000,4261.025879,4256.922852,4129.743652,4094.358887,4211.794922,0.000000,4.000000,91.000000,,,,0.000000,4.000000,4.000000,4.000000,4.000000,4.000000,100.000000,,,,,,,,,,,,,,,,,,,,,,,,,,,,,,,,,,,,,,,,,,,,,,,,,,,,,,,,,,,,,,,
1656266207.129442,48.000000,0.000000,4279.487305,4253.846191,4126.666504,4093.846191,4228.205078,0.000000,4.000000,91.000000,,,,0.000000,4.000000,4.000000,4.000000,4.000000,4.000000,100.000000,,,,,,,,,,,,,,,,,,,,,,,,,,,,,,,,,,,,,,,,,,,,,,,,,,,,,,,,,,,,,,,
1656266207.137356,49.000000,0.000000,4293.846191,4258.461426,4132.820313,4098.461426,4250.256348,0.000000,4.000000,91.000000,,,,0.000000,4.000000,4.000000,4.000000,4.000000,4.000000,100.000000,,,,,,,,,,,,,,,,,,,,,,,,,,,,,,,,,,,,,,,,,,,,,,,,,,,,,,,,,,,,,,,
1656266207.145170,50.000000,0.000000,4305.641113,4266.153809,4135.897461,4107.692383,4254.871582,0.000000,4.000000,91.000000,,,,0.000000,4.000000,4.000000,4.000000,4.000000,4.000000,100.000000,,,,,,,,,,,,,,,,,,,,,,,,,,,,,,,,,,,,,,,,,,,,,,,,,,,,,,,,,,,,,,,
1656266207.153085,51.000000,0.000000,4311.282227,4253.333496,4114.871582,4118.461426,4256.410156,0.000000,4.000000,91.000000,,,,0.000000,4.000000,4.000000,4.000000,4.000000,4.000000,100.000000,,,,,,,,,,,,,,,,,,,,,,,,,,,,,,,,,,,,,,,,,,,,,,,,,,,,,,,,,,,,,,,
1656266207.160899,52.000000,0.000000,4307.179688,4247.179688,4098.974121,4111.794922,4264.102539,0.000000,4.000000,91.000000,,,,0.000000,4.000000,4.000000,4.000000,4.000000,4.000000,100.000000,,,,,,,,,,,,,,,,,,,,,,,,,,,,,,,,,,,,,,,,,,,,,,,,,,,,,,,,,,,,,,,
1656266207.168813,53.000000,0.000000,4293.846191,4268.205078,4105.641113,4096.922852,4253.846191,0.000000,4.000000,91.000000,,,,0.000000,4.000000,4.000000,4.000000,4.000000,4.000000,100.000000,,,,,,,,,,,,,,,,,,,,,,,,,,,,,,,,,,,,,,,,,,,,,,,,,,,,,,,,,,,,,,,
1656266207.176628,54.000000,0.000000,4274.871582,4277.436035,4113.846191,4102.563965,4230.769043,0.000000,4.000000,91.000000,,,,0.000000,4.000000,4.000000,4.000000,4.000000,4.000000,100.000000,,,,,,,,,,,,,,,,,,,,,,,,,,,,,,,,,,,,,,,,,,,,,,,,,,,,,,,,,,,,,,,
1656266207.184542,55.000000,0.000000,4263.077148,4263.077148,4107.179688,4099.487305,4228.717773,0.000000,4.000000,91.000000,,,,0.000000,4.000000,4.000000,4.000000,4.000000,4.000000,100.000000,,,,,,,,,,,,,,,,,,,,,,,,,,,,,,,,,,,,,,,,,,,,,,,,,,,,,,,,,,,,,,,
1656266207.192356,56.000000,0.000000,4267.692383,4257.436035,4098.461426,4075.897461,4232.307617,0.000000,4.000000,91.000000,,,,0.000000,4.000000,4.000000,4.000000,4.000000,4.000000,100.000000,,,,,,,,,,,,,,,,,,,,,,,,,,,,,,,,,,,,,,,,,,,,,,,,,,,,,,,,,,,,,,,
1656266207.200171,57.000000,0.000000,4271.282227,4270.256348,4112.820313,4077.948730,4223.077148,0.000000,4.000000,91.000000,,,,0.000000,4.000000,4.000000,4.000000,4.000000,4.000000,100.000000,,,,,,,,,,,,,,,,,,,,,,,,,,,,,,,,,,,,,,,,,,,,,,,,,,,,,,,,,,,,,,,
1656266207.207885,58.000000,0.000000,4259.487305,4277.436035,4128.717773,4094.358887,4218.974121,0.000000,4.000000,91.000000,,,,0.000000,4.000000,4.000000,4.000000,4.000000,4.000000,100.000000,,,,,,,,,,,,,,,,,,,,,,,,,,,,,,,,,,,,,,,,,,,,,,,,,,,,,,,,,,,,,,,
1656266207.215800,59.000000,0.000000,4255.384766,4270.256348,4120.000000,4091.794922,4226.153809,0.000000,4.000000,91.000000,,,,0.000000,4.000000,4.000000,4.000000,4.000000,4.000000,100.000000,,,,,,,,,,,,,,,,,,,,,,,,,,,,,,,,,,,,,,,,,,,,,,,,,,,,,,,,,,,,,,,
1656266207.223714,60.000000,0.000000,4273.846191,4264.102539,4107.692383,4097.436035,4242.563965,0.000000,4.000000,91.000000,,,,0.000000,4.000000,4.000000,4.000000,4.000000,4.000000,100.000000,,,,,,,,,,,,,,,,,,,,,,,,,,,,,,,,,,,,,,,27.519091,4.758852,1.909812,1.053093,0.452485,0.860321,0.935102,1.541685,0.507992,0.556596,2.363895,3.452401,2.615325,0.829218,0.457314,1.513910,2.003767,1.495396,0.792527,0.625251,24.350096,3.865026,2.144881,1.987654,0.668224
1656266207.231528,61.000000,0.000000,4284.615234,4269.743652,4105.641113,4108.205078,4243.077148,0.000000,4.000000,91.000000,,,,0.000000,4.000000,4.000000,4.000000,4.000000,4.000000,100.000000,,,,,,,,,,,,,,,,,,,,,,,,,,,,,,,,,,,,,,,,,,,,,,,,,,,,,,,,,,,,,,,
1656266207.239343,62.000000,0.000000,4261.025879,4271.794922,4098.974121,4088.205078,4209.230957,0.000000,4.000000,91.000000,,,,0.000000,4.000000,4.000000,4.000000,4.000000,4.000000,100.000000,,,,,,,,,,,,,,,,,,,,,,,,,,,,,,,,,,,,,,,,,,,,,,,,,,,,,,,,,,,,,,,
1656266207.247057,63.000000,0.000000,4242.563965,4257.436035,4089.743652,4061.538574,4194.358887,0.000000,4.000000,91.000000,,,,0.000000,4.000000,4.000000,4.000000,4.000000,4.000000,100.000000,,,,,,,,,,,,,,,,,,,,,,,,,,,,,,,,,,,,,,,,,,,,,,,,,,,,,,,,,,,,,,,
1656266207.254972,64.000000,0.000000,4257.948730,4253.846191,4094.358887,4068.205078,4222.051270,450.000000,4.000000,91.000000,,,,0.000000,4.000000,4.000000,4.000000,4.000000,4.000000,100.000000,,,,,,,,,,,,,,,,,,,,,,,,,,,,,,,,,,,,,,,,,,,,,,,,,,,,,,,,,,,,,,,
1656266207.262786,65.000000,0.000000,4275.384766,4269.230957,4107.692383,4089.743652,4240.000000,450.000000,4.000000,91.000000,,,,0.000000,4.000000,4.000000,4.000000,4.000000,4.000000,100.000000,,,,,,,,,,,,,,,,,,,,,,,,,,,,,,,,,,,,,,,,,,,,,,,,,,,,,,,,,,,,,,,
1656266207.270700,66.000000,0.000000,4282.563965,4274.871582,4115.897461,4086.666748,4243.589844,16250.000000,4.000000,91.000000,,,,0.000000,4.000000,4.000000,4.000000,4.000000,4.000000,100.000000,,,,,,,,,,,,,,,,,,,,,,,,,,,,,,,,,,,,,,,,,,,,,,,,,,,,,,,,,,,,,,,
1656266207.278515,67.000000,0.000000,4281.025879,4264.102539,4113.846191,4068.205078,4249.230957,450.000000,4.000000,91.000000,,,,0.000000,4.000000,4.000000,4.000000,4.000000,4.000000,100.000000,,,,,,,,,,,,,,,,,,,,,,,,,,,,,,,,,,,,,,,,,,,,,,,,,,,,,,,,,,,,,,,
1656266207.286429,68.000000,0.000000,4271.794922,4257.948730,4117.436035,4078.974365,4234.871582,16147.000000,4.000000,91.000000,,,,0.000000,4.000000,4.000000,4.000000,4.000000,4.000000,100.000000,,,,,,,,,,,,,,,,,,,,,,,,,,,,,,,,,,,,,,,,,,,,,,,,,,,,,,,,,,,,,,,
1656266207.294243,69.000000,0.000000,4266.153809,4258.974121,4131.282227,4109.743652,4218.974121,450.000000,4.000000,91.000000,,,,0.000000,4.000000,4.000000,4.000000,4.000000,4.000000,100.000000,,,,,,,,,,,,,,,,,,,,,,,,,,,,,,,,,,,,,,,,,,,,,,,,,,,,,,,,,,,,,,,
1656266207.302158,70.000000,0.000000,4273.333496,4259.487305,4123.589844,4107.179688,4232.820313,16211.000000,4.000000,91.000000,,,,0.000000,4.000000,4.000000,4.000000,4.000000,4.000000,100.000000,,,,,,,,,,,,,,,,,,,,,,,,,,,,,,,,,,,,,,,,,,,,,,,,,,,,,,,,,,,,,,,
1656266207.309972,71.000000,0.000000,4279.487305,4266.666504,4108.205078,4090.769287,4246.153809,450.000000,4.000000,91.000000,,,,0.000000,4.000000,4.000000,4.000000,4.000000,4.000000,100.000000,,,,,,,,,,,,,,,,,,,,,,,,,,,,,,,,,,,,,,,,,,,,,,,,,,,,,,,,,,,,,,,
1656266207.317787,72.000000,0.000000,4282.563965,4278.461426,4117.948730,4106.153809,4248.717773,450.000000,4.000000,91.000000,,,,0.000000,4.000000,4.000000,4.000000,4.000000,4.000000,100.000000,,,,,,,,,,,,,,,,,,,,,,,,,,,,,,,,,,,,,,,,,,,,,,,,,,,,,,,,,,,,,,,
1656266207.325501,73.000000,0.000000,4286.153809,4272.820313,4121.025879,4113.333496,4249.230957,16176.000000,4.000000,91.000000,,,,0.000000,4.000000,4.000000,4.000000,4.000000,4.000000,100.000000,,,,,,,,,,,,,,,,,,,,,,,,,,,,,,,,,,,,,,,,,,,,,,,,,,,,,,,,,,,,,,,
1656266207.333315,74.000000,0.000000,4287.179688,4257.948730,4106.153809,4088.205078,4236.922852,450.000000,4.000000,91.000000,,,,0.000000,4.000000,4.000000,4.000000,4.000000,4.000000,100.000000,,,,,,,,,,,,,,,,,,,,,,,,,,,,,,,,,,,,,,,,,,,,,,,,,,,,,,,,,,,,,,,
1656266207.341030,75.000000,0.000000,4289.230957,4262.563965,4108.717773,4087.692383,4236.410156,16193.000000,4.000000,91.000000,,,,0.000000,4.000000,4.000000,4.000000,4.000000,4.000000,100.000000,,,,,,,,,,,,,,,,,,,,,,,,,,,,,,,,,,,,,,,,,,,,,,,,,,,,,,,,,,,,,,,
1656266207.348844,76.000000,0.000000,4276.922852,4264.102539,4120.512695,4108.205078,4243.589844,450.000000,4.000000,91.000000,,,,0.000000,4.000000,4.000000,4.000000,4.000000,4.000000,100.000000,,,,,,,,,,,,,,,,,,,,,,,,,,,,,,,,,,,,,,,16.809395,3.882213,2.211153,1.100057,0.458796,0.883664,0.790140,1.640928,0.386785,0.538926,2.429805,3.059095,3.541738,0.824541,0.452209,1.675818,2.291361,1.746281,0.849679,0.686440,14.652226,3.428378,2.650795,1.954685,0.681946
1656266207.356559,77.000000,0.000000,4256.922852,4245.128418,4116.922852,4107.179688,4225.128418,450.000000,4.000000,91.000000,,,,0.000000,4.000000,4.000000,4.000000,4.000000,4.000000,100.000000,,,,,,,,,,,,,,,,,,,,,,,,,,,,,,,,,,,,,,,,,,,,,,,,,,,,,,,,,,,,,,,
1656266207.364473,78.000000,0.000000,4257.436035,4243.589844,4109.230957,4105.641113,4212.307617,450.000000,4.000000,91.000000,,,,0.000000,4.000000,4.000000,4.000000,4.000000,4.000000,100.000000,,,,,,,,,,,,,,,,,,,,,,,,,,,,,,,,,,,,,,,,,,,,,,,,,,,,,,,,,,,,,,,
1656266207.372288,79.000000,0.000000,4263.589844,4251.794922,4101.025879,4106.666504,4228.717773,16193.000000,4.000000,91.000000,,,,0.000000,4.000000,4.000000,4.000000,4.000000,4.000000,100.000000,,,,,,,,,,,,,,,,,,,,,,,,,,,,,,,,,,,,,,,,,,,,,,,,,,,,,,,,,,,,,,,
1656266207.380102,80.000000,0.000000,4266.153809,4242.563965,4094.358887,4093.333252,4231.282227,450.000000,4.000000,91.000000,,,,0.000000,4.000000,4.000000,4.000000,4.000000,4.000000,100.000000,,,,,,,,,,,,,,,,,,,,,,,,,,,,,,,,,,,,,,,,,,,,,,,,,,,,,,,,,,,,,,,
1656266207.387816,81.000000,0.000000,4274.358887,4236.922852,4098.974121,4081.025635,4209.230957,450.000000,4.000000,91.000000,,,,0.000000,4.000000,4.000000,4.000000,4.000000,4.000000,100.000000,,,,,,,,,,,,,,,,,,,,,,,,,,,,,,,,,,,,,,,,,,,,,,,,,,,,,,,,,,,,,,,
1656266207.395731,82.000000,0.000000,4284.102539,4248.205078,4108.717773,4080.000000,4213.333496,450.000000,4.000000,91.000000,,,,0.000000,4.000000,4.000000,4.000000,4.000000,4.000000,100.000000,,,,,,,,,,,,,,,,,,,,,,,,,,,,,,,,,,,,,,,,,,,,,,,,,,,,,,,,,,,,,,,
1656266207.403545,83.000000,0.000000,4290.256348,4254.358887,4116.922852,4086.666748,4232.820313,16193.000000,4.000000,91.000000,,,,0.000000,4.000000,4.000000,4.000000,4.000000,4.000000,100.000000,,,,,,,,,,,,,,,,,,,,,,,,,,,,,,,,,,,,,,,,,,,,,,,,,,,,,,,,,,,,,,,
1656266207.411459,84.000000,0.000000,4290.256348,4237.436035,4120.000000,4090.769287,4235.897461,450.000000,4.000000,91.000000,,,,0.000000,4.000000,4.000000,4.000000,4.000000,4.000000,100.000000,,,,,,,,,,,,,,,,,,,,,,,,,,,,,,,,,,,,,,,,,,,,,,,,,,,,,,,,,,,,,,,
1656266207.419374,85.000000,0.000000,4276.410156,4209.230957,4114.871582,4086.153809,4230.256348,450.000000,4.000000,91.000000,,,,0.000000,4.000000,4.000000,4.000000,4.000000,4.000000,100.000000,,,,,,,,,,,,,,,,,,,,,,,,,,,,,,,,,,,,,,,,,,,,,,,,,,,,,,,,,,,,,,,
1656266207.427188,86.000000,0.000000,4257.948730,4204.102539,4103.589844,4084.615479,4214.871582,450.000000,4.000000,91.000000,,,,0.000000,4.000000,4.000000,4.000000,4.000000,4.000000,100.000000,,,,,,,,,,,,,,,,,,,,,,,,,,,,,,,,,,,,,,,,,,,,,,,,,,,,,,,,,,,,,,,
1656266207.435103,87.000000,0.000000,4247.692383,4215.897461,4098.974121,4092.307617,4200.512695,16193.000000,4.000000,91.000000,,,,0.000000,4.000000,4.000000,4.000000,4.000000,4.000000,100.000000,,,,,,,,,,,,,,,,,,,,,,,,,,,,,,,,,,,,,,,,,,,,,,,,,,,,,,,,,,,,,,,
1656266207.442917,88.000000,0.000000,4247.179688,4208.205078,4098.974121,4089.743652,4202.563965,450.000000,4.000000,91.000000,,,,0.000000,4.000000,4.000000,4.000000,4.000000,4.000000,100.000000,,,,,,,,,,,,,,,,,,,,,,,,,,,,,,,,,,,,,,,,,,,,,,,,,,,,,,,,,,,,,,,
1656266207.450831,89.000000,0.000000,4257.436035,4200.512695,4097.948730,4082.564209,4211.282227,450.000000,4.000000,91.000000,,,,0.000000,4.000000,4.000000,4.000000,4.000000,4.000000,100.000000,,,,,,,,,,,,,,,,,,,,,,,,,,,,,,,,,,,,,,,,,,,,,,,,,,,,,,,,,,,,,,,
1656266207.458646,90.000000,0.000000,4268.205078,4214.871582,4103.589844,4087.179443,4213.846191,450.000000,4.000000,91.000000,,,,0.000000,4.000000,4.000000,4.000000,4.000000,4.000000,100.000000,,,,,,,,,,,,,,,,,,,,,,,,,,,,,,,,,,,,,,,,,,,,,,,,,,,,,,,,,,,,,,,
1656266207.466560,91.000000,0.000000,4266.666504,4220.000000,4109.230957,4087.179443,4210.769043,16193.000000,4.000000,91.000000,,,,0.000000,4.000000,4.000000,4.000000,4.000000,4.000000,100.000000,,,,,,,,,,,,,,,,,,,,,,,,,,,,,,,,,,,,,,,,,,,,,,,,,,,,,,,,,,,,,,,
1656266207.474374,92.000000,0.000000,4266.666504,4210.769043,4109.230957,4081.025635,4217.436035,450.000000,4.000000,91.000000,,,,0.000000,4.000000,4.000000,4.000000,4.000000,4.000000,100.000000,,,,,,,,,,,,,,,,,,,,,,,,,,,,,,,,,,,,,,,10.049997,3.094754,2.471495,1.196696,0.479985,0.960625,0.603306,1.671053,0.311441,0.518690,2.624985,2.698280,4.494705,0.833736,0.431908,1.773412,2.349377,1.990436,0.907632,0.725833,8.161223,2.944576,3.098816,1.892875,0.717208
1656266207.482289,93.000000,0.000000,4273.846191,4209.743652,4110.256348,4088.205078,4230.769043,450.000000,4.000000,91.000000,,,,0.000000,4.000000,4.000000,4.000000,4.000000,4.000000,100.000000,,,,,,,,,,,,,,,,,,,,,,,,,,,,,,,,,,,,,,,,,,,,,,,,,,,,,,,,,,,,,,,
1656266207.490103,94.000000,0.000000,4268.205078,4211.282227,4111.282227,4095.384521,4221.025879,450.000000,4.000000,91.000000,,,,0.000000,4.000000,4.000000,4.000000,4.000000,4.000000,100.000000,,,,,,,,,,,,,,,,,,,,,,,,,,,,,,,,,,,,,,,,,,,,,,,,,,,,,,,,,,,,,,,
1656266207.498017,95.000000,0.000000,4258.461426,4207.179688,4108.717773,4091.794922,4204.615234,16193.000000,4.000000,91.000000,,,,0.000000,4.000000,4.000000,4.000000,4.000000,4.000000,100.000000,,,,,,,,,,,,,,,,,,,,,,,,,,,,,,,,,,,,,,,,,,,,,,,,,,,,,,,,,,,,,,,
1656266207.505832,96.000000,0.000000,4262.563965,4207.179688,4109.230957,4094.871826,4218.461426,450.000000,4.000000,91.000000,,,,0.000000,4.000000,4.000000,4.000000,4.000000,4.000000,100.000000,,,,,,,,,,,,,,,,,,,,,,,,,,,,,,,,,,,,,,,,,,,,,,,,,,,,,,,,,,,,,,,
1656266207.513746,97.000000,0.000000,4270.769043,4211.794922,4112.307617,4100.000000,4229.743652,450.000000,4.000000,91.000000,,,,0.000000,4.000000,4.000000,4.000000,4.000000,4.000000,100.000000,,,,,,,,,,,,,,,,,,,,,,,,,,,,,,,,,,,,,,,,,,,,,,,,,,,,,,,,,,,,,,,
1656266207.521560,98.000000,0.000000,4268.205078,4215.897461,4106.666504,4087.179443,4212.307617,450.000000,4.000000,91.000000,,,,0.000000,4.000000,4.000000,4.000000,4.000000,4.000000,100.000000,,,,,,,,,,,,,,,,,,,,,,,,,,,,,,,,,,,,,,,,,,,,,,,,,,,,,,,,,,,,,,,
1656266207.529475,99.000000,0.000000,4265.128418,4217.436035,4096.922852,4068.718018,4204.615234,16193.000000,4.000000,91.000000,,,,0.000000,4.000000,4.000000,4.000000,4.000000,4.000000,100.000000,,,,,,,,,,,,,,,,,,,,,,,,,,,,,,,,,,,,,,,,,,,,,,,,,,,,,,,,,,,,,,,
1656266207.537389,100.000000,0.000000,4274.358887,4222.563965,4101.538574,4067.692383,4217.436035,450.000000,4.000000,91.000000,,,,0.000000,4.000000,4.000000,4.000000,4.000000,4.000000,100.000000,,,,,,,,,,,,,,,,,,,,,,,,,,,,,,,,,,,,,,,,,,,,,,,,,,,,,,,,,,,,,,,
1656266207.545203,101.000000,0.000000,4269.230957,4224.102539,4116.922852,4076.923096,4222.563965,450.000000,4.000000,91.000000,,,,0.000000,4.000000,4.000000,4.000000,4.000000,4.000000,100.000000,,,,,,,,,,,,,,,,,,,,,,,,,,,,,,,,,,,,,,,,,,,,,,,,,,,,,,,,,,,,,,,
1656266207.553118,102.000000,0.000000,4249.230957,4216.410156,4128.205078,4085.641113,4224.102539,450.000000,4.000000,91.000000,,,,0.000000,4.000000,4.000000,4.000000,4.000000,4.000000,100.000000,,,,,,,,,,,,,,,,,,,,,,,,,,,,,,,,,,,,,,,,,,,,,,,,,,,,,,,,,,,,,,,
1656266207.561032,103.000000,0.000000,4249.230957,4216.922852,4131.794922,4100.000000,4232.307617,16193.000000,4.000000,91.000000,,,,0.000000,4.000000,4.000000,4.000000,4.000000,4.000000,100.000000,,,,,,,,,,,,,,,,,,,,,,,,,,,,,,,,,,,,,,,,,,,,,,,,,,,,,,,,,,,,,,,
1656266207.568847,104.000000,0.000000,4260.512695,4224.615234,4120.512695,4112.307617,4227.179688,450.000000,4.000000,91.000000,,,,0.000000,4.000000,4.000000,4.000000,4.000000,4.000000,100.000000,,,,,,,,,,,,,,,,,,,,,,,,,,,,,,,,,,,,,,,,,,,,,,,,,,,,,,,,,,,,,,,
1656266207.576661,105.000000,0.000000,4259.487305,4225.128418,4097.436035,4106.666504,4210.256348,450.000000,4.000000,91.000000,,,,0.000000,4.000000,4.000000,4.000000,4.000000,4.000000,100.000000,,,,,,,,,,,,,,,,,,,,,,,,,,,,,,,,,,,,,,,,,,,,,,,,,,,,,,,,,,,,,,,
1656266207.584575,106.000000,0.000000,4253.333496,4226.666504,4085.128174,4089.230713,4204.615234,450.000000,4.000000,91.000000,,,,0.000000,4.000000,4.000000,4.000000,4.000000,4.000000,100.000000,,,,,,,,,,,,,,,,,,,,,,,,,,,,,,,,,,,,,,,,,,,,,,,,,,,,,,,,,,,,,,,
1656266207.592390,107.000000,0.000000,4250.256348,4225.641113,4085.641113,4082.051270,4204.615234,16193.000000,4.000000,91.000000,,,,0.000000,4.000000,4.000000,4.000000,4.000000,4.000000,100.000000,,,,,,,,,,,,,,,,,,,,,,,,,,,,,,,,,,,,,,,,,,,,,,,,,,,,,,,,,,,,,,,
1656266207.600304,108.000000,0.000000,4259.487305,4220.000000,4085.128174,4087.692383,4212.820313,450.000000,4.000000,91.000000,,,,0.000000,4.000000,4.000000,4.000000,4.000000,4.000000,100.000000,1.000000,100.000000,4.000000,4.000000,4.000000,4.000000,4.000000,,,,,,,,,,,,,,,,,,,,,,,,,,,,,,,,7.473806,2.655114,2.639827,1.324688,0.515871,0.991224,0.419398,1.584172,0.303709,0.504975,2.879307,2.426349,5.189223,0.860530,0.405781,1.877664,2.167956,2.206867,0.943845,0.743058,5.223949,2.566077,3.405166,1.796115,0.767303
1656266207.608118,109.000000,0.000000,4283.077148,4222.051270,4083.076904,4084.102539,4237.948730,450.000000,4.000000,91.000000,,,,0.000000,4.000000,4.000000,4.000000,4.000000,4.000000,100.000000,,,,,,,,,,,,,,,,,,,,,,,,,,,,,,,,,,,,,,,,,,,,,,,,,,,,,,,,,,,,,,,
1656266207.616033,110.000000,0.000000,4292.820313,4224.615234,4089.743652,4078.974365,4243.077148,450.000000,4.000000,91.000000,,,,0.000000,4.000000,4.000000,4.000000,4.000000,4.000000,100.000000,,,,,,,,,,,,,,,,,,,,,,,,,,,,,,,,,,,,,,,,,,,,,,,,,,,,,,,,,,,,,,,
1656266207.623847,111.000000,0.000000,4285.128418,4218.974121,4101.025879,4092.820557,4228.205078,16193.000000,4.000000,91.000000,,,,0.000000,4.000000,4.000000,4.000000,4.000000,4.000000,100.000000,,,,,,,,,,,,,,,,,,,,,,,,,,,,,,,,,,,,,,,,,,,,,,,,,,,,,,,,,,,,,,,
1656266207.631761,112.000000,0.000000,4279.487305,4213.846191,4103.589844,4109.743652,4228.717773,450.000000,4.000000,91.000000,,,,0.000000,4.000000,4.000000,4.000000,4.000000,4.000000,100.000000,,,,,,,,,,,,,,,,,,,,,,,,,,,,,,,,,,,,,,,,,,,,,,,,,,,,,,,,,,,,,,,
1656266207.639576,113.000000,0.000000,4277.436035,4224.615234,4110.256348,4109.230957,4228.205078,450.000000,4.000000,91.000000,,,,0.000000,4.000000,4.000000,4.000000,4.000000,4.000000,100.000000,,,,,,,,,,,,,,,,,,,,,,,,,,,,,,,,,,,,,,,,,,,,,,,,,,,,,,,,,,,,,,,
1656266207.647490,114.000000,0.000000,4275.384766,4247.179688,4124.615234,4099.487305,4222.051270,450.000000,4.000000,91.000000,,,,0.000000,4.000000,4.000000,4.000000,4.000000,4.000000,100.000000,,,,,,,,,,,,,,,,,,,,,,,,,,,,,,,,,,,,,,,,,,,,,,,,,,,,,,,,,,,,,,,
1656266207.655304,115.000000,0.000000,4273.333496,4251.282227,4127.179688,4095.384521,4225.641113,16193.000000,4.000000,91.000000,,,,0.000000,4.000000,4.000000,4.000000,4.000000,4.000000,100.000000,,,,,,,,,,,,,,,,,,,,,,,,,,,,,,,,,,,,,,,,,,,,,,,,,,,,,,,,,,,,,,,
1656266207.663219,116.000000,0.000000,4274.358887,4244.615234,4117.948730,4093.333252,4226.153809,450.000000,4.000000,91.000000,,,,0.000000,4.000000,4.000000,4.000000,4.000000,4.000000,100.000000,,,,,,,,,,,,,,,,,,,,,,,,,,,,,,,,,,,,,,,,,,,,,,,,,,,,,,,,,,,,,,,
1656266207.671033,117.000000,0.000000,4281.538574,4250.769043,4110.256348,4085.641113,4224.615234,450.000000,4.000000,91.000000,,,,0.000000,4.000000,4.000000,4.000000,4.000000,4.000000,100.000000,,,,,,,,,,,,,,,,,,,,,,,,,,,,,,,,,,,,,,,,,,,,,,,,,,,,,,,,,,,,,,,
1656266207.678947,118.000000,0.000000,4286.153809,4255.897461,4107.692383,4086.153809,4237.436035,450.000000,4.000000,91.000000,,,,0.000000,4.000000,4.000000,4.000000,4.000000,4.000000,100.000000,,,,,,,,,,,,,,,,,,,,,,,,,,,,,,,,,,,,,,,,,,,,,,,,,,,,,,,,,,,,,,,
1656266207.686862,119.000000,0.000000,4283.077148,4249.743652,4101.025879,4102.051270,4242.051270,16193.000000,4.000000,91.000000,,,,0.000000,4.000000,4.000000,4.000000,4.000000,4.000000,100.000000,,,,,,,,,,,,,,,,,,,,,,,,,,,,,,,,,,,,,,,,,,,,,,,,,,,,,,,,,,,,,,,
1656266207.694776,120.000000,0.000000,4278.974121,4245.128418,4094.871826,4110.769043,4228.717773,450.000000,4.000000,91.000000,,,,0.000000,4.000000,4.000000,4.000000,4.000000,4.000000,100.000000,,,,,,,,,,,,,,,,,,,,,,,,,,,,,,,,,,,,,,,,,,,,,,,,,,,,,,,,,,,,,,,
1656266207.702591,121.000000,0.000000,4275.897461,4244.102539,4094.871826,4106.666504,4224.615234,450.000000,4.000000,91.000000,,,,0.000000,4.000000,4.000000,4.000000,4.000000,4.000000,100.000000,,,,,,,,,,,,,,,,,,,,,,,,,,,,,,,,,,,,,,,,,,,,,,,,,,,,,,,,,,,,,,,
1656266207.710405,122.000000,0.000000,4271.282227,4237.948730,4091.281982,4103.589844,4221.538574,450.000000,4.000000,91.000000,,,,0.000000,4.000000,4.000000,4.000000,4.000000,4.000000,100.000000,,,,,,,,,,,,,,,,,,,,,,,,,,,,,,,,,,,,,,,,,,,,,,,,,,,,,,,,,,,,,,,
1656266207.718319,123.000000,0.000000,4271.794922,4237.436035,4090.256348,4096.922852,4213.846191,16193.000000,4.000000,91.000000,,,,0.000000,4.000000,4.000000,4.000000,4.000000,4.000000,100.000000,,,,,,,,,,,,,,,,,,,,,,,,,,,,,,,,,,,,,,,,,,,,,,,,,,,,,,,,,,,,,,,
1656266207.726134,124.000000,0.000000,4280.512695,4252.820313,4104.615234,4094.358887,4220.512695,450.000000,4.000000,91.000000,,,,0.000000,4.000000,4.000000,4.000000,4.000000,4.000000,100.000000,,,,,,,,,,,,,,,,,,,,,,,,,,,,,,,,,,,,,,,7.663941,2.650248,2.738273,1.457646,0.559205,0.967390,0.278055,1.389213,0.354394,0.505316,3.100591,2.261576,5.421818,0.891452,0.384212,2.076245,1.802164,2.381542,0.940044,0.746801,4.796177,2.347678,3.543776,1.687744,0.823140
1656266207.734048,125.000000,0.000000,4285.641113,4263.589844,4121.025879,4095.897461,4230.256348,450.000000,4.000000,91.000000,,,,0.000000,4.000000,4.000000,4.000000,4.000000,4.000000,100.000000,,,,,,,,,,,,,,,,,,,,,,,,,,,,,,,,,,,,,,,,,,,,,,,,,,,,,,,,,,,,,,,
1656266207.741862,126.000000,0.000000,4283.077148,4255.384766,4110.256348,4081.538574,4218.974121,450.000000,4.000000,91.000000,,,,0.000000,4.000000,4.000000,4.000000,4.000000,4.000000,100.000000,,,,,,,,,,,,,,,,,,,,,,,,,,,,,,,,,,,,,,,,,,,,,,,,,,,,,,,,,,,,,,,
1656266207.749777,127.000000,0.000000,4280.512695,4249.743652,4089.743652,4066.666748,4207.692383,242.000000,4.000000,91.000000,,,,0.000000,4.000000,4.000000,4.000000,4.000000,4.000000,100.000000,,,,,,,,,,,,,,,,,,,,,,,,,,,,,,,,,,,,,,,,,,,,,,,,,,,,,,,,,,,,,,,
1656266207.757591,0.000000,0.000000,4284.102539,4251.794922,4093.333252,4074.358887,4222.563965,450.000000,4.000000,91.000000,,,,0.000000,4.000000,4.000000,4.000000,4.000000,4.000000,100.000000,,,,,,,,,,,,,,,,,,,,,,,,,,,,,,,,,,,,,,,,,,,,,,,,,,,,,,,,,,,,,,,
1656266207.765505,1.000000,0.000000,4283.589844,4250.256348,4100.000000,4087.179443,4232.307617,450.000000,4.000000,91.000000,,,,0.000000,4.000000,4.000000,4.000000,4.000000,4.000000,100.000000,,,,,,,,,,,,,,,,,,,,,,,,,,,,,,,,,,,,,,,,,,,,,,,,,,,,,,,,,,,,,,,
1656266207.773320,2.000000,0.000000,4279.487305,4247.692383,4090.769287,4088.205078,4219.487305,16124.000000,4.000000,91.000000,,,,0.000000,4.000000,4.000000,4.000000,4.000000,4.000000,100.000000,,,,,,,,,,,,,,,,,,,,,,,,,,,,,,,,,,,,,,,,,,,,,,,,,,,,,,,,,,,,,,,
1656266207.781234,3.000000,0.000000,4284.102539,4254.358887,4092.307617,4096.922852,4218.974121,450.000000,4.000000,91.000000,,,,0.000000,4.000000,4.000000,4.000000,4.000000,4.000000,100.000000,,,,,,,,,,,,,,,,,,,,,,,,,,,,,,,,,,,,,,,,,,,,,,,,,,,,,,,,,,,,,,,
1656266207.789048,4.000000,0.000000,4296.922852,4255.384766,4104.102539,4115.897461,4238.461426,16087.000000,4.000000,91.000000,,,,0.000000,4.000000,4.000000,4.000000,4.000000,4.000000,100.000000,,,,,,,,,,,,,,,,,,,,,,,,,,,,,,,,,,,,,,,,,,,,,,,,,,,,,,,,,,,,,,,
1656266207.796963,5.000000,0.000000,4302.051270,4245.641113,4101.025879,4118.461426,4249.743652,450.000000,4.000000,91.000000,,,,0.000000,4.000000,4.000000,4.000000,4.000000,4.000000,100.000000,,,,,,,,,,,,,,,,,,,,,,,,,,,,,,,,,,,,,,,,,,,,,,,,,,,,,,,,,,,,,,,
1656266207.804777,6.000000,0.000000,4297.436035,4247.179688,4100.000000,4097.436035,4243.589844,16122.000000,4.000000,91.000000,,,,0.000000,4.000000,4.000000,4.000000,4.000000,4.000000,100.000000,,,,,,,,,,,,,,,,,,,,,,,,,,,,,,,,,,,,,,,,,,,,,,,,,,,,,,,,,,,,,,,
1656266207.812691,7.000000,0.000000,4293.333496,4253.846191,4109.230957,4079.487061,4232.820313,450.000000,4.000000,91.000000,,,,0.000000,4.000000,4.000000,4.000000,4.000000,4.000000,100.000000,,,,,,,,,,,,,,,,,,,,,,,,,,,,,,,,,,,,,,,,,,,,,,,,,,,,,,,,,,,,,,,
1656266207.820506,8.000000,0.000000,4289.743652,4250.769043,4114.358887,4084.615479,4224.615234,450.000000,4.000000,91.000000,,,,0.000000,4.000000,4.000000,4.000000,4.000000,4.000000,100.000000,,,,,,,,,,,,,,,,,,,,,,,,,,,,,,,,,,,,,,,,,,,,,,,,,,,,,,,,,,,,,,,
1656266207.828420,9.000000,0.000000,4292.307617,4248.717773,4113.846191,4099.487305,4228.205078,16073.000000,4.000000,91.000000,,,,0.000000,4.000000,4.000000,4.000000,4.000000,4.000000,100.000000,,,,,,,,,,,,,,,,,,,,,,,,,,,,,,,,,,,,,,,,,,,,,,,,,,,,,,,,,,,,,,,
1656266207.836235,10.000000,0.000000,4302.563965,4263.589844,4105.641113,4108.717773,4238.461426,450.000000,4.000000,91.000000,,,,0.000000,4.000000,4.000000,4.000000,4.000000,4.000000,100.000000,,,,,,,,,,,,,,,,,,,,,,,,,,,,,,,,,,,,,,,,,,,,,,,,,,,,,,,,,,,,,,,
1656266207.844149,11.000000,0.000000,4298.974121,4273.333496,4096.922852,4107.179688,4238.461426,16287.000000,4.000000,91.000000,,,,0.000000,4.000000,4.000000,4.000000,4.000000,4.000000,100.000000,,,,,,,,,,,,,,,,,,,,,,,,,,,,,,,,,,,,,,,,,,,,,,,,,,,,,,,,,,,,,,,
1656266207.851963,12.000000,0.000000,4283.077148,4260.512695,4101.025879,4101.538574,4233.846191,450.000000,4.000000,91.000000,,,,0.000000,4.000000,4.000000,4.000000,4.000000,4.000000,100.000000,,,,,,,,,,,,,,,,,,,,,,,,,,,,,,,,,,,,,,,8.563613,2.962689,2.826883,1.559840,0.597326,0.937198,0.209740,1.146676,0.431957,0.519824,3.223495,2.185147,5.127786,0.909759,0.370686,2.389108,1.366845,2.543733,0.890477,0.745238,5.245995,2.248322,3.534914,1.595234,0.873290
1656266207.859878,13.000000,0.000000,4285.641113,4255.384766,4109.230957,4104.102539,4237.948730,450.000000,4.000000,91.000000,,,,0.000000,4.000000,4.000000,4.000000,4.000000,4.000000,100.000000,,,,,,,,,,,,,,,,,,,,,,,,,,,,,,,,,,,,,,,,,,,,,,,,,,,,,,,,,,,,,,,
1656266207.867692,14.000000,0.000000,4312.307617,4263.077148,4114.358887,4110.256348,4248.717773,450.000000,4.000000,91.000000,,,,0.000000,4.000000,4.000000,4.000000,4.000000,4.000000,100.000000,,,,,,,,,,,,,,,,,,,,,,,,,,,,,,,,,,,,,,,,,,,,,,,,,,,,,,,,,,,,,,,
1656266207.875606,15.000000,0.000000,4325.128418,4266.666504,4122.563965,4115.897461,4257.948730,16287.000000,4.000000,91.000000,,,,0.000000,4.000000,4.000000,4.000000,4.000000,4.000000,100.000000,,,,,,,,,,,,,,,,,,,,,,,,,,,,,,,,,,,,,,,,,,,,,,,,,,,,,,,,,,,,,,,
1656266207.883521,16.000000,0.000000,4303.589844,4254.358887,4122.563965,4113.333496,4259.487305,0.000000,4.000000,91.000000,,,,0.000000,4.000000,4.000000,4.000000,4.000000,4.000000,100.000000,,,,,,,,,,,,,,,,,,,,,,,,,,,,,,,,,,,,,,,,,,,,,,,,,,,,,,,,,,,,,,,
1656266207.891335,17.000000,0.000000,4289.230957,4247.179688,4114.871582,4097.436035,4252.820313,0.000000,4.000000,91.000000,,,,0.000000,4.000000,4.000000,4.000000,4.000000,4.000000,100.000000,,,,,,,,,,,,,,,,,,,,,,,,,,,,,,,,,,,,,,,,,,,,,,,,,,,,,,,,,,,,,,,
1656266207.899249,18.000000,0.000000,4305.128418,4265.641113,4110.256348,4093.846191,4249.230957,0.000000,4.000000,91.000000,,,,0.000000,4.000000,4.000000,4.000000,4.000000,4.000000,100.000000,,,,,,,,,,,,,,,,,,,,,,,,,,,,,,,,,,,,,,,,,,,,,,,,,,,,,,,,,,,,,,,
1656266207.907064,19.000000,0.000000,4314.871582,4279.487305,4104.615234,4109.230957,4252.307617,0.000000,4.000000,91.000000,,,,0.000000,4.000000,4.000000,4.000000,4.000000,4.000000,100.000000,,,,,,,,,,,,,,,,,,,,,,,,,,,,,,,,,,,,,,,,,,,,,,,,,,,,,,,,,,,,,,,
1656266207.914978,20.000000,0.000000,4309.230957,4267.179688,4095.897461,4105.641113,4252.307617,0.000000,4.000000,91.000000,,,,0.000000,4.000000,4.000000,4.000000,4.000000,4.000000,100.000000,,,,,,,,,,,,,,,,,,,,,,,,,,,,,,,,,,,,,,,,,,,,,,,,,,,,,,,,,,,,,,,
1656266207.922792,21.000000,0.000000,4311.794922,4254.358887,4090.256348,4091.281982,4254.871582,0.000000,4.000000,91.000000,,,,0.000000,4.000000,4.000000,4.000000,4.000000,4.000000,100.000000,,,,,,,,,,,,,,,,,,,,,,,,,,,,,,,,,,,,,,,,,,,,,,,,,,,,,,,,,,,,,,,
1656266207.930707,22.000000,0.000000,4312.307617,4260.000000,4103.589844,4107.179688,4262.051270,0.000000,4.000000,91.000000,,,,0.000000,4.000000,4.000000,4.000000,4.000000,4.000000,100.000000,,,,,,,,,,,,,,,,,,,,,,,,,,,,,,,,,,,,,,,,,,,,,,,,,,,,,,,,,,,,,,,
1656266207.938521,23.000000,0.000000,4299.487305,4261.538574,4123.077148,4117.948730,4261.538574,0.000000,4.000000,91.000000,,,,0.000000,4.000000,4.000000,4.000000,4.000000,4.000000,100.000000,,,,,,,,,,,,,,,,,,,,,,,,,,,,,,,,,,,,,,,,,,,,,,,,,,,,,,,,,,,,,,,
1656266207.946436,24.000000,0.000000,4295.384766,4247.692383,4113.846191,4088.205078,4257.948730,0.000000,4.000000,91.000000,,,,0.000000,4.000000,4.000000,4.000000,4.000000,4.000000,100.000000,,,,,,,,,,,,,,,,,,,,,,,,,,,,,,,,,,,,,,,,,,,,,,,,,,,,,,,,,,,,,,,
1656266207.954250,25.000000,0.000000,4294.871582,4247.179688,4089.743652,4072.307617,4258.974121,0.000000,4.000000,91.000000,,,,0.000000,4.000000,4.000000,4.000000,4.000000,4.000000,100.000000,,,,,,,,,,,,,,,,,,,,,,,,,,,,,,,,,,,,,,,,,,,,,,,,,,,,,,,,,,,,,,,
1656266207.962164,26.000000,0.000000,4289.230957,4256.922852,4090.769287,4092.307617,4251.794922,0.000000,4.000000,91.000000,,,,0.000000,4.000000,4.000000,4.000000,4.000000,4.000000,100.000000,,,,,,,,,,,,,,,,,,,,,,,,,,,,,,,,,,,,,,,,,,,,,,,,,,,,,,,,,,,,,,,
1656266207.969979,27.000000,0.000000,4287.179688,4252.820313,4098.974121,4103.077148,4242.051270,0.000000,4.000000,91.000000,,,,0.000000,4.000000,4.000000,4.000000,4.000000,4.000000,100.000000,,,,,,,,,,,,,,,,,,,,,,,,,,,,,,,,,,,,,,,,,,,,,,,,,,,,,,,,,,,,,,,
1656266207.977893,28.000000,0.000000,4287.179688,4251.282227,4092.820557,4102.051270,4243.077148,0.000000,4.000000,91.000000,,,,0.000000,4.000000,4.000000,4.000000,4.000000,4.000000,100.000000,,,,,,,,,,,,,,,,,,,,,,,,,,,,,,,,,,,,,,,9.106451,3.390426,2.962485,1.595808,0.615136,0.954371,0.234649,0.945426,0.502085,0.539273,3.229353,2.226787,4.450448,0.904362,0.361563,2.755308,0.985839,2.747475,0.810832,0.740479,5.661132,2.185752,3.435262,1.536061,0.904022
1656266207.985707,29.000000,0.000000,4285.128418,4261.538574,4095.384521,4105.128418,4243.077148,0.000000,4.000000,91.000000,,,,0.000000,4.000000,4.000000,4.000000,4.000000,4.000000,100.000000,,,,,,,,,,,,,,,,,,,,,,,,,,,,,,,,,,,,,,,,,,,,,,,,,,,,,,,,,,,,,,,
1656266207.993622,30.000000,0.000000,4285.128418,4250.769043,4104.102539,4103.077148,4237.436035,0.000000,4.000000,91.000000,,,,0.000000,4.000000,4.000000,4.000000,4.000000,4.000000,100.000000,,,,,,,,,,,,,,,,,,,,,,,,,,,,,,,,,,,,,,,,,,,,,,,,,,,,,,,,,,,,,,,
1656266208.001436,31.000000,0.000000,4278.974121,4232.307617,4104.615234,4093.333252,4238.461426,0.000000,4.000000,91.000000,,,,0.000000,4.000000,4.000000,4.000000,4.000000,4.000000,100.000000,,,,,,,,,,,,,,,,,,,,,,,,,,,,,,,,,,,,,,,,,,,,,,,,,,,,,,,,,,,,,,,
1656266208.009350,32.000000,0.000000,4266.153809,4242.051270,4097.436035,4083.589844,4241.538574,0.000000,4.000000,91.000000,,,,0.000000,4.000000,4.000000,4.000000,4.000000,4.000000,100.000000,,,,,,,,,,,,,,,,,,,,,,,,,,,,,,,,,,,,,,,,,,,,,,,,,,,,,,,,,,,,,,,
1656266208.017165,33.000000,0.000000,4270.769043,4251.794922,4085.128174,4084.102539,4241.025879,0.000000,4.000000,91.000000,,,,0.000000,4.000000,4.000000,4.000000,4.000000,4.000000,100.000000,,,,,,,,,,,,,,,,,,,,,,,,,,,,,,,,,,,,,,,,,,,,,,,,,,,,,,,,,,,,,,,
1656266208.025079,34.000000,0.000000,4280.512695,4245.128418,4076.410156,4089.743652,4236.922852,0.000000,4.000000,91.000000,,,,0.000000,4.000000,4.000000,4.000000,4.000000,4.000000,100.000000,,,,,,,,,,,,,,,,,,,,,,,,,,,,,,,,,,,,,,,,,,,,,,,,,,,,,,,,,,,,,,,
1656266208.032893,35.000000,0.000000,4268.205078,4248.205078,4073.846191,4083.076904,4225.128418,0.000000,4.000000,91.000000,,,,0.000000,4.000000,4.000000,4.000000,4.000000,4.000000,100.000000,,,,,,,,,,,,,,,,,,,,,,,,,,,,,,,,,,,,,,,,,,,,,,,,,,,,,,,,,,,,,,,
1656266208.040808,36.000000,0.000000,4264.102539,4256.922852,4077.435791,4075.384521,4225.641113,0.000000,4.000000,91.000000,,,,0.000000,4.000000,4.000000,4.000000,4.000000,4.000000,100.000000,,,,,,,,,,,,,,,,,,,,,,,,,,,,,,,,,,,,,,,,,,,,,,,,,,,,,,,,,,,,,,,
1656266208.048722,37.000000,0.000000,4276.410156,4253.333496,4078.461426,4082.051270,4241.025879,0.000000,4.000000,91.000000,,,,0.000000,4.000000,4.000000,4.000000,4.000000,4.000000,100.000000,,,,,,,,,,,,,,,,,,,,,,,,,,,,,,,,,,,,,,,,,,,,,,,,,,,,,,,,,,,,,,,
1656266208.056536,38.000000,0.000000,4268.717773,4245.128418,4081.025635,4086.666748,4243.077148,0.000000,4.000000,91.000000,,,,0.000000,4.000000,4.000000,4.000000,4.000000,4.000000,100.000000,,,,,,,,,,,,,,,,,,,,,,,,,,,,,,,,,,,,,,,,,,,,,,,,,,,,,,,,,,,,,,,
1656266208.064451,39.000000,0.000000,4267.692383,4250.256348,4090.769287,4086.666748,4237.948730,0.000000,4.000000,91.000000,,,,0.000000,4.000000,4.000000,4.000000,4.000000,4.000000,100.000000,,,,,,,,,,,,,,,,,,,,,,,,,,,,,,,,,,,,,,,,,,,,,,,,,,,,,,,,,,,,,,,
1656266208.072265,40.000000,0.000000,4283.589844,4260.000000,4097.436035,4086.666748,4237.948730,0.000000,4.000000,91.000000,,,,0.000000,4.000000,4.000000,4.000000,4.000000,4.000000,100.000000,,,,,,,,,,,,,,,,,,,,,,,,,,,,,,,,,,,,,,,,,,,,,,,,,,,,,,,,,,,,,,,
1656266208.080180,41.000000,0.000000,4272.307617,4254.358887,4104.615234,4079.487061,4225.641113,0.000000,4.000000,91.000000,,,,0.000000,4.000000,4.000000,4.000000,4.000000,4.000000,100.000000,,,,,,,,,,,,,,,,,,,,,,,,,,,,,,,,,,,,,,,,,,,,,,,,,,,,,,,,,,,,,,,
1656266208.087994,42.000000,0.000000,4252.307617,4251.282227,4108.717773,4072.307617,4217.948730,0.000000,4.000000,91.000000,,,,0.000000,4.000000,4.000000,4.000000,4.000000,4.000000,100.000000,,,,,,,,,,,,,,,,,,,,,,,,,,,,,,,,,,,,,,,,,,,,,,,,,,,,,,,,,,,,,,,
1656266208.095908,43.000000,0.000000,4255.897461,4261.538574,4102.563965,4083.589844,4237.436035,0.000000,4.000000,91.000000,,,,0.000000,4.000000,4.000000,4.000000,4.000000,4.000000,100.000000,,,,,,,,,,,,,,,,,,,,,,,,,,,,,,,,,,,,,,,,,,,,,,,,,,,,,,,,,,,,,,,
1656266208.103723,44.000000,0.000000,4268.205078,4266.666504,4111.282227,4106.666504,4255.384766,0.000000,4.000000,91.000000,,,,0.000000,4.000000,4.000000,4.000000,4.000000,4.000000,100.000000,1.000000,100.000000,4.000000,4.000000,4.000000,4.000000,4.000000,,,,,,,,,,,,,,,,,,,,,,,,,,,,,,,,8.840107,3.702996,3.145782,1.543693,0.603791,1.035124,0.347791,0.858245,0.541643,0.550053,3.099870,2.402372,3.683625,0.872256,0.350688,3.045425,0.731317,3.032805,0.725573,0.729373,5.683442,2.083973,3.290101,1.499866,0.904121
1656266208.111637,45.000000,0.000000,4280.000000,4265.128418,4122.563965,4108.717773,4252.307617,0.000000,4.000000,91.000000,,,,0.000000,4.000000,4.000000,4.000000,4.000000,4.000000,100.000000,,,,,,,,,,,,,,,,,,,,,,,,,,,,,,,,,,,,,,,,,,,,,,,,,,,,,,,,,,,,,,,
1656266208.119451,46.000000,0.000000,4285.128418,4265.128418,4107.179688,4092.820557,4249.743652,0.000000,4.000000,91.000000,,,,0.000000,4.000000,4.000000,4.000000,4.000000,4.000000,100.000000,,,,,,,,,,,,,,,,,,,,,,,,,,,,,,,,,,,,,,,,,,,,,,,,,,,,,,,,,,,,,,,
1656266208.127366,47.000000,0.000000,4277.436035,4257.436035,4095.897461,4096.922852,4247.692383,0.000000,4.000000,91.000000,,,,0.000000,4.000000,4.000000,4.000000,4.000000,4.000000,100.000000,,,,,,,,,,,,,,,,,,,,,,,,,,,,,,,,,,,,,,,,,,,,,,,,,,,,,,,,,,,,,,,
1656266208.135180,48.000000,0.000000,4276.410156,4251.282227,4106.666504,4110.769043,4240.512695,0.000000,4.000000,91.000000,,,,0.000000,4.000000,4.000000,4.000000,4.000000,4.000000,100.000000,,,,,,,,,,,,,,,,,,,,,,,,,,,,,,,,,,,,,,,,,,,,,,,,,,,,,,,,,,,,,,,
1656266208.143094,49.000000,0.000000,4286.153809,4264.102539,4111.794922,4105.641113,4243.589844,0.000000,4.000000,91.000000,,,,0.000000,4.000000,4.000000,4.000000,4.000000,4.000000,100.000000,,,,,,,,,,,,,,,,,,,,,,,,,,,,,,,,,,,,,,,,,,,,,,,,,,,,,,,,,,,,,,,
1656266208.150909,50.000000,0.000000,4280.000000,4269.230957,4100.000000,4090.769287,4242.051270,0.000000,4.000000,91.000000,,,,0.000000,4.000000,4.000000,4.000000,4.000000,4.000000,100.000000,,,,,,,,,,,,,,,,,,,,,,,,,,,,,,,,,,,,,,,,,,,,,,,,,,,,,,,,,,,,,,,
1656266208.158823,51.000000,0.000000,4262.051270,4256.922852,4094.358887,4082.051270,4220.000000,0.000000,4.000000,91.000000,,,,0.000000,4.000000,4.000000,4.000000,4.000000,4.000000,100.000000,,,,,,,,,,,,,,,,,,,,,,,,,,,,,,,,,,,,,,,,,,,,,,,,,,,,,,,,,,,,,,,
1656266208.166637,52.000000,0.000000,4261.538574,4251.282227,4093.333252,4073.846191,4207.179688,0.000000,4.000000,91.000000,,,,0.000000,4.000000,4.000000,4.000000,4.000000,4.000000,100.000000,,,,,,,,,,,,,,,,,,,,,,,,,,,,,,,,,,,,,,,,,,,,,,,,,,,,,,,,,,,,,,,
1656266208.174552,53.000000,0.000000,4271.282227,4246.153809,4089.230713,4067.179443,4217.948730,0.000000,4.000000,91.000000,,,,0.000000,4.000000,4.000000,4.000000,4.000000,4.000000,100.000000,,,,,,,,,,,,,,,,,,,,,,,,,,,,,,,,,,,,,,,,,,,,,,,,,,,,,,,,,,,,,,,
1656266208.182366,54.000000,0.000000,4274.871582,4243.077148,4095.897461,4070.769287,4226.666504,0.000000,4.000000,91.000000,,,,0.000000,4.000000,4.000000,4.000000,4.000000,4.000000,100.000000,,,,,,,,,,,,,,,,,,,,,,,,,,,,,,,,,,,,,,,,,,,,,,,,,,,,,,,,,,,,,,,
1656266208.190280,55.000000,0.000000,4272.307617,4260.000000,4111.282227,4074.358887,4221.025879,0.000000,4.000000,91.000000,,,,0.000000,4.000000,4.000000,4.000000,4.000000,4.000000,100.000000,,,,,,,,,,,,,,,,,,,,,,,,,,,,,,,,,,,,,,,,,,,,,,,,,,,,,,,,,,,,,,,
1656266208.198095,56.000000,0.000000,4269.743652,4275.384766,4124.102539,4076.410156,4219.487305,0.000000,4.000000,91.000000,,,,0.000000,4.000000,4.000000,4.000000,4.000000,4.000000,100.000000,,,,,,,,,,,,,,,,,,,,,,,,,,,,,,,,,,,,,,,,,,,,,,,,,,,,,,,,,,,,,,,
1656266208.206009,57.000000,0.000000,4275.897461,4265.641113,4124.102539,4084.615479,4230.769043,0.000000,4.000000,91.000000,,,,0.000000,4.000000,4.000000,4.000000,4.000000,4.000000,100.000000,,,,,,,,,,,,,,,,,,,,,,,,,,,,,,,,,,,,,,,,,,,,,,,,,,,,,,,,,,,,,,,
1656266208.213924,58.000000,0.000000,4287.179688,4261.025879,4120.000000,4087.692383,4246.153809,0.000000,4.000000,91.000000,,,,0.000000,4.000000,4.000000,4.000000,4.000000,4.000000,100.000000,,,,,,,,,,,,,,,,,,,,,,,,,,,,,,,,,,,,,,,,,,,,,,,,,,,,,,,,,,,,,,,
1656266208.221738,59.000000,0.000000,4286.666504,4270.769043,4116.410156,4080.000000,4244.102539,0.000000,4.000000,91.000000,,,,0.000000,4.000000,4.000000,4.000000,4.000000,4.000000,100.000000,,,,,,,,,,,,,,,,,,,,,,,,,,,,,,,,,,,,,,,,,,,,,,,,,,,,,,,,,,,,,,,
1656266208.229652,60.000000,0.000000,4276.410156,4262.051270,4110.256348,4075.384521,4225.128418,0.000000,4.000000,91.000000,,,,0.000000,4.000000,4.000000,4.000000,4.000000,4.000000,100.000000,,,,,,,,,,,,,,,,,,,,,,,,,,,,,,,,,,,,,,,7.745128,3.715084,3.296695,1.402241,0.567668,1.156219,0.514645,0.900795,0.542791,0.543926,2.857506,2.647687,3.085882,0.821653,0.335190,3.146150,0.612545,3.394861,0.661859,0.708632,5.184913,1.874198,3.112570,1.449657,0.868110
1656266208.237467,61.000000,0.000000,4274.358887,4249.230957,4109.230957,4081.538574,4221.538574,0.000000,4.000000,91.000000,,,,0.000000,4.000000,4.000000,4.000000,4.000000,4.000000,100.000000,,,,,,,,,,,,,,,,,,,,,,,,,,,,,,,,,,,,,,,,,,,,,,,,,,,,,,,,,,,,,,,
1656266208.245381,62.000000,0.000000,4283.589844,4263.077148,4108.205078,4089.743652,4233.333496,0.000000,4.000000,91.000000,,,,0.000000,4.000000,4.000000,4.000000,4.000000,4.000000,100.000000,,,,,,,,,,,,,,,,,,,,,,,,,,,,,,,,,,,,,,,,,,,,,,,,,,,,,,,,,,,,,,,
1656266208.253195,63.000000,0.000000,4288.717773,4265.128418,4096.922852,4088.205078,4236.922852,0.000000,4.000000,91.000000,,,,0.000000,4.000000,4.000000,4.000000,4.000000,4.000000,100.000000,,,,,,,,,,,,,,,,,,,,,,,,,,,,,,,,,,,,,,,,,,,,,,,,,,,,,,,,,,,,,,,
1656266208.261010,64.000000,0.000000,4288.205078,4237.948730,4092.307617,4080.000000,4235.897461,450.000000,4.000000,91.000000,,,,0.000000,4.000000,4.000000,4.000000,4.000000,4.000000,100.000000,,,,,,,,,,,,,,,,,,,,,,,,,,,,,,,,,,,,,,,,,,,,,,,,,,,,,,,,,,,,,,,
1656266208.268724,65.000000,0.000000,4287.692383,4234.358887,4103.077148,4085.128174,4245.128418,450.000000,4.000000,91.000000,,,,0.000000,4.000000,4.000000,4.000000,4.000000,4.000000,100.000000,,,,,,,,,,,,,,,,,,,,,,,,,,,,,,,,,,,,,,,,,,,,,,,,,,,,,,,,,,,,,,,
1656266208.276639,66.000000,0.000000,4292.820313,4253.846191,4106.666504,4094.871826,4248.717773,16105.000000,4.000000,91.000000,,,,0.000000,4.000000,4.000000,4.000000,4.000000,4.000000,100.000000,,,,,,,,,,,,,,,,,,,,,,,,,,,,,,,,,,,,,,,,,,,,,,,,,,,,,,,,,,,,,,,
1656266208.284453,67.000000,0.000000,4307.692383,4252.820313,4106.153809,4099.487305,4246.666504,450.000000,4.000000,91.000000,,,,0.000000,4.000000,4.000000,4.000000,4.000000,4.000000,100.000000,,,,,,,,,,,,,,,,,,,,,,,,,,,,,,,,,,,,,,,,,,,,,,,,,,,,,,,,,,,,,,,
1656266208.292367,68.000000,0.000000,4323.077148,4245.128418,4115.897461,4105.128418,4255.897461,16229.000000,4.000000,91.000000,,,,0.000000,4.000000,4.000000,4.000000,4.000000,4.000000,100.000000,,,,,,,,,,,,,,,,,,,,,,,,,,,,,,,,,,,,,,,,,,,,,,,,,,,,,,,,,,,,,,,
1656266208.300182,69.000000,0.000000,4315.384766,4250.256348,4116.410156,4095.897461,4255.384766,450.000000,4.000000,91.000000,,,,0.000000,4.000000,4.000000,4.000000,4.000000,4.000000,100.000000,,,,,,,,,,,,,,,,,,,,,,,,,,,,,,,,,,,,,,,,,,,,,,,,,,,,,,,,,,,,,,,
1656266208.308096,70.000000,0.000000,4295.897461,4253.333496,4109.743652,4086.153809,4237.436035,308.000000,4.000000,91.000000,,,,0.000000,4.000000,4.000000,2.000000,4.000000,4.000000,83.333336,,,,,,,,,,,,,,,,,,,,,,,,,,,,,,,,,,,,,,,,,,,,,,,,,,,,,,,,,,,,,,,
1656266208.315910,71.000000,0.000000,4289.743652,4252.820313,4113.846191,4107.692383,4229.743652,450.000000,4.000000,91.000000,,,,0.000000,4.000000,4.000000,2.000000,4.000000,4.000000,83.333336,,,,,,,,,,,,,,,,,,,,,,,,,,,,,,,,,,,,,,,,,,,,,,,,,,,,,,,,,,,,,,,
1656266208.323725,72.000000,0.000000,4286.666504,4250.769043,4118.461426,4121.025879,4237.948730,450.000000,4.000000,91.000000,,,,0.000000,4.000000,4.000000,2.000000,4.000000,4.000000,83.333336,,,,,,,,,,,,,,,,,,,,,,,,,,,,,,,,,,,,,,,,,,,,,,,,,,,,,,,,,,,,,,,
1656266208.331439,73.000000,0.000000,4287.692383,4244.102539,4113.333496,4098.461426,4246.153809,16145.000000,4.000000,91.000000,,,,0.000000,4.000000,4.000000,2.000000,4.000000,4.000000,83.333336,,,,,,,,,,,,,,,,,,,,,,,,,,,,,,,,,,,,,,,,,,,,,,,,,,,,,,,,,,,,,,,
1656266208.339354,74.000000,0.000000,4295.897461,4246.666504,4108.205078,4087.179443,4243.589844,450.000000,4.000000,91.000000,,,,0.000000,4.000000,4.000000,2.000000,4.000000,4.000000,83.333336,,,,,,,,,,,,,,,,,,,,,,,,,,,,,,,,,,,,,,,,,,,,,,,,,,,,,,,,,,,,,,,
1656266208.347168,75.000000,0.000000,4285.641113,4252.820313,4101.538574,4102.051270,4234.358887,16170.000000,4.000000,91.000000,,,,0.000000,4.000000,4.000000,2.000000,4.000000,4.000000,83.333336,,,,,,,,,,,,,,,,,,,,,,,,,,,,,,,,,,,,,,,,,,,,,,,,,,,,,,,,,,,,,,,
1656266208.355082,76.000000,0.000000,4273.333496,4253.846191,4094.358887,4102.563965,4229.743652,450.000000,4.000000,91.000000,,,,0.000000,4.000000,4.000000,2.000000,4.000000,4.000000,83.333336,,,,,,,,,,,,,,,,,,,,,,,,,,,,,,,,,,,,,,,6.146858,3.355792,3.287829,1.195778,0.523439,1.271222,0.684353,1.019615,0.515866,0.522209,2.547013,2.889860,2.780964,0.769289,0.317320,2.997100,0.598585,3.764792,0.640406,0.679057,4.301118,1.537002,2.880964,1.353182,0.800045
1656266208.362997,77.000000,0.000000,4289.743652,4254.358887,4099.487305,4095.384521,4236.410156,450.000000,4.000000,91.000000,,,,0.000000,4.000000,4.000000,2.000000,4.000000,4.000000,83.333336,,,,,,,,,,,,,,,,,,,,,,,,,,,,,,,,,,,,,,,,,,,,,,,,,,,,,,,,,,,,,,,
1656266208.370811,78.000000,0.000000,4302.051270,4251.282227,4101.538574,4104.102539,4248.205078,450.000000,4.000000,91.000000,,,,0.000000,4.000000,4.000000,2.000000,4.000000,4.000000,83.333336,,,,,,,,,,,,,,,,,,,,,,,,,,,,,,,,,,,,,,,,,,,,,,,,,,,,,,,,,,,,,,,
1656266208.378725,79.000000,0.000000,4288.717773,4243.589844,4083.076904,4095.384521,4242.563965,16170.000000,4.000000,91.000000,,,,0.000000,4.000000,4.000000,2.000000,4.000000,4.000000,83.333336,,,,,,,,,,,,,,,,,,,,,,,,,,,,,,,,,,,,,,,,,,,,,,,,,,,,,,,,,,,,,,,
1656266208.386540,80.000000,0.000000,4279.487305,4238.974121,4068.718018,4071.794922,4225.128418,450.000000,4.000000,91.000000,,,,0.000000,4.000000,4.000000,2.000000,4.000000,4.000000,83.333336,,,,,,,,,,,,,,,,,,,,,,,,,,,,,,,,,,,,,,,,,,,,,,,,,,,,,,,,,,,,,,,
1656266208.394354,81.000000,0.000000,4278.974121,4240.512695,4072.820557,4074.358887,4219.487305,450.000000,4.000000,91.000000,,,,0.000000,4.000000,4.000000,2.000000,4.000000,4.000000,83.333336,,,,,,,,,,,,,,,,,,,,,,,,,,,,,,,,,,,,,,,,,,,,,,,,,,,,,,,,,,,,,,,
1656266208.402069,82.000000,0.000000,4278.974121,4245.641113,4073.333252,4086.666748,4222.563965,450.000000,4.000000,91.000000,,,,0.000000,4.000000,4.000000,2.000000,4.000000,4.000000,83.333336,,,,,,,,,,,,,,,,,,,,,,,,,,,,,,,,,,,,,,,,,,,,,,,,,,,,,,,,,,,,,,,
1656266208.409883,83.000000,0.000000,4285.128418,4252.307617,4068.205078,4077.948730,4220.000000,16170.000000,4.000000,91.000000,,,,0.000000,4.000000,4.000000,2.000000,4.000000,4.000000,83.333336,,,,,,,,,,,,,,,,,,,,,,,,,,,,,,,,,,,,,,,,,,,,,,,,,,,,,,,,,,,,,,,
1656266208.417598,84.000000,0.000000,4283.077148,4253.333496,4070.769287,4065.641113,4219.487305,450.000000,4.000000,91.000000,,,,0.000000,4.000000,4.000000,2.000000,4.000000,4.000000,83.333336,,,,,,,,,,,,,,,,,,,,,,,,,,,,,,,,,,,,,,,,,,,,,,,,,,,,,,,,,,,,,,,
1656266208.425412,85.000000,0.000000,4274.358887,4245.128418,4083.589844,4075.384521,4223.589844,450.000000,4.000000,91.000000,,,,0.000000,4.000000,4.000000,2.000000,4.000000,4.000000,83.333336,,,,,,,,,,,,,,,,,,,,,,,,,,,,,,,,,,,,,,,,,,,,,,,,,,,,,,,,,,,,,,,
1656266208.433126,86.000000,0.000000,4282.563965,4245.128418,4100.512695,4097.436035,4235.384766,450.000000,4.000000,91.000000,,,,0.000000,4.000000,4.000000,2.000000,4.000000,4.000000,83.333336,,,,,,,,,,,,,,,,,,,,,,,,,,,,,,,,,,,,,,,,,,,,,,,,,,,,,,,,,,,,,,,
1656266208.441041,87.000000,0.000000,4296.410156,4255.384766,4106.666504,4103.589844,4251.794922,16170.000000,4.000000,91.000000,,,,0.000000,4.000000,4.000000,2.000000,4.000000,4.000000,83.333336,,,,,,,,,,,,,,,,,,,,,,,,,,,,,,,,,,,,,,,,,,,,,,,,,,,,,,,,,,,,,,,
1656266208.448855,88.000000,0.000000,4297.948730,4255.897461,4104.615234,4090.769287,4252.307617,450.000000,4.000000,91.000000,,,,0.000000,4.000000,4.000000,2.000000,4.000000,4.000000,83.333336,,,,,,,,,,,,,,,,,,,,,,,,,,,,,,,,,,,,,,,,,,,,,,,,,,,,,,,,,,,,,,,
1656266208.456770,89.000000,0.000000,4300.000000,4247.692383,4102.563965,4086.153809,4242.563965,450.000000,4.000000,91.000000,,,,0.000000,4.000000,4.000000,2.000000,4.000000,4.000000,83.333336,,,,,,,,,,,,,,,,,,,,,,,,,,,,,,,,,,,,,,,,,,,,,,,,,,,,,,,,,,,,,,,
1656266208.464584,90.000000,0.000000,4307.179688,4256.922852,4095.384521,4094.358887,4248.717773,450.000000,4.000000,91.000000,,,,0.000000,4.000000,4.000000,2.000000,4.000000,4.000000,83.333336,,,,,,,,,,,,,,,,,,,,,,,,,,,,,,,,,,,,,,,,,,,,,,,,,,,,,,,,,,,,,,,
1656266208.472398,91.000000,0.000000,4306.153809,4264.102539,4081.025635,4089.230713,4255.384766,16170.000000,4.000000,91.000000,,,,0.000000,4.000000,4.000000,2.000000,4.000000,4.000000,83.333336,,,,,,,,,,,,,,,,,,,,,,,,,,,,,,,,,,,,,,,,,,,,,,,,,,,,,,,,,,,,,,,
1656266208.480113,92.000000,0.000000,4292.307617,4255.897461,4077.948730,4086.666748,4244.615234,450.000000,4.000000,91.000000,,,,0.000000,4.000000,4.000000,2.000000,4.000000,4.000000,83.333336,,,,,,,,,,,,,,,,,,,,,,,,,,,,,,,,,,,,,,,4.485945,2.726064,3.039752,0.966854,0.491111,1.336914,0.807659,1.127071,0.486096,0.494110,2.259945,3.081563,2.713570,0.732763,0.301773,2.703165,0.666435,4.026726,0.663763,0.646009,3.334867,1.171479,2.591325,1.203459,0.713750
1656266208.487927,93.000000,0.000000,4285.128418,4254.871582,4088.718018,4100.512695,4245.641113,450.000000,4.000000,91.000000,,,,0.000000,4.000000,4.000000,2.000000,4.000000,4.000000,83.333336,,,,,,,,,,,,,,,,,,,,,,,,,,,,,,,,,,,,,,,,,,,,,,,,,,,,,,,,,,,,,,,
1656266208.495642,94.000000,0.000000,4292.307617,4255.897461,4087.179443,4106.153809,4256.922852,450.000000,4.000000,91.000000,,,,0.000000,4.000000,4.000000,2.000000,4.000000,4.000000,83.333336,,,,,,,,,,,,,,,,,,,,,,,,,,,,,,,,,,,,,,,,,,,,,,,,,,,,,,,,,,,,,,,
1656266208.503556,95.000000,0.000000,4287.692383,4253.333496,4078.461426,4103.077148,4244.615234,16170.000000,4.000000,91.000000,,,,0.000000,4.000000,4.000000,2.000000,4.000000,4.000000,83.333336,,,,,,,,,,,,,,,,,,,,,,,,,,,,,,,,,,,,,,,,,,,,,,,,,,,,,,,,,,,,,,,
1656266208.511470,96.000000,0.000000,4266.153809,4255.384766,4091.281982,4102.051270,4220.512695,450.000000,4.000000,91.000000,,,,0.000000,4.000000,4.000000,2.000000,4.000000,4.000000,83.333336,,,,,,,,,,,,,,,,,,,,,,,,,,,,,,,,,,,,,,,,,,,,,,,,,,,,,,,,,,,,,,,
1656266208.519285,97.000000,0.000000,4266.153809,4256.410156,4111.794922,4100.000000,4218.461426,450.000000,4.000000,91.000000,,,,0.000000,4.000000,4.000000,2.000000,4.000000,4.000000,83.333336,,,,,,,,,,,,,,,,,,,,,,,,,,,,,,,,,,,,,,,,,,,,,,,,,,,,,,,,,,,,,,,
1656266208.527099,98.000000,0.000000,4285.641113,4256.922852,4107.692383,4096.922852,4237.436035,450.000000,4.000000,91.000000,,,,0.000000,4.000000,4.000000,2.000000,4.000000,4.000000,83.333336,,,,,,,,,,,,,,,,,,,,,,,,,,,,,,,,,,,,,,,,,,,,,,,,,,,,,,,,,,,,,,,
1656266208.535013,99.000000,0.000000,4290.769043,4259.487305,4100.000000,4105.128418,4249.230957,16170.000000,4.000000,91.000000,,,,0.000000,4.000000,4.000000,2.000000,4.000000,4.000000,83.333336,,,,,,,,,,,,,,,,,,,,,,,,,,,,,,,,,,,,,,,,,,,,,,,,,,,,,,,,,,,,,,,
1656266208.542828,100.000000,0.000000,4279.487305,4256.410156,4112.307617,4109.230957,4241.538574,450.000000,4.000000,91.000000,,,,0.000000,4.000000,4.000000,2.000000,4.000000,4.000000,83.333336,,,,,,,,,,,,,,,,,,,,,,,,,,,,,,,,,,,,,,,,,,,,,,,,,,,,,,,,,,,,,,,
1656266208.550742,101.000000,0.000000,4276.410156,4257.436035,4115.897461,4102.563965,4222.563965,450.000000,4.000000,91.000000,,,,0.000000,4.000000,4.000000,2.000000,4.000000,4.000000,83.333336,,,,,,,,,,,,,,,,,,,,,,,,,,,,,,,,,,,,,,,,,,,,,,,,,,,,,,,,,,,,,,,
1656266208.558557,102.000000,0.000000,4288.205078,4263.589844,4105.641113,4115.384766,4225.128418,450.000000,4.000000,91.000000,,,,0.000000,4.000000,4.000000,2.000000,4.000000,4.000000,83.333336,,,,,,,,,,,,,,,,,,,,,,,,,,,,,,,,,,,,,,,,,,,,,,,,,,,,,,,,,,,,,,,
1656266208.566471,103.000000,0.000000,4292.307617,4251.794922,4095.384521,4126.153809,4238.974121,16170.000000,4.000000,91.000000,,,,0.000000,4.000000,4.000000,2.000000,4.000000,4.000000,83.333336,,,,,,,,,,,,,,,,,,,,,,,,,,,,,,,,,,,,,,,,,,,,,,,,,,,,,,,,,,,,,,,
1656266208.574285,104.000000,0.000000,4271.794922,4234.871582,4083.076904,4105.128418,4229.230957,450.000000,4.000000,91.000000,,,,0.000000,4.000000,4.000000,2.000000,4.000000,4.000000,83.333336,,,,,,,,,,,,,,,,,,,,,,,,,,,,,,,,,,,,,,,,,,,,,,,,,,,,,,,,,,,,,,,
1656266208.582000,105.000000,0.000000,4262.051270,4242.051270,4081.538574,4089.743652,4221.538574,450.000000,4.000000,91.000000,,,,0.000000,4.000000,4.000000,2.000000,4.000000,4.000000,83.333336,,,,,,,,,,,,,,,,,,,,,,,,,,,,,,,,,,,,,,,,,,,,,,,,,,,,,,,,,,,,,,,
1656266208.589814,106.000000,0.000000,4284.102539,4258.974121,4094.871826,4105.128418,4235.897461,450.000000,4.000000,91.000000,,,,0.000000,4.000000,4.000000,2.000000,4.000000,4.000000,83.333336,,,,,,,,,,,,,,,,,,,,,,,,,,,,,,,,,,,,,,,,,,,,,,,,,,,,,,,,,,,,,,,
1656266208.597529,107.000000,0.000000,4292.307617,4250.769043,4103.589844,4105.128418,4237.948730,16170.000000,4.000000,91.000000,,,,0.000000,4.000000,4.000000,2.000000,4.000000,4.000000,83.333336,,,,,,,,,,,,,,,,,,,,,,,,,,,,,,,,,,,,,,,,,,,,,,,,,,,,,,,,,,,,,,,
1656266208.605343,108.000000,0.000000,4274.358887,4231.282227,4101.538574,4089.230713,4226.153809,450.000000,4.000000,91.000000,,,,0.000000,4.000000,4.000000,2.000000,4.000000,4.000000,83.333336,1.000000,83.333336,4.000000,4.000000,2.000000,4.000000,4.000000,,,,,,,,,,,,,,,,,,,,,,,,,,,,,,,,3.178094,2.009808,2.601286,0.766220,0.484079,1.317130,0.858694,1.155456,0.477478,0.470613,2.049318,3.218011,2.702199,0.720306,0.292431,2.434419,0.797750,4.068253,0.712018,0.617577,2.584759,0.909414,2.296986,1.029591,0.628125
1656266208.613058,109.000000,0.000000,4272.307617,4231.282227,4097.436035,4101.025879,4240.512695,450.000000,4.000000,91.000000,,,,0.000000,4.000000,4.000000,2.000000,4.000000,4.000000,83.333336,,,,,,,,,,,,,,,,,,,,,,,,,,,,,,,,,,,,,,,,,,,,,,,,,,,,,,,,,,,,,,,
1656266208.620972,110.000000,0.000000,4293.846191,4235.897461,4092.820557,4106.666504,4260.512695,450.000000,4.000000,91.000000,,,,0.000000,4.000000,4.000000,2.000000,4.000000,4.000000,83.333336,,,,,,,,,,,,,,,,,,,,,,,,,,,,,,,,,,,,,,,,,,,,,,,,,,,,,,,,,,,,,,,
1656266208.628786,111.000000,0.000000,4296.922852,4234.358887,4088.205078,4084.102539,4250.256348,16170.000000,4.000000,91.000000,,,,0.000000,4.000000,4.000000,2.000000,4.000000,4.000000,83.333336,,,,,,,,,,,,,,,,,,,,,,,,,,,,,,,,,,,,,,,,,,,,,,,,,,,,,,,,,,,,,,,
1656266208.636601,112.000000,0.000000,4284.102539,4240.512695,4091.794922,4076.923096,4234.871582,450.000000,4.000000,91.000000,,,,0.000000,4.000000,4.000000,2.000000,4.000000,4.000000,83.333336,,,,,,,,,,,,,,,,,,,,,,,,,,,,,,,,,,,,,,,,,,,,,,,,,,,,,,,,,,,,,,,
1656266208.644315,113.000000,0.000000,4288.205078,4245.641113,4097.436035,4087.179443,4243.077148,450.000000,4.000000,91.000000,,,,0.000000,4.000000,4.000000,2.000000,4.000000,4.000000,83.333336,,,,,,,,,,,,,,,,,,,,,,,,,,,,,,,,,,,,,,,,,,,,,,,,,,,,,,,,,,,,,,,
1656266208.652130,114.000000,0.000000,4291.282227,4239.487305,4092.820557,4084.102539,4253.333496,450.000000,4.000000,91.000000,,,,0.000000,4.000000,4.000000,2.000000,4.000000,4.000000,83.333336,,,,,,,,,,,,,,,,,,,,,,,,,,,,,,,,,,,,,,,,,,,,,,,,,,,,,,,,,,,,,,,
1656266208.659844,115.000000,0.000000,4286.153809,4243.077148,4089.230713,4089.743652,4244.102539,16170.000000,4.000000,91.000000,,,,0.000000,4.000000,4.000000,2.000000,4.000000,4.000000,83.333336,,,,,,,,,,,,,,,,,,,,,,,,,,,,,,,,,,,,,,,,,,,,,,,,,,,,,,,,,,,,,,,
1656266208.667659,116.000000,0.000000,4292.307617,4252.307617,4094.358887,4103.589844,4238.461426,450.000000,4.000000,91.000000,,,,0.000000,4.000000,4.000000,2.000000,4.000000,4.000000,83.333336,,,,,,,,,,,,,,,,,,,,,,,,,,,,,,,,,,,,,,,,,,,,,,,,,,,,,,,,,,,,,,,
1656266208.675373,117.000000,0.000000,4300.000000,4238.974121,4093.846191,4099.487305,4248.205078,450.000000,4.000000,91.000000,,,,0.000000,4.000000,4.000000,2.000000,4.000000,4.000000,83.333336,,,,,,,,,,,,,,,,,,,,,,,,,,,,,,,,,,,,,,,,,,,,,,,,,,,,,,,,,,,,,,,
1656266208.683287,118.000000,0.000000,4293.846191,4226.153809,4088.205078,4098.461426,4256.410156,450.000000,4.000000,91.000000,,,,0.000000,4.000000,4.000000,2.000000,4.000000,4.000000,83.333336,,,,,,,,,,,,,,,,,,,,,,,,,,,,,,,,,,,,,,,,,,,,,,,,,,,,,,,,,,,,,,,
1656266208.691102,119.000000,0.000000,4289.743652,4237.436035,4083.589844,4102.051270,4256.922852,16170.000000,4.000000,91.000000,,,,0.000000,4.000000,4.000000,2.000000,4.000000,4.000000,83.333336,,,,,,,,,,,,,,,,,,,,,,,,,,,,,,,,,,,,,,,,,,,,,,,,,,,,,,,,,,,,,,,
1656266208.699016,120.000000,0.000000,4296.410156,4239.487305,4078.974365,4097.436035,4257.948730,450.000000,4.000000,91.000000,,,,0.000000,4.000000,4.000000,2.000000,4.000000,4.000000,83.333336,,,,,,,,,,,,,,,,,,,,,,,,,,,,,,,,,,,,,,,,,,,,,,,,,,,,,,,,,,,,,,,
1656266208.706831,121.000000,0.000000,4297.948730,4225.641113,4076.923096,4101.538574,4254.871582,450.000000,4.000000,91.000000,,,,0.000000,4.000000,4.000000,2.000000,4.000000,4.000000,83.333336,,,,,,,,,,,,,,,,,,,,,,,,,,,,,,,,,,,,,,,,,,,,,,,,,,,,,,,,,,,,,,,
1656266208.714745,122.000000,0.000000,4288.205078,4231.794922,4074.358887,4109.743652,4245.641113,450.000000,4.000000,91.000000,,,,0.000000,4.000000,4.000000,2.000000,4.000000,4.000000,83.333336,,,,,,,,,,,,,,,,,,,,,,,,,,,,,,,,,,,,,,,,,,,,,,,,,,,,,,,,,,,,,,,
1656266208.722559,123.000000,0.000000,4284.615234,4251.282227,4076.410156,4098.974121,4240.512695,16170.000000,4.000000,91.000000,,,,0.000000,4.000000,4.000000,2.000000,4.000000,4.000000,83.333336,,,,,,,,,,,,,,,,,,,,,,,,,,,,,,,,,,,,,,,,,,,,,,,,,,,,,,,,,,,,,,,
1656266208.730374,124.000000,0.000000,4287.692383,4243.589844,4077.435791,4090.769287,4235.384766,450.000000,4.000000,91.000000,,,,0.000000,4.000000,4.000000,2.000000,4.000000,4.000000,83.333336,,,,,,,,,,,,,,,,,,,,,,,,,,,,,,,,,,,,,,,2.375250,1.409976,2.107519,0.628261,0.503758,1.228100,0.844668,1.083886,0.496657,0.458249,1.949984,3.324718,2.594093,0.719783,0.290985,2.377008,0.968973,3.834168,0.755015,0.604076,2.224278,0.848981,2.057987,0.876978,0.560720
1656266208.738088,125.000000,0.000000,4280.000000,4232.820313,4074.358887,4088.205078,4227.179688,450.000000,4.000000,91.000000,,,,0.000000,4.000000,4.000000,2.000000,4.000000,4.000000,83.333336,,,,,,,,,,,,,,,,,,,,,,,,,,,,,,,,,,,,,,,,,,,,,,,,,,,,,,,,,,,,,,,
1656266208.745903,126.000000,0.000000,4266.666504,4244.615234,4075.384521,4076.410156,4228.205078,450.000000,4.000000,91.000000,,,,0.000000,4.000000,4.000000,2.000000,4.000000,4.000000,83.333336,,,,,,,,,,,,,,,,,,,,,,,,,,,,,,,,,,,,,,,,,,,,,,,,,,,,,,,,,,,,,,,
1656266208.753717,127.000000,0.000000,4268.205078,4248.205078,4077.435791,4067.179443,4227.692383,242.000000,4.000000,91.000000,,,,0.000000,4.000000,4.000000,2.000000,4.000000,4.000000,83.333336,,,,,,,,,,,,,,,,,,,,,,,,,,,,,,,,,,,,,,,,,,,,,,,,,,,,,,,,,,,,,,,
1656266208.761531,0.000000,0.000000,4275.897461,4240.000000,4077.948730,4073.333252,4223.077148,450.000000,4.000000,91.000000,,,,0.000000,4.000000,4.000000,2.000000,4.000000,4.000000,83.333336,,,,,,,,,,,,,,,,,,,,,,,,,,,,,,,,,,,,,,,,,,,,,,,,,,,,,,,,,,,,,,,
1656266208.769346,1.000000,0.000000,4281.538574,4248.205078,4080.512939,4085.641113,4239.487305,450.000000,4.000000,91.000000,,,,0.000000,4.000000,4.000000,2.000000,4.000000,4.000000,83.333336,,,,,,,,,,,,,,,,,,,,,,,,,,,,,,,,,,,,,,,,,,,,,,,,,,,,,,,,,,,,,,,
1656266208.777060,2.000000,0.000000,4286.153809,4256.922852,4080.512939,4083.589844,4254.871582,16168.000000,4.000000,91.000000,,,,0.000000,4.000000,4.000000,2.000000,4.000000,4.000000,83.333336,,,,,,,,,,,,,,,,,,,,,,,,,,,,,,,,,,,,,,,,,,,,,,,,,,,,,,,,,,,,,,,
1656266208.784875,3.000000,0.000000,4281.025879,4248.717773,4079.487061,4079.487061,4243.077148,450.000000,4.000000,91.000000,,,,0.000000,4.000000,4.000000,2.000000,4.000000,4.000000,83.333336,,,,,,,,,,,,,,,,,,,,,,,,,,,,,,,,,,,,,,,,,,,,,,,,,,,,,,,,,,,,,,,
1656266208.792589,4.000000,0.000000,4278.974121,4241.025879,4088.718018,4089.230713,4240.000000,16178.000000,4.000000,91.000000,,,,0.000000,4.000000,4.000000,2.000000,4.000000,4.000000,83.333336,,,,,,,,,,,,,,,,,,,,,,,,,,,,,,,,,,,,,,,,,,,,,,,,,,,,,,,,,,,,,,,
1656266208.800404,5.000000,0.000000,4289.743652,4242.563965,4093.846191,4097.436035,4253.333496,450.000000,4.000000,91.000000,,,,0.000000,4.000000,4.000000,2.000000,4.000000,4.000000,83.333336,,,,,,,,,,,,,,,,,,,,,,,,,,,,,,,,,,,,,,,,,,,,,,,,,,,,,,,,,,,,,,,
1656266208.808118,6.000000,0.000000,4293.846191,4244.102539,4078.461426,4094.358887,4243.589844,16134.000000,4.000000,91.000000,,,,0.000000,4.000000,4.000000,4.000000,4.000000,4.000000,100.000000,,,,,,,,,,,,,,,,,,,,,,,,,,,,,,,,,,,,,,,,,,,,,,,,,,,,,,,,,,,,,,,
1656266208.816032,7.000000,0.000000,4280.512695,4236.922852,4070.256348,4090.769287,4224.615234,450.000000,4.000000,91.000000,,,,0.000000,4.000000,4.000000,4.000000,4.000000,4.000000,100.000000,,,,,,,,,,,,,,,,,,,,,,,,,,,,,,,,,,,,,,,,,,,,,,,,,,,,,,,,,,,,,,,
1656266208.823847,8.000000,0.000000,4273.333496,4234.358887,4086.666748,4092.307617,4229.230957,450.000000,4.000000,91.000000,,,,0.000000,4.000000,4.000000,4.000000,4.000000,4.000000,100.000000,,,,,,,,,,,,,,,,,,,,,,,,,,,,,,,,,,,,,,,,,,,,,,,,,,,,,,,,,,,,,,,
1656266208.831761,9.000000,0.000000,4277.436035,4240.512695,4101.538574,4089.743652,4236.922852,16167.000000,4.000000,91.000000,,,,0.000000,4.000000,4.000000,4.000000,4.000000,4.000000,100.000000,,,,,,,,,,,,,,,,,,,,,,,,,,,,,,,,,,,,,,,,,,,,,,,,,,,,,,,,,,,,,,,
1656266208.839576,10.000000,0.000000,4279.487305,4243.077148,4107.692383,4092.820557,4230.256348,450.000000,4.000000,91.000000,,,,0.000000,4.000000,4.000000,4.000000,4.000000,4.000000,100.000000,,,,,,,,,,,,,,,,,,,,,,,,,,,,,,,,,,,,,,,,,,,,,,,,,,,,,,,,,,,,,,,
1656266208.847490,11.000000,0.000000,4275.897461,4246.666504,4107.692383,4090.256348,4224.615234,16188.000000,4.000000,91.000000,,,,0.000000,4.000000,4.000000,4.000000,4.000000,4.000000,100.000000,,,,,,,,,,,,,,,,,,,,,,,,,,,,,,,,,,,,,,,,,,,,,,,,,,,,,,,,,,,,,,,
1656266208.855304,12.000000,0.000000,4265.128418,4250.256348,4093.333252,4071.794922,4224.102539,450.000000,4.000000,91.000000,,,,0.000000,4.000000,4.000000,4.000000,4.000000,4.000000,100.000000,,,,,,,,,,,,,,,,,,,,,,,,,,,,,,,,,,,,,,,2.060500,1.058113,1.712727,0.548034,0.542533,1.078598,0.794872,0.937920,0.535830,0.457437,1.939307,3.458593,2.372829,0.709874,0.296954,2.611965,1.138757,3.358504,0.773678,0.611799,2.284252,1.001972,1.913198,0.771711,0.524671
1656266208.863219,13.000000,0.000000,4261.025879,4249.743652,4076.410156,4066.666748,4226.153809,450.000000,4.000000,91.000000,,,,0.000000,4.000000,4.000000,4.000000,4.000000,4.000000,100.000000,,,,,,,,,,,,,,,,,,,,,,,,,,,,,,,,,,,,,,,,,,,,,,,,,,,,,,,,,,,,,,,
1656266208.871033,14.000000,0.000000,4273.846191,4252.307617,4071.281982,4081.538574,4234.871582,450.000000,4.000000,91.000000,,,,0.000000,4.000000,4.000000,4.000000,4.000000,4.000000,100.000000,,,,,,,,,,,,,,,,,,,,,,,,,,,,,,,,,,,,,,,,,,,,,,,,,,,,,,,,,,,,,,,
1656266208.878947,15.000000,0.000000,4285.128418,4253.846191,4074.358887,4094.358887,4247.692383,16188.000000,4.000000,91.000000,,,,0.000000,4.000000,4.000000,4.000000,4.000000,4.000000,100.000000,,,,,,,,,,,,,,,,,,,,,,,,,,,,,,,,,,,,,,,,,,,,,,,,,,,,,,,,,,,,,,,
1656266208.886762,16.000000,0.000000,4283.077148,4243.589844,4084.615479,4103.077148,4246.153809,0.000000,4.000000,91.000000,,,,0.000000,4.000000,4.000000,4.000000,4.000000,4.000000,100.000000,,,,,,,,,,,,,,,,,,,,,,,,,,,,,,,,,,,,,,,,,,,,,,,,,,,,,,,,,,,,,,,
1656266208.894676,17.000000,0.000000,4288.717773,4242.051270,4093.846191,4109.743652,4238.461426,0.000000,4.000000,91.000000,,,,0.000000,4.000000,4.000000,4.000000,4.000000,4.000000,100.000000,,,,,,,,,,,,,,,,,,,,,,,,,,,,,,,,,,,,,,,,,,,,,,,,,,,,,,,,,,,,,,,
1656266208.902490,18.000000,0.000000,4298.461426,4261.025879,4100.000000,4107.692383,4246.666504,0.000000,4.000000,91.000000,,,,0.000000,4.000000,4.000000,4.000000,4.000000,4.000000,100.000000,,,,,,,,,,,,,,,,,,,,,,,,,,,,,,,,,,,,,,,,,,,,,,,,,,,,,,,,,,,,,,,
1656266208.910405,19.000000,0.000000,4295.384766,4273.846191,4109.743652,4100.512695,4247.692383,0.000000,4.000000,91.000000,,,,0.000000,4.000000,4.000000,4.000000,4.000000,4.000000,100.000000,,,,,,,,,,,,,,,,,,,,,,,,,,,,,,,,,,,,,,,,,,,,,,,,,,,,,,,,,,,,,,,
1656266208.918219,20.000000,0.000000,4288.205078,4270.769043,4114.358887,4095.897461,4238.461426,0.000000,4.000000,91.000000,,,,0.000000,4.000000,4.000000,4.000000,4.000000,4.000000,100.000000,,,,,,,,,,,,,,,,,,,,,,,,,,,,,,,,,,,,,,,,,,,,,,,,,,,,,,,,,,,,,,,
1656266208.925934,21.000000,0.000000,4299.487305,4265.641113,4113.846191,4104.615234,4253.333496,0.000000,4.000000,91.000000,,,,0.000000,4.000000,4.000000,4.000000,4.000000,4.000000,100.000000,,,,,,,,,,,,,,,,,,,,,,,,,,,,,,,,,,,,,,,,,,,,,,,,,,,,,,,,,,,,,,,
1656266208.933748,22.000000,0.000000,4317.436035,4270.769043,4115.384766,4113.333496,4276.410156,0.000000,4.000000,91.000000,,,,0.000000,4.000000,4.000000,4.000000,4.000000,4.000000,100.000000,,,,,,,,,,,,,,,,,,,,,,,,,,,,,,,,,,,,,,,,,,,,,,,,,,,,,,,,,,,,,,,
1656266208.941463,23.000000,0.000000,4309.743652,4278.461426,4114.358887,4105.641113,4266.153809,0.000000,4.000000,91.000000,,,,0.000000,4.000000,4.000000,4.000000,4.000000,4.000000,100.000000,,,,,,,,,,,,,,,,,,,,,,,,,,,,,,,,,,,,,,,,,,,,,,,,,,,,,,,,,,,,,,,
1656266208.949277,24.000000,0.000000,4299.487305,4272.820313,4114.358887,4111.794922,4254.871582,0.000000,4.000000,91.000000,,,,0.000000,4.000000,4.000000,4.000000,4.000000,4.000000,100.000000,,,,,,,,,,,,,,,,,,,,,,,,,,,,,,,,,,,,,,,,,,,,,,,,,,,,,,,,,,,,,,,
1656266208.956991,25.000000,0.000000,4309.743652,4267.692383,4118.974121,4129.743652,4266.666504,0.000000,4.000000,91.000000,,,,0.000000,4.000000,4.000000,4.000000,4.000000,4.000000,100.000000,,,,,,,,,,,,,,,,,,,,,,,,,,,,,,,,,,,,,,,,,,,,,,,,,,,,,,,,,,,,,,,
1656266208.964906,26.000000,0.000000,4313.333496,4282.051270,4113.333496,4112.820313,4270.769043,0.000000,4.000000,91.000000,,,,0.000000,4.000000,4.000000,4.000000,4.000000,4.000000,100.000000,,,,,,,,,,,,,,,,,,,,,,,,,,,,,,,,,,,,,,,,,,,,,,,,,,,,,,,,,,,,,,,
1656266208.972720,27.000000,0.000000,4302.051270,4293.846191,4101.538574,4090.769287,4261.025879,0.000000,4.000000,91.000000,,,,0.000000,4.000000,4.000000,4.000000,4.000000,4.000000,100.000000,,,,,,,,,,,,,,,,,,,,,,,,,,,,,,,,,,,,,,,,,,,,,,,,,,,,,,,,,,,,,,,
1656266208.980634,28.000000,0.000000,4297.436035,4283.589844,4098.974121,4103.589844,4251.282227,0.000000,4.000000,91.000000,,,,0.000000,4.000000,4.000000,4.000000,4.000000,4.000000,100.000000,,,,,,,,,,,,,,,,,,,,,,,,,,,,,,,,,,,,,,,2.064555,0.968367,1.506036,0.496795,0.589914,0.912033,0.738200,0.764916,0.577886,0.463348,1.967991,3.668690,2.117792,0.676941,0.306299,3.044704,1.281180,2.741976,0.768348,0.636813,2.625768,1.291235,1.866943,0.711517,0.525340
1656266208.988449,29.000000,0.000000,4301.025879,4267.692383,4100.000000,4110.769043,4254.871582,0.000000,4.000000,91.000000,,,,0.000000,4.000000,4.000000,4.000000,4.000000,4.000000,100.000000,,,,,,,,,,,,,,,,,,,,,,,,,,,,,,,,,,,,,,,,,,,,,,,,,,,,,,,,,,,,,,,
1656266208.996263,30.000000,0.000000,4296.410156,4269.743652,4101.025879,4099.487305,4256.922852,0.000000,4.000000,91.000000,,,,0.000000,4.000000,4.000000,4.000000,4.000000,4.000000,100.000000,,,,,,,,,,,,,,,,,,,,,,,,,,,,,,,,,,,,,,,,,,,,,,,,,,,,,,,,,,,,,,,
1656266209.003978,31.000000,0.000000,4281.538574,4279.487305,4103.589844,4102.051270,4242.563965,0.000000,4.000000,91.000000,,,,0.000000,4.000000,4.000000,4.000000,4.000000,4.000000,100.000000,,,,,,,,,,,,,,,,,,,,,,,,,,,,,,,,,,,,,,,,,,,,,,,,,,,,,,,,,,,,,,,
1656266209.011892,32.000000,0.000000,4264.102539,4270.769043,4100.512695,4104.102539,4227.692383,0.000000,4.000000,91.000000,,,,0.000000,4.000000,4.000000,4.000000,4.000000,4.000000,100.000000,,,,,,,,,,,,,,,,,,,,,,,,,,,,,,,,,,,,,,,,,,,,,,,,,,,,,,,,,,,,,,,
1656266209.019707,33.000000,0.000000,4262.051270,4265.641113,4096.922852,4098.461426,4229.743652,0.000000,4.000000,91.000000,,,,0.000000,4.000000,4.000000,4.000000,4.000000,4.000000,100.000000,,,,,,,,,,,,,,,,,,,,,,,,,,,,,,,,,,,,,,,,,,,,,,,,,,,,,,,,,,,,,,,
1656266209.027621,34.000000,0.000000,4270.256348,4287.692383,4107.692383,4101.025879,4237.436035,0.000000,4.000000,91.000000,,,,0.000000,4.000000,4.000000,4.000000,4.000000,4.000000,100.000000,,,,,,,,,,,,,,,,,,,,,,,,,,,,,,,,,,,,,,,,,,,,,,,,,,,,,,,,,,,,,,,
1656266209.035435,35.000000,0.000000,4267.692383,4298.974121,4129.230957,4102.563965,4233.333496,0.000000,4.000000,91.000000,,,,0.000000,4.000000,4.000000,4.000000,4.000000,4.000000,100.000000,,,,,,,,,,,,,,,,,,,,,,,,,,,,,,,,,,,,,,,,,,,,,,,,,,,,,,,,,,,,,,,
1656266209.043350,36.000000,0.000000,4270.769043,4288.717773,4143.589844,4104.615234,4236.922852,0.000000,4.000000,91.000000,,,,0.000000,4.000000,4.000000,4.000000,4.000000,4.000000,100.000000,,,,,,,,,,,,,,,,,,,,,,,,,,,,,,,,,,,,,,,,,,,,,,,,,,,,,,,,,,,,,,,
1656266209.051164,37.000000,0.000000,4287.179688,4289.230957,4135.384766,4116.410156,4248.205078,0.000000,4.000000,91.000000,,,,0.000000,4.000000,4.000000,4.000000,4.000000,4.000000,100.000000,,,,,,,,,,,,,,,,,,,,,,,,,,,,,,,,,,,,,,,,,,,,,,,,,,,,,,,,,,,,,,,
1656266209.059078,38.000000,0.000000,4293.846191,4291.282227,4117.948730,4124.102539,4253.333496,0.000000,4.000000,91.000000,,,,0.000000,4.000000,4.000000,4.000000,4.000000,4.000000,100.000000,,,,,,,,,,,,,,,,,,,,,,,,,,,,,,,,,,,,,,,,,,,,,,,,,,,,,,,,,,,,,,,
1656266209.066893,39.000000,0.000000,4289.743652,4279.487305,4118.974121,4119.487305,4260.000000,0.000000,4.000000,91.000000,,,,0.000000,4.000000,4.000000,4.000000,4.000000,4.000000,100.000000,,,,,,,,,,,,,,,,,,,,,,,,,,,,,,,,,,,,,,,,,,,,,,,,,,,,,,,,,,,,,,,
1656266209.074707,40.000000,0.000000,4293.333496,4279.487305,4129.230957,4113.333496,4261.538574,0.000000,4.000000,91.000000,,,,0.000000,4.000000,4.000000,4.000000,4.000000,4.000000,100.000000,,,,,,,,,,,,,,,,,,,,,,,,,,,,,,,,,,,,,,,,,,,,,,,,,,,,,,,,,,,,,,,
1656266209.082422,41.000000,0.000000,4304.102539,4291.794922,4130.256348,4110.256348,4253.846191,0.000000,4.000000,91.000000,,,,0.000000,4.000000,4.000000,4.000000,4.000000,4.000000,100.000000,,,,,,,,,,,,,,,,,,,,,,,,,,,,,,,,,,,,,,,,,,,,,,,,,,,,,,,,,,,,,,,
1656266209.090336,42.000000,0.000000,4306.153809,4293.846191,4125.641113,4106.153809,4251.282227,0.000000,4.000000,91.000000,,,,0.000000,4.000000,4.000000,4.000000,4.000000,4.000000,100.000000,,,,,,,,,,,,,,,,,,,,,,,,,,,,,,,,,,,,,,,,,,,,,,,,,,,,,,,,,,,,,,,
1656266209.098150,43.000000,0.000000,4301.025879,4286.666504,4117.948730,4107.179688,4254.871582,0.000000,4.000000,91.000000,,,,0.000000,4.000000,4.000000,4.000000,4.000000,4.000000,100.000000,,,,,,,,,,,,,,,,,,,,,,,,,,,,,,,,,,,,,,,,,,,,,,,,,,,,,,,,,,,,,,,
1656266209.106065,44.000000,0.000000,4301.025879,4287.179688,4111.282227,4113.846191,4253.846191,0.000000,4.000000,91.000000,,,,0.000000,4.000000,4.000000,4.000000,4.000000,4.000000,100.000000,1.000000,83.333336,4.000000,4.000000,2.000000,4.000000,4.000000,,,,,,,,,,,,,,,,,,,,,,,,,,,,,,,,2.264547,1.080155,1.446519,0.446863,0.635732,0.764184,0.702508,0.613827,0.600956,0.469781,1.965666,3.932898,1.911870,0.627282,0.313836,3.467935,1.407168,2.098670,0.748992,0.664889,3.071925,1.618375,1.867989,0.678841,0.557647
1656266209.113879,45.000000,0.000000,4297.948730,4292.307617,4112.820313,4113.333496,4256.922852,0.000000,4.000000,91.000000,,,,0.000000,4.000000,4.000000,4.000000,4.000000,4.000000,100.000000,,,,,,,,,,,,,,,,,,,,,,,,,,,,,,,,,,,,,,,,,,,,,,,,,,,,,,,,,,,,,,,
1656266209.121693,46.000000,0.000000,4285.641113,4284.615234,4112.307617,4105.641113,4257.948730,0.000000,4.000000,91.000000,,,,0.000000,4.000000,4.000000,4.000000,4.000000,4.000000,100.000000,,,,,,,,,,,,,,,,,,,,,,,,,,,,,,,,,,,,,,,,,,,,,,,,,,,,,,,,,,,,,,,
1656266209.129508,47.000000,0.000000,4277.948730,4276.410156,4101.538574,4103.589844,4242.563965,0.000000,4.000000,91.000000,,,,0.000000,4.000000,4.000000,4.000000,4.000000,4.000000,100.000000,,,,,,,,,,,,,,,,,,,,,,,,,,,,,,,,,,,,,,,,,,,,,,,,,,,,,,,,,,,,,,,
1656266209.137222,48.000000,0.000000,4289.230957,4283.589844,4102.563965,4111.282227,4241.025879,0.000000,4.000000,91.000000,,,,0.000000,4.000000,4.000000,4.000000,4.000000,4.000000,100.000000,,,,,,,,,,,,,,,,,,,,,,,,,,,,,,,,,,,,,,,,,,,,,,,,,,,,,,,,,,,,,,,
1656266209.145037,49.000000,0.000000,4307.692383,4292.307617,4120.512695,4119.487305,4263.077148,0.000000,4.000000,91.000000,,,,0.000000,4.000000,4.000000,4.000000,4.000000,4.000000,100.000000,,,,,,,,,,,,,,,,,,,,,,,,,,,,,,,,,,,,,,,,,,,,,,,,,,,,,,,,,,,,,,,
1656266209.152751,50.000000,0.000000,4307.692383,4288.205078,4121.025879,4120.000000,4269.230957,0.000000,4.000000,91.000000,,,,0.000000,4.000000,4.000000,4.000000,4.000000,4.000000,100.000000,,,,,,,,,,,,,,,,,,,,,,,,,,,,,,,,,,,,,,,,,,,,,,,,,,,,,,,,,,,,,,,
1656266209.160666,51.000000,0.000000,4297.948730,4286.153809,4112.820313,4107.692383,4258.461426,0.000000,4.000000,91.000000,,,,0.000000,4.000000,4.000000,4.000000,4.000000,4.000000,100.000000,,,,,,,,,,,,,,,,,,,,,,,,,,,,,,,,,,,,,,,,,,,,,,,,,,,,,,,,,,,,,,,
1656266209.168480,52.000000,0.000000,4293.333496,4280.512695,4124.615234,4090.769287,4246.153809,0.000000,4.000000,91.000000,,,,0.000000,4.000000,4.000000,4.000000,4.000000,4.000000,100.000000,,,,,,,,,,,,,,,,,,,,,,,,,,,,,,,,,,,,,,,,,,,,,,,,,,,,,,,,,,,,,,,
1656266209.176394,53.000000,0.000000,4293.846191,4264.102539,4127.692383,4091.281982,4243.077148,0.000000,4.000000,91.000000,,,,0.000000,4.000000,4.000000,4.000000,4.000000,4.000000,100.000000,,,,,,,,,,,,,,,,,,,,,,,,,,,,,,,,,,,,,,,,,,,,,,,,,,,,,,,,,,,,,,,
1656266209.184209,54.000000,0.000000,4304.615234,4258.461426,4107.692383,4104.615234,4257.948730,0.000000,4.000000,91.000000,,,,0.000000,4.000000,4.000000,4.000000,4.000000,4.000000,100.000000,,,,,,,,,,,,,,,,,,,,,,,,,,,,,,,,,,,,,,,,,,,,,,,,,,,,,,,,,,,,,,,
1656266209.192123,55.000000,0.000000,4318.974121,4265.128418,4101.538574,4105.641113,4273.333496,0.000000,4.000000,91.000000,,,,0.000000,4.000000,4.000000,4.000000,4.000000,4.000000,100.000000,,,,,,,,,,,,,,,,,,,,,,,,,,,,,,,,,,,,,,,,,,,,,,,,,,,,,,,,,,,,,,,
1656266209.199937,56.000000,0.000000,4323.077148,4271.282227,4116.922852,4100.512695,4270.256348,0.000000,4.000000,91.000000,,,,0.000000,4.000000,4.000000,4.000000,4.000000,4.000000,100.000000,,,,,,,,,,,,,,,,,,,,,,,,,,,,,,,,,,,,,,,,,,,,,,,,,,,,,,,,,,,,,,,
1656266209.207852,57.000000,0.000000,4324.102539,4274.358887,4121.025879,4104.615234,4259.487305,0.000000,4.000000,91.000000,,,,0.000000,4.000000,4.000000,4.000000,4.000000,4.000000,100.000000,,,,,,,,,,,,,,,,,,,,,,,,,,,,,,,,,,,,,,,,,,,,,,,,,,,,,,,,,,,,,,,
1656266209.215666,58.000000,0.000000,4321.538574,4273.333496,4107.179688,4102.051270,4252.820313,0.000000,4.000000,91.000000,,,,0.000000,4.000000,4.000000,4.000000,4.000000,4.000000,100.000000,,,,,,,,,,,,,,,,,,,,,,,,,,,,,,,,,,,,,,,,,,,,,,,,,,,,,,,,,,,,,,,
1656266209.223580,59.000000,0.000000,4311.282227,4266.666504,4100.000000,4090.769287,4256.410156,0.000000,4.000000,91.000000,,,,0.000000,4.000000,4.000000,4.000000,4.000000,4.000000,100.000000,,,,,,,,,,,,,,,,,,,,,,,,,,,,,,,,,,,,,,,,,,,,,,,,,,,,,,,,,,,,,,,
1656266209.231395,60.000000,0.000000,4307.692383,4262.563965,4102.051270,4086.153809,4265.128418,0.000000,4.000000,91.000000,,,,0.000000,4.000000,4.000000,4.000000,4.000000,4.000000,100.000000,,,,,,,,,,,,,,,,,,,,,,,,,,,,,,,,,,,,,,,2.576963,1.302169,1.414373,0.389861,0.670682,0.674483,0.692287,0.512877,0.593246,0.473872,1.919044,4.169815,1.789961,0.590905,0.315972,3.699255,1.553010,1.533297,0.730792,0.679511,3.467334,1.903856,1.843383,0.651439,0.605918
1656266209.239209,61.000000,0.000000,4306.153809,4256.922852,4092.820557,4074.358887,4255.897461,0.000000,4.000000,91.000000,,,,0.000000,4.000000,4.000000,4.000000,4.000000,4.000000,100.000000,,,,,,,,,,,,,,,,,,,,,,,,,,,,,,,,,,,,,,,,,,,,,,,,,,,,,,,,,,,,,,,
1656266209.246924,62.000000,0.000000,4295.384766,4247.692383,4080.512939,4052.307617,4227.179688,0.000000,4.000000,91.000000,,,,0.000000,4.000000,4.000000,4.000000,4.000000,4.000000,100.000000,,,,,,,,,,,,,,,,,,,,,,,,,,,,,,,,,,,,,,,,,,,,,,,,,,,,,,,,,,,,,,,
1656266209.254838,63.000000,0.000000,4293.846191,4249.743652,4088.205078,4061.538574,4213.846191,0.000000,4.000000,91.000000,,,,0.000000,4.000000,4.000000,4.000000,4.000000,4.000000,100.000000,,,,,,,,,,,,,,,,,,,,,,,,,,,,,,,,,,,,,,,,,,,,,,,,,,,,,,,,,,,,,,,
1656266209.262652,64.000000,0.000000,4296.410156,4260.000000,4100.000000,4094.871826,4231.794922,450.000000,4.000000,91.000000,,,,0.000000,4.000000,4.000000,4.000000,4.000000,4.000000,100.000000,,,,,,,,,,,,,,,,,,,,,,,,,,,,,,,,,,,,,,,,,,,,,,,,,,,,,,,,,,,,,,,
1656266209.270567,65.000000,0.000000,4290.256348,4257.436035,4096.922852,4096.922852,4243.077148,450.000000,4.000000,91.000000,,,,0.000000,4.000000,4.000000,4.000000,4.000000,4.000000,100.000000,,,,,,,,,,,,,,,,,,,,,,,,,,,,,,,,,,,,,,,,,,,,,,,,,,,,,,,,,,,,,,,
1656266209.278381,66.000000,0.000000,4297.948730,4245.641113,4088.718018,4080.000000,4241.025879,16083.000000,4.000000,91.000000,,,,0.000000,4.000000,4.000000,4.000000,4.000000,4.000000,100.000000,,,,,,,,,,,,,,,,,,,,,,,,,,,,,,,,,,,,,,,,,,,,,,,,,,,,,,,,,,,,,,,
1656266209.286096,67.000000,0.000000,4311.794922,4246.666504,4082.564209,4081.025635,4247.692383,450.000000,4.000000,91.000000,,,,0.000000,4.000000,2.000000,4.000000,4.000000,4.000000,83.333336,,,,,,,,,,,,,,,,,,,,,,,,,,,,,,,,,,,,,,,,,,,,,,,,,,,,,,,,,,,,,,,
1656266209.293910,68.000000,0.000000,4304.615234,4246.666504,4084.615479,4082.564209,4237.948730,296.000000,4.000000,91.000000,,,,0.000000,4.000000,2.000000,4.000000,4.000000,4.000000,83.333336,,,,,,,,,,,,,,,,,,,,,,,,,,,,,,,,,,,,,,,,,,,,,,,,,,,,,,,,,,,,,,,
1656266209.301625,69.000000,0.000000,4291.794922,4238.974121,4100.512695,4080.512939,4216.922852,450.000000,4.000000,91.000000,,,,0.000000,4.000000,2.000000,4.000000,4.000000,4.000000,83.333336,,,,,,,,,,,,,,,,,,,,,,,,,,,,,,,,,,,,,,,,,,,,,,,,,,,,,,,,,,,,,,,
1656266209.309539,70.000000,0.000000,4300.512695,4251.282227,4111.282227,4095.384521,4226.666504,16113.000000,4.000000,91.000000,,,,0.000000,4.000000,2.000000,4.000000,4.000000,4.000000,83.333336,,,,,,,,,,,,,,,,,,,,,,,,,,,,,,,,,,,,,,,,,,,,,,,,,,,,,,,,,,,,,,,
1656266209.317353,71.000000,0.000000,4310.769043,4264.615234,4105.641113,4103.589844,4251.282227,450.000000,4.000000,91.000000,,,,0.000000,4.000000,2.000000,4.000000,4.000000,4.000000,83.333336,,,,,,,,,,,,,,,,,,,,,,,,,,,,,,,,,,,,,,,,,,,,,,,,,,,,,,,,,,,,,,,
1656266209.325268,72.000000,0.000000,4299.487305,4257.436035,4099.487305,4094.358887,4251.794922,450.000000,4.000000,91.000000,,,,0.000000,4.000000,2.000000,4.000000,4.000000,4.000000,83.333336,,,,,,,,,,,,,,,,,,,,,,,,,,,,,,,,,,,,,,,,,,,,,,,,,,,,,,,,,,,,,,,
1656266209.333082,73.000000,0.000000,4287.179688,4253.846191,4095.897461,4095.897461,4240.000000,282.000000,4.000000,91.000000,,,,0.000000,4.000000,2.000000,4.000000,4.000000,4.000000,83.333336,,,,,,,,,,,,,,,,,,,,,,,,,,,,,,,,,,,,,,,,,,,,,,,,,,,,,,,,,,,,,,,
1656266209.340996,74.000000,0.000000,4287.692383,4255.897461,4086.666748,4098.974121,4230.769043,450.000000,4.000000,91.000000,,,,0.000000,4.000000,2.000000,4.000000,4.000000,4.000000,83.333336,,,,,,,,,,,,,,,,,,,,,,,,,,,,,,,,,,,,,,,,,,,,,,,,,,,,,,,,,,,,,,,
1656266209.348811,75.000000,0.000000,4288.717773,4255.897461,4077.435791,4094.358887,4233.846191,16334.000000,4.000000,91.000000,,,,0.000000,4.000000,2.000000,4.000000,4.000000,4.000000,83.333336,,,,,,,,,,,,,,,,,,,,,,,,,,,,,,,,,,,,,,,,,,,,,,,,,,,,,,,,,,,,,,,
1656266209.356625,76.000000,0.000000,4287.692383,4262.051270,4084.102539,4094.871826,4241.538574,450.000000,4.000000,91.000000,,,,0.000000,4.000000,2.000000,4.000000,4.000000,4.000000,83.333336,,,,,,,,,,,,,,,,,,,,,,,,,,,,,,,,,,,,,,,3.060140,1.562842,1.322008,0.335240,0.686978,0.654342,0.695210,0.465818,0.562893,0.477322,1.881802,4.271125,1.749728,0.600346,0.313361,3.678057,1.748470,1.112547,0.724543,0.671499,3.796423,2.127842,1.756178,0.614719,0.648778
1656266209.364340,77.000000,0.000000,4295.384766,4257.436035,4095.384521,4096.922852,4231.794922,450.000000,4.000000,91.000000,,,,0.000000,4.000000,2.000000,4.000000,4.000000,4.000000,83.333336,,,,,,,,,,,,,,,,,,,,,,,,,,,,,,,,,,,,,,,,,,,,,,,,,,,,,,,,,,,,,,,
1656266209.372154,78.000000,0.000000,4304.102539,4247.179688,4093.846191,4097.948730,4228.205078,450.000000,4.000000,91.000000,,,,0.000000,4.000000,2.000000,4.000000,4.000000,4.000000,83.333336,,,,,,,,,,,,,,,,,,,,,,,,,,,,,,,,,,,,,,,,,,,,,,,,,,,,,,,,,,,,,,,
1656266209.379869,79.000000,0.000000,4298.461426,4252.307617,4089.743652,4096.410156,4241.538574,16334.000000,4.000000,91.000000,,,,0.000000,4.000000,2.000000,4.000000,4.000000,4.000000,83.333336,,,,,,,,,,,,,,,,,,,,,,,,,,,,,,,,,,,,,,,,,,,,,,,,,,,,,,,,,,,,,,,
1656266209.387783,80.000000,0.000000,4292.307617,4260.512695,4096.922852,4094.358887,4250.256348,450.000000,4.000000,91.000000,,,,0.000000,4.000000,2.000000,4.000000,4.000000,4.000000,83.333336,,,,,,,,,,,,,,,,,,,,,,,,,,,,,,,,,,,,,,,,,,,,,,,,,,,,,,,,,,,,,,,
1656266209.395597,81.000000,0.000000,4300.512695,4257.948730,4105.641113,4095.897461,4253.333496,450.000000,4.000000,91.000000,,,,0.000000,4.000000,2.000000,4.000000,4.000000,4.000000,83.333336,,,,,,,,,,,,,,,,,,,,,,,,,,,,,,,,,,,,,,,,,,,,,,,,,,,,,,,,,,,,,,,
1656266209.403412,82.000000,0.000000,4306.666504,4256.410156,4110.769043,4093.846191,4244.102539,450.000000,4.000000,91.000000,,,,0.000000,4.000000,2.000000,4.000000,4.000000,4.000000,83.333336,,,,,,,,,,,,,,,,,,,,,,,,,,,,,,,,,,,,,,,,,,,,,,,,,,,,,,,,,,,,,,,
1656266209.411126,83.000000,0.000000,4301.538574,4267.692383,4114.358887,4093.333252,4234.358887,16334.000000,4.000000,91.000000,,,,0.000000,4.000000,2.000000,4.000000,4.000000,4.000000,83.333336,,,,,,,,,,,,,,,,,,,,,,,,,,,,,,,,,,,,,,,,,,,,,,,,,,,,,,,,,,,,,,,
1656266209.418941,84.000000,0.000000,4300.512695,4275.384766,4109.743652,4104.615234,4243.589844,450.000000,4.000000,91.000000,,,,0.000000,4.000000,2.000000,4.000000,4.000000,4.000000,83.333336,,,,,,,,,,,,,,,,,,,,,,,,,,,,,,,,,,,,,,,,,,,,,,,,,,,,,,,,,,,,,,,
1656266209.426655,85.000000,0.000000,4313.333496,4267.692383,4101.025879,4111.794922,4257.436035,450.000000,4.000000,91.000000,,,,0.000000,4.000000,2.000000,4.000000,4.000000,4.000000,83.333336,,,,,,,,,,,,,,,,,,,,,,,,,,,,,,,,,,,,,,,,,,,,,,,,,,,,,,,,,,,,,,,
1656266209.434470,86.000000,0.000000,4319.487305,4265.641113,4104.102539,4109.230957,4262.051270,450.000000,4.000000,91.000000,,,,0.000000,4.000000,2.000000,4.000000,4.000000,4.000000,83.333336,,,,,,,,,,,,,,,,,,,,,,,,,,,,,,,,,,,,,,,,,,,,,,,,,,,,,,,,,,,,,,,
1656266209.442184,87.000000,0.000000,4308.717773,4272.820313,4114.871582,4114.358887,4262.563965,16334.000000,4.000000,91.000000,,,,0.000000,4.000000,2.000000,4.000000,4.000000,4.000000,83.333336,,,,,,,,,,,,,,,,,,,,,,,,,,,,,,,,,,,,,,,,,,,,,,,,,,,,,,,,,,,,,,,
1656266209.450098,88.000000,0.000000,4301.538574,4268.205078,4108.205078,4117.948730,4254.871582,450.000000,4.000000,91.000000,,,,0.000000,4.000000,2.000000,4.000000,4.000000,4.000000,83.333336,,,,,,,,,,,,,,,,,,,,,,,,,,,,,,,,,,,,,,,,,,,,,,,,,,,,,,,,,,,,,,,
1656266209.457913,89.000000,0.000000,4302.051270,4264.102539,4094.358887,4107.179688,4238.974121,450.000000,4.000000,91.000000,,,,0.000000,4.000000,2.000000,4.000000,4.000000,4.000000,83.333336,,,,,,,,,,,,,,,,,,,,,,,,,,,,,,,,,,,,,,,,,,,,,,,,,,,,,,,,,,,,,,,
1656266209.465827,90.000000,0.000000,4302.051270,4268.717773,4091.281982,4101.025879,4238.974121,450.000000,4.000000,91.000000,,,,0.000000,4.000000,2.000000,4.000000,4.000000,4.000000,83.333336,,,,,,,,,,,,,,,,,,,,,,,,,,,,,,,,,,,,,,,,,,,,,,,,,,,,,,,,,,,,,,,
1656266209.473741,91.000000,0.000000,4308.205078,4268.205078,4082.564209,4105.128418,4248.717773,16334.000000,4.000000,91.000000,,,,0.000000,4.000000,2.000000,4.000000,4.000000,4.000000,83.333336,,,,,,,,,,,,,,,,,,,,,,,,,,,,,,,,,,,,,,,,,,,,,,,,,,,,,,,,,,,,,,,
1656266209.481556,92.000000,0.000000,4310.256348,4262.051270,4071.794922,4107.179688,4243.077148,450.000000,4.000000,91.000000,,,,0.000000,4.000000,2.000000,4.000000,4.000000,4.000000,83.333336,,,,,,,,,,,,,,,,,,,,,,,,,,,,,,,,,,,,,,,3.746453,1.829967,1.151282,0.304219,0.679314,0.692102,0.693119,0.457770,0.534608,0.481402,1.917701,4.177988,1.735270,0.670420,0.310267,3.448597,1.971367,0.857446,0.735497,0.642319,4.103147,2.278433,1.585498,0.576839,0.671303
1656266209.489370,93.000000,0.000000,4297.436035,4257.948730,4074.871826,4104.102539,4232.307617,450.000000,4.000000,91.000000,,,,0.000000,4.000000,2.000000,4.000000,4.000000,4.000000,83.333336,,,,,,,,,,,,,,,,,,,,,,,,,,,,,,,,,,,,,,,,,,,,,,,,,,,,,,,,,,,,,,,
1656266209.497085,94.000000,0.000000,4288.717773,4256.922852,4084.615479,4102.563965,4238.461426,450.000000,4.000000,91.000000,,,,0.000000,4.000000,2.000000,4.000000,4.000000,4.000000,83.333336,,,,,,,,,,,,,,,,,,,,,,,,,,,,,,,,,,,,,,,,,,,,,,,,,,,,,,,,,,,,,,,
1656266209.504899,95.000000,0.000000,4294.358887,4262.563965,4091.794922,4104.615234,4248.205078,16334.000000,4.000000,91.000000,,,,0.000000,4.000000,2.000000,4.000000,4.000000,4.000000,83.333336,,,,,,,,,,,,,,,,,,,,,,,,,,,,,,,,,,,,,,,,,,,,,,,,,,,,,,,,,,,,,,,
1656266209.512614,96.000000,0.000000,4288.717773,4263.589844,4101.538574,4106.153809,4241.025879,450.000000,4.000000,91.000000,,,,0.000000,4.000000,2.000000,4.000000,4.000000,4.000000,83.333336,,,,,,,,,,,,,,,,,,,,,,,,,,,,,,,,,,,,,,,,,,,,,,,,,,,,,,,,,,,,,,,
1656266209.520428,97.000000,0.000000,4274.871582,4252.307617,4108.205078,4109.230957,4227.692383,450.000000,4.000000,91.000000,,,,0.000000,4.000000,2.000000,4.000000,4.000000,4.000000,83.333336,,,,,,,,,,,,,,,,,,,,,,,,,,,,,,,,,,,,,,,,,,,,,,,,,,,,,,,,,,,,,,,
1656266209.528143,98.000000,0.000000,4278.974121,4253.846191,4107.179688,4108.205078,4220.512695,450.000000,4.000000,91.000000,,,,0.000000,4.000000,2.000000,4.000000,4.000000,4.000000,83.333336,,,,,,,,,,,,,,,,,,,,,,,,,,,,,,,,,,,,,,,,,,,,,,,,,,,,,,,,,,,,,,,
1656266209.535957,99.000000,0.000000,4292.307617,4262.563965,4098.461426,4104.102539,4223.077148,16334.000000,4.000000,91.000000,,,,0.000000,4.000000,2.000000,4.000000,4.000000,4.000000,83.333336,,,,,,,,,,,,,,,,,,,,,,,,,,,,,,,,,,,,,,,,,,,,,,,,,,,,,,,,,,,,,,,
1656266209.543671,100.000000,0.000000,4295.897461,4257.948730,4085.641113,4104.102539,4233.846191,450.000000,4.000000,91.000000,,,,0.000000,4.000000,2.000000,4.000000,4.000000,4.000000,83.333336,,,,,,,,,,,,,,,,,,,,,,,,,,,,,,,,,,,,,,,,,,,,,,,,,,,,,,,,,,,,,,,
1656266209.551486,101.000000,0.000000,4293.333496,4259.487305,4088.205078,4101.025879,4236.410156,450.000000,4.000000,91.000000,,,,0.000000,4.000000,2.000000,4.000000,4.000000,4.000000,83.333336,,,,,,,,,,,,,,,,,,,,,,,,,,,,,,,,,,,,,,,,,,,,,,,,,,,,,,,,,,,,,,,
1656266209.559200,102.000000,0.000000,4291.794922,4268.717773,4097.948730,4096.410156,4234.358887,450.000000,4.000000,91.000000,,,,0.000000,4.000000,2.000000,4.000000,4.000000,4.000000,83.333336,,,,,,,,,,,,,,,,,,,,,,,,,,,,,,,,,,,,,,,,,,,,,,,,,,,,,,,,,,,,,,,
1656266209.567015,103.000000,0.000000,4298.974121,4266.666504,4093.846191,4103.589844,4241.538574,16334.000000,4.000000,91.000000,,,,0.000000,4.000000,2.000000,4.000000,4.000000,4.000000,83.333336,,,,,,,,,,,,,,,,,,,,,,,,,,,,,,,,,,,,,,,,,,,,,,,,,,,,,,,,,,,,,,,
1656266209.574729,104.000000,0.000000,4293.846191,4260.000000,4088.718018,4113.333496,4237.436035,450.000000,4.000000,91.000000,,,,0.000000,4.000000,2.000000,4.000000,4.000000,4.000000,83.333336,,,,,,,,,,,,,,,,,,,,,,,,,,,,,,,,,,,,,,,,,,,,,,,,,,,,,,,,,,,,,,,
1656266209.582544,105.000000,0.000000,4277.436035,4262.563965,4095.897461,4107.179688,4222.563965,450.000000,4.000000,91.000000,,,,0.000000,4.000000,2.000000,4.000000,4.000000,4.000000,83.333336,,,,,,,,,,,,,,,,,,,,,,,,,,,,,,,,,,,,,,,,,,,,,,,,,,,,,,,,,,,,,,,
1656266209.590258,106.000000,0.000000,4290.769043,4265.641113,4101.025879,4105.128418,4230.256348,450.000000,4.000000,91.000000,,,,0.000000,4.000000,2.000000,4.000000,4.000000,4.000000,83.333336,,,,,,,,,,,,,,,,,,,,,,,,,,,,,,,,,,,,,,,,,,,,,,,,,,,,,,,,,,,,,,,
1656266209.598172,107.000000,0.000000,4311.794922,4267.692383,4097.436035,4111.282227,4250.256348,16334.000000,4.000000,91.000000,,,,0.000000,4.000000,2.000000,4.000000,4.000000,4.000000,83.333336,,,,,,,,,,,,,,,,,,,,,,,,,,,,,,,,,,,,,,,,,,,,,,,,,,,,,,,,,,,,,,,
1656266209.605987,108.000000,0.000000,4304.102539,4275.897461,4094.871826,4105.128418,4254.358887,450.000000,4.000000,91.000000,,,,0.000000,4.000000,2.000000,4.000000,4.000000,4.000000,83.333336,1.000000,66.666664,4.000000,2.000000,2.000000,4.000000,4.000000,,,,,,,,,,,,,,,,,,,,,,,,,,,,,,,,4.596107,2.100362,0.951032,0.311820,0.645421,0.776957,0.675048,0.469190,0.531899,0.484065,2.044308,3.947155,1.669714,0.789846,0.311091,3.128862,2.165795,0.758687,0.769084,0.599383,4.440384,2.370732,1.358692,0.566964,0.669289
1656266209.613901,109.000000,0.000000,4292.307617,4271.794922,4090.769287,4097.948730,4238.974121,450.000000,4.000000,91.000000,,,,0.000000,4.000000,2.000000,4.000000,4.000000,4.000000,83.333336,,,,,,,,,,,,,,,,,,,,,,,,,,,,,,,,,,,,,,,,,,,,,,,,,,,,,,,,,,,,,,,
1656266209.621716,110.000000,0.000000,4287.179688,4261.025879,4090.769287,4106.666504,4219.487305,450.000000,4.000000,91.000000,,,,0.000000,4.000000,2.000000,4.000000,4.000000,4.000000,83.333336,,,,,,,,,,,,,,,,,,,,,,,,,,,,,,,,,,,,,,,,,,,,,,,,,,,,,,,,,,,,,,,
1656266209.629630,111.000000,0.000000,4284.102539,4261.025879,4098.974121,4120.000000,4222.051270,16334.000000,4.000000,91.000000,,,,0.000000,4.000000,2.000000,4.000000,4.000000,4.000000,83.333336,,,,,,,,,,,,,,,,,,,,,,,,,,,,,,,,,,,,,,,,,,,,,,,,,,,,,,,,,,,,,,,
1656266209.637444,112.000000,0.000000,4288.205078,4266.666504,4101.025879,4119.487305,4242.051270,450.000000,4.000000,91.000000,,,,0.000000,4.000000,2.000000,4.000000,4.000000,4.000000,83.333336,,,,,,,,,,,,,,,,,,,,,,,,,,,,,,,,,,,,,,,,,,,,,,,,,,,,,,,,,,,,,,,
1656266209.645359,113.000000,0.000000,4285.128418,4271.794922,4092.307617,4102.563965,4241.025879,450.000000,4.000000,91.000000,,,,0.000000,4.000000,2.000000,4.000000,4.000000,4.000000,83.333336,,,,,,,,,,,,,,,,,,,,,,,,,,,,,,,,,,,,,,,,,,,,,,,,,,,,,,,,,,,,,,,
1656266209.653173,114.000000,0.000000,4267.179688,4271.282227,4081.025635,4085.128174,4217.436035,450.000000,4.000000,91.000000,,,,0.000000,4.000000,2.000000,4.000000,4.000000,4.000000,83.333336,,,,,,,,,,,,,,,,,,,,,,,,,,,,,,,,,,,,,,,,,,,,,,,,,,,,,,,,,,,,,,,
1656266209.661087,115.000000,0.000000,4260.512695,4264.102539,4076.410156,4087.179443,4208.205078,16334.000000,4.000000,91.000000,,,,0.000000,4.000000,2.000000,4.000000,4.000000,4.000000,83.333336,,,,,,,,,,,,,,,,,,,,,,,,,,,,,,,,,,,,,,,,,,,,,,,,,,,,,,,,,,,,,,,
1656266209.668902,116.000000,0.000000,4263.589844,4257.436035,4083.589844,4098.461426,4223.077148,450.000000,4.000000,91.000000,,,,0.000000,4.000000,2.000000,4.000000,4.000000,4.000000,83.333336,,,,,,,,,,,,,,,,,,,,,,,,,,,,,,,,,,,,,,,,,,,,,,,,,,,,,,,,,,,,,,,
1656266209.676616,117.000000,0.000000,4263.589844,4251.794922,4092.820557,4097.948730,4236.922852,450.000000,4.000000,91.000000,,,,0.000000,4.000000,2.000000,4.000000,4.000000,4.000000,83.333336,,,,,,,,,,,,,,,,,,,,,,,,,,,,,,,,,,,,,,,,,,,,,,,,,,,,,,,,,,,,,,,
1656266209.684431,118.000000,0.000000,4274.871582,4250.256348,4091.281982,4089.230713,4240.512695,450.000000,4.000000,91.000000,,,,0.000000,4.000000,2.000000,4.000000,4.000000,4.000000,83.333336,,,,,,,,,,,,,,,,,,,,,,,,,,,,,,,,,,,,,,,,,,,,,,,,,,,,,,,,,,,,,,,
1656266209.692145,119.000000,0.000000,4296.410156,4264.102539,4085.128174,4086.666748,4244.615234,16334.000000,4.000000,91.000000,,,,0.000000,4.000000,2.000000,4.000000,4.000000,4.000000,83.333336,,,,,,,,,,,,,,,,,,,,,,,,,,,,,,,,,,,,,,,,,,,,,,,,,,,,,,,,,,,,,,,
1656266209.699960,120.000000,0.000000,4303.589844,4268.205078,4077.435791,4087.179443,4245.641113,450.000000,4.000000,91.000000,,,,0.000000,4.000000,2.000000,4.000000,4.000000,4.000000,83.333336,,,,,,,,,,,,,,,,,,,,,,,,,,,,,,,,,,,,,,,,,,,,,,,,,,,,,,,,,,,,,,,
1656266209.707674,121.000000,0.000000,4290.769043,4252.820313,4077.948730,4083.589844,4244.102539,450.000000,4.000000,91.000000,,,,0.000000,4.000000,2.000000,4.000000,4.000000,4.000000,83.333336,,,,,,,,,,,,,,,,,,,,,,,,,,,,,,,,,,,,,,,,,,,,,,,,,,,,,,,,,,,,,,,
1656266209.715488,122.000000,0.000000,4288.717773,4262.051270,4088.205078,4087.179443,4247.692383,450.000000,4.000000,91.000000,,,,0.000000,4.000000,2.000000,4.000000,4.000000,4.000000,83.333336,,,,,,,,,,,,,,,,,,,,,,,,,,,,,,,,,,,,,,,,,,,,,,,,,,,,,,,,,,,,,,,
1656266209.723203,123.000000,0.000000,4301.538574,4281.025879,4088.205078,4095.384521,4244.102539,16334.000000,4.000000,91.000000,,,,0.000000,4.000000,2.000000,4.000000,4.000000,4.000000,83.333336,,,,,,,,,,,,,,,,,,,,,,,,,,,,,,,,,,,,,,,,,,,,,,,,,,,,,,,,,,,,,,,
1656266209.731017,124.000000,0.000000,4310.769043,4274.358887,4084.102539,4098.461426,4244.615234,450.000000,4.000000,91.000000,,,,0.000000,4.000000,2.000000,4.000000,4.000000,4.000000,83.333336,,,,,,,,,,,,,,,,,,,,,,,,,,,,,,,,,,,,,,,5.435553,2.362703,0.778703,0.358839,0.589034,0.863046,0.648642,0.478742,0.561119,0.479509,2.243531,3.732640,1.521624,0.925241,0.317279,2.834272,2.261057,0.799049,0.822460,0.550426,4.775280,2.402857,1.113437,0.625170,0.650321
1656266209.738732,125.000000,0.000000,4315.384766,4274.358887,4096.922852,4107.692383,4254.358887,450.000000,4.000000,91.000000,,,,0.000000,4.000000,2.000000,4.000000,4.000000,4.000000,83.333336,,,,,,,,,,,,,,,,,,,,,,,,,,,,,,,,,,,,,,,,,,,,,,,,,,,,,,,,,,,,,,,
1656266209.746646,126.000000,0.000000,4306.153809,4286.153809,4109.743652,4115.897461,4240.000000,450.000000,4.000000,91.000000,,,,0.000000,4.000000,2.000000,4.000000,4.000000,4.000000,83.333336,,,,,,,,,,,,,,,,,,,,,,,,,,,,,,,,,,,,,,,,,,,,,,,,,,,,,,,,,,,,,,,
1656266209.754461,127.000000,0.000000,4284.102539,4276.922852,4102.563965,4103.589844,4223.077148,242.000000,4.000000,91.000000,,,,0.000000,4.000000,2.000000,4.000000,4.000000,4.000000,83.333336,,,,,,,,,,,,,,,,,,,,,,,,,,,,,,,,,,,,,,,,,,,,,,,,,,,,,,,,,,,,,,,
1656266209.762275,0.000000,0.000000,4271.794922,4261.025879,4085.641113,4084.102539,4228.717773,450.000000,4.000000,91.000000,,,,0.000000,4.000000,2.000000,4.000000,4.000000,4.000000,83.333336,,,,,,,,,,,,,,,,,,,,,,,,,,,,,,,,,,,,,,,,,,,,,,,,,,,,,,,,,,,,,,,
1656266209.769990,1.000000,0.000000,4281.538574,4262.051270,4066.153809,4082.051270,4221.538574,450.000000,4.000000,91.000000,,,,0.000000,4.000000,2.000000,4.000000,4.000000,4.000000,83.333336,,,,,,,,,,,,,,,,,,,,,,,,,,,,,,,,,,,,,,,,,,,,,,,,,,,,,,,,,,,,,,,
1656266209.777904,2.000000,0.000000,4284.102539,4265.641113,4053.333252,4090.256348,4205.128418,16222.000000,4.000000,91.000000,,,,0.000000,4.000000,2.000000,4.000000,4.000000,4.000000,83.333336,,,,,,,,,,,,,,,,,,,,,,,,,,,,,,,,,,,,,,,,,,,,,,,,,,,,,,,,,,,,,,,
1656266209.785718,3.000000,0.000000,4280.000000,4260.512695,4062.564209,4098.974121,4218.461426,450.000000,4.000000,91.000000,,,,0.000000,4.000000,2.000000,4.000000,4.000000,4.000000,83.333336,,,,,,,,,,,,,,,,,,,,,,,,,,,,,,,,,,,,,,,,,,,,,,,,,,,,,,,,,,,,,,,
1656266209.793633,4.000000,0.000000,4292.820313,4261.025879,4084.615479,4106.666504,4249.743652,16247.000000,4.000000,91.000000,,,,0.000000,4.000000,4.000000,4.000000,4.000000,4.000000,100.000000,,,,,,,,,,,,,,,,,,,,,,,,,,,,,,,,,,,,,,,,,,,,,,,,,,,,,,,,,,,,,,,
1656266209.801447,5.000000,0.000000,4304.615234,4267.179688,4096.922852,4109.230957,4262.051270,450.000000,4.000000,91.000000,,,,0.000000,4.000000,4.000000,4.000000,4.000000,4.000000,100.000000,,,,,,,,,,,,,,,,,,,,,,,,,,,,,,,,,,,,,,,,,,,,,,,,,,,,,,,,,,,,,,,
1656266209.809361,6.000000,0.000000,4310.256348,4273.333496,4102.051270,4114.358887,4258.974121,16166.000000,4.000000,91.000000,,,,0.000000,4.000000,4.000000,4.000000,4.000000,4.000000,100.000000,,,,,,,,,,,,,,,,,,,,,,,,,,,,,,,,,,,,,,,,,,,,,,,,,,,,,,,,,,,,,,,
1656266209.817176,7.000000,0.000000,4313.846191,4272.820313,4106.666504,4111.282227,4251.794922,450.000000,4.000000,91.000000,,,,0.000000,4.000000,4.000000,4.000000,4.000000,4.000000,100.000000,,,,,,,,,,,,,,,,,,,,,,,,,,,,,,,,,,,,,,,,,,,,,,,,,,,,,,,,,,,,,,,
1656266209.825090,8.000000,0.000000,4307.692383,4268.205078,4110.256348,4104.102539,4251.282227,450.000000,4.000000,91.000000,,,,0.000000,4.000000,4.000000,4.000000,4.000000,4.000000,100.000000,,,,,,,,,,,,,,,,,,,,,,,,,,,,,,,,,,,,,,,,,,,,,,,,,,,,,,,,,,,,,,,
1656266209.832904,9.000000,0.000000,4294.871582,4272.820313,4108.717773,4109.743652,4259.487305,16240.000000,4.000000,91.000000,,,,0.000000,4.000000,4.000000,4.000000,4.000000,4.000000,100.000000,,,,,,,,,,,,,,,,,,,,,,,,,,,,,,,,,,,,,,,,,,,,,,,,,,,,,,,,,,,,,,,
1656266209.840819,10.000000,0.000000,4289.743652,4273.846191,4101.538574,4110.256348,4249.230957,450.000000,4.000000,91.000000,,,,0.000000,4.000000,4.000000,4.000000,4.000000,4.000000,100.000000,,,,,,,,,,,,,,,,,,,,,,,,,,,,,,,,,,,,,,,,,,,,,,,,,,,,,,,,,,,,,,,
1656266209.848633,11.000000,0.000000,4294.871582,4265.128418,4095.897461,4098.461426,4230.256348,16102.000000,4.000000,91.000000,,,,0.000000,4.000000,4.000000,4.000000,4.000000,4.000000,100.000000,,,,,,,,,,,,,,,,,,,,,,,,,,,,,,,,,,,,,,,,,,,,,,,,,,,,,,,,,,,,,,,
1656266209.856448,12.000000,0.000000,4307.179688,4258.974121,4089.230713,4096.922852,4244.102539,450.000000,4.000000,91.000000,,,,0.000000,4.000000,4.000000,4.000000,4.000000,4.000000,100.000000,,,,,,,,,,,,,,,,,,,,,,,,,,,,,,,,,,,,,,,6.066737,2.582809,0.684465,0.437099,0.520980,0.903243,0.624342,0.474323,0.610403,0.461390,2.462891,3.627646,1.306648,1.034824,0.328709,2.635688,2.180007,0.926574,0.885721,0.501645,5.041500,2.368317,0.895112,0.783870,0.627255
1656266209.864262,13.000000,0.000000,4317.948730,4264.102539,4082.051270,4109.743652,4265.641113,450.000000,4.000000,91.000000,,,,0.000000,4.000000,4.000000,4.000000,4.000000,4.000000,100.000000,,,,,,,,,,,,,,,,,,,,,,,,,,,,,,,,,,,,,,,,,,,,,,,,,,,,,,,,,,,,,,,
1656266209.871976,14.000000,0.000000,4315.897461,4280.000000,4080.000000,4113.333496,4256.922852,450.000000,4.000000,91.000000,,,,0.000000,4.000000,4.000000,4.000000,4.000000,4.000000,100.000000,,,,,,,,,,,,,,,,,,,,,,,,,,,,,,,,,,,,,,,,,,,,,,,,,,,,,,,,,,,,,,,
1656266209.879791,15.000000,0.000000,4311.794922,4290.256348,4087.179443,4103.589844,4250.769043,16102.000000,4.000000,91.000000,,,,0.000000,4.000000,4.000000,4.000000,4.000000,4.000000,100.000000,,,,,,,,,,,,,,,,,,,,,,,,,,,,,,,,,,,,,,,,,,,,,,,,,,,,,,,,,,,,,,,
1656266209.887505,16.000000,0.000000,4316.922852,4274.871582,4098.461426,4101.025879,4262.051270,0.000000,4.000000,91.000000,,,,0.000000,4.000000,4.000000,4.000000,4.000000,4.000000,100.000000,,,,,,,,,,,,,,,,,,,,,,,,,,,,,,,,,,,,,,,,,,,,,,,,,,,,,,,,,,,,,,,
1656266209.895320,17.000000,0.000000,4321.025879,4252.820313,4106.666504,4108.205078,4257.948730,0.000000,4.000000,91.000000,,,,0.000000,4.000000,4.000000,4.000000,4.000000,4.000000,100.000000,,,,,,,,,,,,,,,,,,,,,,,,,,,,,,,,,,,,,,,,,,,,,,,,,,,,,,,,,,,,,,,
1656266209.903034,18.000000,0.000000,4321.538574,4264.102539,4113.846191,4113.846191,4259.487305,0.000000,4.000000,91.000000,,,,0.000000,4.000000,4.000000,4.000000,4.000000,4.000000,100.000000,,,,,,,,,,,,,,,,,,,,,,,,,,,,,,,,,,,,,,,,,,,,,,,,,,,,,,,,,,,,,,,
1656266209.910849,19.000000,0.000000,4328.717773,4287.692383,4114.358887,4113.846191,4287.692383,0.000000,4.000000,91.000000,,,,0.000000,4.000000,4.000000,4.000000,4.000000,4.000000,100.000000,,,,,,,,,,,,,,,,,,,,,,,,,,,,,,,,,,,,,,,,,,,,,,,,,,,,,,,,,,,,,,,
1656266209.918563,20.000000,0.000000,4343.077148,4283.077148,4109.230957,4118.974121,4303.077148,0.000000,4.000000,91.000000,,,,0.000000,4.000000,4.000000,4.000000,4.000000,4.000000,100.000000,,,,,,,,,,,,,,,,,,,,,,,,,,,,,,,,,,,,,,,,,,,,,,,,,,,,,,,,,,,,,,,
1656266209.926477,21.000000,0.000000,4353.846191,4268.205078,4106.666504,4126.666504,4291.794922,0.000000,4.000000,91.000000,,,,0.000000,4.000000,4.000000,4.000000,4.000000,4.000000,100.000000,,,,,,,,,,,,,,,,,,,,,,,,,,,,,,,,,,,,,,,,,,,,,,,,,,,,,,,,,,,,,,,
1656266209.934292,22.000000,0.000000,4356.410156,4268.205078,4107.692383,4124.102539,4286.153809,0.000000,4.000000,91.000000,,,,0.000000,4.000000,4.000000,4.000000,4.000000,4.000000,100.000000,,,,,,,,,,,,,,,,,,,,,,,,,,,,,,,,,,,,,,,,,,,,,,,,,,,,,,,,,,,,,,,
1656266209.942206,23.000000,0.000000,4348.205078,4280.000000,4111.282227,4120.512695,4294.358887,0.000000,4.000000,91.000000,,,,0.000000,4.000000,4.000000,4.000000,4.000000,4.000000,100.000000,,,,,,,,,,,,,,,,,,,,,,,,,,,,,,,,,,,,,,,,,,,,,,,,,,,,,,,,,,,,,,,
1656266209.950021,24.000000,0.000000,4342.051270,4289.230957,4119.487305,4127.692383,4302.563965,0.000000,4.000000,91.000000,,,,0.000000,4.000000,4.000000,4.000000,4.000000,4.000000,100.000000,,,,,,,,,,,,,,,,,,,,,,,,,,,,,,,,,,,,,,,,,,,,,,,,,,,,,,,,,,,,,,,
1656266209.957935,25.000000,0.000000,4351.794922,4283.589844,4121.025879,4131.282227,4298.461426,0.000000,4.000000,91.000000,,,,0.000000,4.000000,4.000000,4.000000,4.000000,4.000000,100.000000,,,,,,,,,,,,,,,,,,,,,,,,,,,,,,,,,,,,,,,,,,,,,,,,,,,,,,,,,,,,,,,
1656266209.965749,26.000000,0.000000,4352.820313,4275.897461,4111.282227,4113.333496,4280.512695,0.000000,4.000000,91.000000,,,,0.000000,4.000000,4.000000,4.000000,4.000000,4.000000,100.000000,,,,,,,,,,,,,,,,,,,,,,,,,,,,,,,,,,,,,,,,,,,,,,,,,,,,,,,,,,,,,,,
1656266209.973664,27.000000,0.000000,4335.384766,4287.179688,4114.871582,4103.077148,4270.769043,0.000000,4.000000,91.000000,,,,0.000000,4.000000,4.000000,4.000000,4.000000,4.000000,100.000000,,,,,,,,,,,,,,,,,,,,,,,,,,,,,,,,,,,,,,,,,,,,,,,,,,,,,,,,,,,,,,,
1656266209.981478,28.000000,0.000000,4326.153809,4297.436035,4129.743652,4115.897461,4272.307617,0.000000,4.000000,91.000000,,,,0.000000,4.000000,4.000000,4.000000,4.000000,4.000000,100.000000,,,,,,,,,,,,,,,,,,,,,,,,,,,,,,,,,,,,,,,6.347687,2.736723,0.679944,0.533844,0.456512,0.910512,0.605798,0.447195,0.654181,0.428264,2.641994,3.612383,1.078302,1.093454,0.342904,2.517576,1.910820,1.056538,0.949029,0.457911,5.147928,2.287229,0.723182,1.040509,0.615070
1656266209.989392,29.000000,0.000000,4323.589844,4294.871582,4127.692383,4117.436035,4263.589844,0.000000,4.000000,91.000000,,,,0.000000,4.000000,4.000000,4.000000,4.000000,4.000000,100.000000,,,,,,,,,,,,,,,,,,,,,,,,,,,,,,,,,,,,,,,,,,,,,,,,,,,,,,,,,,,,,,,
1656266209.997207,30.000000,0.000000,4314.871582,4292.820313,4114.871582,4108.205078,4254.358887,0.000000,4.000000,91.000000,,,,0.000000,4.000000,4.000000,4.000000,4.000000,4.000000,100.000000,,,,,,,,,,,,,,,,,,,,,,,,,,,,,,,,,,,,,,,,,,,,,,,,,,,,,,,,,,,,,,,
1656266210.005121,31.000000,0.000000,4311.794922,4287.692383,4113.333496,4120.000000,4264.102539,0.000000,4.000000,91.000000,,,,0.000000,4.000000,4.000000,4.000000,4.000000,4.000000,100.000000,,,,,,,,,,,,,,,,,,,,,,,,,,,,,,,,,,,,,,,,,,,,,,,,,,,,,,,,,,,,,,,
1656266210.012935,32.000000,0.000000,4313.333496,4281.025879,4114.871582,4128.205078,4273.333496,0.000000,4.000000,91.000000,,,,0.000000,4.000000,4.000000,4.000000,4.000000,4.000000,100.000000,,,,,,,,,,,,,,,,,,,,,,,,,,,,,,,,,,,,,,,,,,,,,,,,,,,,,,,,,,,,,,,
1656266210.020850,33.000000,0.000000,4309.230957,4281.538574,4114.871582,4111.794922,4267.692383,0.000000,4.000000,91.000000,,,,0.000000,4.000000,4.000000,4.000000,4.000000,4.000000,100.000000,,,,,,,,,,,,,,,,,,,,,,,,,,,,,,,,,,,,,,,,,,,,,,,,,,,,,,,,,,,,,,,
1656266210.028664,34.000000,0.000000,4307.692383,4282.563965,4114.871582,4103.589844,4261.538574,0.000000,4.000000,91.000000,,,,0.000000,4.000000,4.000000,4.000000,4.000000,4.000000,100.000000,,,,,,,,,,,,,,,,,,,,,,,,,,,,,,,,,,,,,,,,,,,,,,,,,,,,,,,,,,,,,,,
1656266210.036578,35.000000,0.000000,4314.358887,4276.410156,4114.871582,4111.794922,4263.077148,0.000000,4.000000,91.000000,,,,0.000000,4.000000,4.000000,4.000000,4.000000,4.000000,100.000000,,,,,,,,,,,,,,,,,,,,,,,,,,,,,,,,,,,,,,,,,,,,,,,,,,,,,,,,,,,,,,,
1656266210.044393,36.000000,0.000000,4327.179688,4275.384766,4116.922852,4115.897461,4275.384766,0.000000,4.000000,91.000000,,,,0.000000,4.000000,4.000000,4.000000,4.000000,4.000000,100.000000,,,,,,,,,,,,,,,,,,,,,,,,,,,,,,,,,,,,,,,,,,,,,,,,,,,,,,,,,,,,,,,
1656266210.052107,37.000000,0.000000,4336.922852,4277.436035,4114.871582,4110.769043,4281.538574,0.000000,4.000000,91.000000,,,,0.000000,4.000000,4.000000,4.000000,4.000000,4.000000,100.000000,,,,,,,,,,,,,,,,,,,,,,,,,,,,,,,,,,,,,,,,,,,,,,,,,,,,,,,,,,,,,,,
1656266210.060022,38.000000,0.000000,4331.794922,4275.897461,4110.256348,4095.897461,4269.743652,0.000000,4.000000,91.000000,,,,0.000000,4.000000,4.000000,4.000000,4.000000,4.000000,100.000000,,,,,,,,,,,,,,,,,,,,,,,,,,,,,,,,,,,,,,,,,,,,,,,,,,,,,,,,,,,,,,,
1656266210.067836,39.000000,0.000000,4326.153809,4272.307617,4115.897461,4086.666748,4266.153809,0.000000,4.000000,91.000000,,,,0.000000,4.000000,4.000000,4.000000,4.000000,4.000000,100.000000,,,,,,,,,,,,,,,,,,,,,,,,,,,,,,,,,,,,,,,,,,,,,,,,,,,,,,,,,,,,,,,
1656266210.075651,40.000000,0.000000,4332.820313,4277.948730,4128.717773,4100.000000,4276.410156,0.000000,4.000000,91.000000,,,,0.000000,4.000000,4.000000,4.000000,4.000000,4.000000,100.000000,,,,,,,,,,,,,,,,,,,,,,,,,,,,,,,,,,,,,,,,,,,,,,,,,,,,,,,,,,,,,,,
1656266210.083365,41.000000,0.000000,4329.230957,4291.282227,4132.307617,4111.794922,4271.282227,0.000000,4.000000,91.000000,,,,0.000000,4.000000,4.000000,4.000000,4.000000,4.000000,100.000000,,,,,,,,,,,,,,,,,,,,,,,,,,,,,,,,,,,,,,,,,,,,,,,,,,,,,,,,,,,,,,,
1656266210.091279,42.000000,0.000000,4318.461426,4293.846191,4129.743652,4104.615234,4262.563965,0.000000,4.000000,91.000000,,,,0.000000,4.000000,4.000000,4.000000,4.000000,4.000000,100.000000,,,,,,,,,,,,,,,,,,,,,,,,,,,,,,,,,,,,,,,,,,,,,,,,,,,,,,,,,,,,,,,
1656266210.099094,43.000000,0.000000,4322.563965,4285.128418,4133.333496,4109.743652,4267.692383,0.000000,4.000000,91.000000,,,,0.000000,4.000000,4.000000,4.000000,4.000000,4.000000,100.000000,,,,,,,,,,,,,,,,,,,,,,,,,,,,,,,,,,,,,,,,,,,,,,,,,,,,,,,,,,,,,,,
1656266210.106908,44.000000,0.000000,4332.307617,4275.384766,4131.794922,4122.563965,4266.666504,0.000000,4.000000,91.000000,,,,0.000000,4.000000,4.000000,4.000000,4.000000,4.000000,100.000000,1.000000,66.666664,4.000000,2.000000,2.000000,4.000000,4.000000,,,,,,,,,,,,,,,,,,,,,,,,,,,,,,,,6.287529,2.862366,0.746714,0.639729,0.407778,0.913999,0.597241,0.403990,0.667409,0.387885,2.694597,3.628814,0.955603,1.103497,0.354464,2.416985,1.539371,1.119886,1.003323,0.422025,5.052140,2.250983,0.602826,1.347459,0.623195
1656266210.114723,45.000000,0.000000,4327.692383,4272.820313,4120.512695,4109.743652,4253.333496,0.000000,4.000000,91.000000,,,,0.000000,4.000000,4.000000,4.000000,4.000000,4.000000,100.000000,,,,,,,,,,,,,,,,,,,,,,,,,,,,,,,,,,,,,,,,,,,,,,,,,,,,,,,,,,,,,,,
1656266210.122637,46.000000,0.000000,4318.461426,4278.974121,4116.922852,4090.769287,4252.307617,0.000000,4.000000,91.000000,,,,0.000000,4.000000,4.000000,4.000000,4.000000,4.000000,100.000000,,,,,,,,,,,,,,,,,,,,,,,,,,,,,,,,,,,,,,,,,,,,,,,,,,,,,,,,,,,,,,,
1656266210.130451,47.000000,0.000000,4317.436035,4287.179688,4123.589844,4102.563965,4257.948730,0.000000,4.000000,91.000000,,,,0.000000,4.000000,4.000000,4.000000,4.000000,4.000000,100.000000,,,,,,,,,,,,,,,,,,,,,,,,,,,,,,,,,,,,,,,,,,,,,,,,,,,,,,,,,,,,,,,
1656266210.138366,48.000000,0.000000,4311.282227,4284.615234,4123.077148,4113.333496,4256.922852,0.000000,4.000000,91.000000,,,,0.000000,4.000000,4.000000,4.000000,4.000000,4.000000,100.000000,,,,,,,,,,,,,,,,,,,,,,,,,,,,,,,,,,,,,,,,,,,,,,,,,,,,,,,,,,,,,,,
1656266210.146180,49.000000,0.000000,4301.025879,4277.436035,4118.974121,4094.358887,4252.820313,0.000000,4.000000,91.000000,,,,0.000000,4.000000,4.000000,4.000000,4.000000,4.000000,100.000000,,,,,,,,,,,,,,,,,,,,,,,,,,,,,,,,,,,,,,,,,,,,,,,,,,,,,,,,,,,,,,,
1656266210.154094,50.000000,0.000000,4307.692383,4280.000000,4120.512695,4087.179443,4251.282227,0.000000,4.000000,91.000000,,,,0.000000,4.000000,4.000000,4.000000,4.000000,4.000000,100.000000,,,,,,,,,,,,,,,,,,,,,,,,,,,,,,,,,,,,,,,,,,,,,,,,,,,,,,,,,,,,,,,
1656266210.161909,51.000000,0.000000,4323.077148,4289.743652,4124.615234,4111.282227,4250.256348,0.000000,4.000000,91.000000,,,,0.000000,4.000000,4.000000,4.000000,4.000000,4.000000,100.000000,,,,,,,,,,,,,,,,,,,,,,,,,,,,,,,,,,,,,,,,,,,,,,,,,,,,,,,,,,,,,,,
1656266210.169823,52.000000,0.000000,4317.436035,4288.717773,4125.641113,4117.948730,4248.717773,0.000000,4.000000,91.000000,,,,0.000000,4.000000,4.000000,4.000000,4.000000,4.000000,100.000000,,,,,,,,,,,,,,,,,,,,,,,,,,,,,,,,,,,,,,,,,,,,,,,,,,,,,,,,,,,,,,,
1656266210.177637,53.000000,0.000000,4296.922852,4269.230957,4123.589844,4102.563965,4252.307617,0.000000,4.000000,91.000000,,,,0.000000,4.000000,4.000000,4.000000,4.000000,4.000000,100.000000,,,,,,,,,,,,,,,,,,,,,,,,,,,,,,,,,,,,,,,,,,,,,,,,,,,,,,,,,,,,,,,
1656266210.185552,54.000000,0.000000,4295.384766,4266.666504,4124.615234,4116.922852,4258.974121,0.000000,4.000000,91.000000,,,,0.000000,4.000000,4.000000,4.000000,4.000000,4.000000,100.000000,,,,,,,,,,,,,,,,,,,,,,,,,,,,,,,,,,,,,,,,,,,,,,,,,,,,,,,,,,,,,,,
1656266210.193366,55.000000,0.000000,4309.743652,4280.000000,4120.512695,4132.820313,4257.436035,0.000000,4.000000,91.000000,,,,0.000000,4.000000,4.000000,4.000000,4.000000,4.000000,100.000000,,,,,,,,,,,,,,,,,,,,,,,,,,,,,,,,,,,,,,,,,,,,,,,,,,,,,,,,,,,,,,,
1656266210.201181,56.000000,0.000000,4310.256348,4271.282227,4104.102539,4108.205078,4256.922852,0.000000,4.000000,91.000000,,,,0.000000,4.000000,4.000000,4.000000,4.000000,4.000000,100.000000,,,,,,,,,,,,,,,,,,,,,,,,,,,,,,,,,,,,,,,,,,,,,,,,,,,,,,,,,,,,,,,
1656266210.208995,57.000000,0.000000,4305.641113,4255.384766,4095.897461,4088.205078,4258.974121,0.000000,4.000000,91.000000,,,,0.000000,4.000000,4.000000,4.000000,4.000000,4.000000,100.000000,,,,,,,,,,,,,,,,,,,,,,,,,,,,,,,,,,,,,,,,,,,,,,,,,,,,,,,,,,,,,,,
1656266210.216709,58.000000,0.000000,4321.025879,4266.666504,4101.025879,4098.461426,4257.948730,0.000000,4.000000,91.000000,,,,0.000000,4.000000,4.000000,4.000000,4.000000,4.000000,100.000000,,,,,,,,,,,,,,,,,,,,,,,,,,,,,,,,,,,,,,,,,,,,,,,,,,,,,,,,,,,,,,,
1656266210.224524,59.000000,0.000000,4329.230957,4272.307617,4100.000000,4102.051270,4257.948730,0.000000,4.000000,91.000000,,,,0.000000,4.000000,4.000000,4.000000,4.000000,4.000000,100.000000,,,,,,,,,,,,,,,,,,,,,,,,,,,,,,,,,,,,,,,,,,,,,,,,,,,,,,,,,,,,,,,
1656266210.232238,60.000000,0.000000,4318.974121,4255.384766,4083.589844,4088.205078,4264.615234,0.000000,4.000000,91.000000,,,,0.000000,4.000000,4.000000,4.000000,4.000000,4.000000,100.000000,,,,,,,,,,,,,,,,,,,,,,,,,,,,,,,,,,,,,,,5.965514,3.027600,0.864830,0.749178,0.378584,0.937162,0.605713,0.365637,0.641925,0.355206,2.585464,3.621579,1.039439,1.079343,0.357375,2.253893,1.183317,1.090391,1.034729,0.392478,4.759091,2.376086,0.544055,1.626638,0.650987
1656266210.240053,61.000000,0.000000,4324.615234,4250.256348,4082.051270,4088.205078,4275.897461,0.000000,4.000000,91.000000,,,,0.000000,4.000000,4.000000,4.000000,4.000000,4.000000,100.000000,,,,,,,,,,,,,,,,,,,,,,,,,,,,,,,,,,,,,,,,,,,,,,,,,,,,,,,,,,,,,,,
1656266210.247767,62.000000,0.000000,4341.025879,4257.948730,4100.512695,4097.948730,4284.102539,0.000000,4.000000,91.000000,,,,0.000000,4.000000,4.000000,4.000000,4.000000,4.000000,100.000000,,,,,,,,,,,,,,,,,,,,,,,,,,,,,,,,,,,,,,,,,,,,,,,,,,,,,,,,,,,,,,,
1656266210.255682,63.000000,0.000000,4347.179688,4258.461426,4106.153809,4089.743652,4291.794922,0.000000,4.000000,91.000000,,,,0.000000,4.000000,4.000000,4.000000,4.000000,4.000000,100.000000,,,,,,,,,,,,,,,,,,,,,,,,,,,,,,,,,,,,,,,,,,,,,,,,,,,,,,,,,,,,,,,
1656266210.263496,64.000000,0.000000,4367.692383,4256.922852,4097.948730,4083.076904,4309.230957,450.000000,4.000000,91.000000,,,,0.000000,4.000000,4.000000,4.000000,4.000000,4.000000,100.000000,,,,,,,,,,,,,,,,,,,,,,,,,,,,,,,,,,,,,,,,,,,,,,,,,,,,,,,,,,,,,,,
1656266210.271410,65.000000,0.000000,4392.820313,4261.025879,4101.538574,4094.358887,4326.153809,450.000000,4.000000,91.000000,,,,0.000000,4.000000,4.000000,4.000000,4.000000,4.000000,100.000000,,,,,,,,,,,,,,,,,,,,,,,,,,,,,,,,,,,,,,,,,,,,,,,,,,,,,,,,,,,,,,,
1656266210.279225,66.000000,0.000000,4390.256348,4262.563965,4110.769043,4094.871826,4327.692383,16224.000000,4.000000,91.000000,,,,0.000000,4.000000,4.000000,4.000000,4.000000,4.000000,100.000000,,,,,,,,,,,,,,,,,,,,,,,,,,,,,,,,,,,,,,,,,,,,,,,,,,,,,,,,,,,,,,,
1656266210.287139,67.000000,0.000000,4398.974121,4258.974121,4100.512695,4096.410156,4344.102539,450.000000,4.000000,91.000000,,,,0.000000,4.000000,4.000000,4.000000,4.000000,4.000000,100.000000,,,,,,,,,,,,,,,,,,,,,,,,,,,,,,,,,,,,,,,,,,,,,,,,,,,,,,,,,,,,,,,
1656266210.294953,68.000000,0.000000,4431.282227,4248.717773,4083.589844,4116.922852,4377.436035,16195.000000,4.000000,91.000000,,,,0.000000,4.000000,4.000000,4.000000,4.000000,4.000000,100.000000,,,,,,,,,,,,,,,,,,,,,,,,,,,,,,,,,,,,,,,,,,,,,,,,,,,,,,,,,,,,,,,
1656266210.302768,69.000000,0.000000,4441.025879,4238.461426,4081.025635,4112.307617,4370.256348,450.000000,4.000000,91.000000,,,,0.000000,4.000000,4.000000,4.000000,4.000000,4.000000,100.000000,,,,,,,,,,,,,,,,,,,,,,,,,,,,,,,,,,,,,,,,,,,,,,,,,,,,,,,,,,,,,,,
1656266210.310482,70.000000,0.000000,4424.615234,4245.641113,4082.051270,4088.205078,4339.487305,16179.000000,4.000000,91.000000,,,,0.000000,4.000000,4.000000,4.000000,4.000000,4.000000,100.000000,,,,,,,,,,,,,,,,,,,,,,,,,,,,,,,,,,,,,,,,,,,,,,,,,,,,,,,,,,,,,,,
1656266210.318397,71.000000,0.000000,4409.743652,4261.538574,4077.435791,4094.871826,4336.922852,450.000000,4.000000,91.000000,,,,0.000000,4.000000,4.000000,4.000000,4.000000,4.000000,100.000000,,,,,,,,,,,,,,,,,,,,,,,,,,,,,,,,,,,,,,,,,,,,,,,,,,,,,,,,,,,,,,,
1656266210.326211,72.000000,0.000000,4401.538574,4266.153809,4085.128174,4104.102539,4348.205078,450.000000,4.000000,91.000000,,,,0.000000,4.000000,4.000000,4.000000,4.000000,4.000000,100.000000,,,,,,,,,,,,,,,,,,,,,,,,,,,,,,,,,,,,,,,,,,,,,,,,,,,,,,,,,,,,,,,
1656266210.334125,73.000000,0.000000,4388.717773,4261.538574,4101.538574,4088.718018,4336.410156,16170.000000,4.000000,91.000000,,,,0.000000,4.000000,4.000000,4.000000,4.000000,4.000000,100.000000,,,,,,,,,,,,,,,,,,,,,,,,,,,,,,,,,,,,,,,,,,,,,,,,,,,,,,,,,,,,,,,
1656266210.341940,74.000000,0.000000,4372.307617,4261.538574,4101.025879,4085.128174,4307.179688,450.000000,4.000000,91.000000,,,,0.000000,4.000000,4.000000,4.000000,4.000000,4.000000,100.000000,,,,,,,,,,,,,,,,,,,,,,,,,,,,,,,,,,,,,,,,,,,,,,,,,,,,,,,,,,,,,,,
1656266210.349854,75.000000,0.000000,4361.025879,4261.538574,4090.256348,4094.871826,4298.974121,16180.000000,4.000000,91.000000,,,,0.000000,4.000000,4.000000,4.000000,4.000000,4.000000,100.000000,,,,,,,,,,,,,,,,,,,,,,,,,,,,,,,,,,,,,,,,,,,,,,,,,,,,,,,,,,,,,,,
1656266210.357668,76.000000,0.000000,4353.333496,4248.205078,4084.102539,4089.743652,4302.051270,450.000000,4.000000,91.000000,,,,0.000000,4.000000,4.000000,4.000000,4.000000,4.000000,100.000000,,,,,,,,,,,,,,,,,,,,,,,,,,,,,,,,,,,,,,,5.553542,3.252387,1.003522,0.858262,0.365331,0.994288,0.643253,0.349915,0.591517,0.344567,2.358001,3.586859,1.333843,1.035385,0.346938,2.026063,0.960871,0.983720,1.031119,0.369673,4.354911,2.725436,0.544540,1.795249,0.689223
1656266210.365583,77.000000,0.000000,4343.077148,4244.102539,4085.641113,4087.179443,4288.717773,450.000000,4.000000,91.000000,,,,0.000000,4.000000,4.000000,4.000000,4.000000,4.000000,100.000000,,,,,,,,,,,,,,,,,,,,,,,,,,,,,,,,,,,,,,,,,,,,,,,,,,,,,,,,,,,,,,,
1656266210.373397,78.000000,0.000000,4330.769043,4262.563965,4084.102539,4096.410156,4272.307617,450.000000,4.000000,91.000000,,,,0.000000,4.000000,4.000000,4.000000,4.000000,4.000000,100.000000,,,,,,,,,,,,,,,,,,,,,,,,,,,,,,,,,,,,,,,,,,,,,,,,,,,,,,,,,,,,,,,
1656266210.381311,79.000000,0.000000,4323.077148,4268.205078,4073.846191,4093.846191,4269.230957,16180.000000,4.000000,91.000000,,,,0.000000,4.000000,4.000000,4.000000,4.000000,4.000000,100.000000,,,,,,,,,,,,,,,,,,,,,,,,,,,,,,,,,,,,,,,,,,,,,,,,,,,,,,,,,,,,,,,
1656266210.389126,80.000000,0.000000,4314.871582,4252.820313,4072.307617,4088.718018,4262.563965,450.000000,4.000000,91.000000,,,,0.000000,4.000000,4.000000,4.000000,4.000000,4.000000,100.000000,,,,,,,,,,,,,,,,,,,,,,,,,,,,,,,,,,,,,,,,,,,,,,,,,,,,,,,,,,,,,,,
1656266210.396940,81.000000,0.000000,4301.538574,4247.692383,4085.641113,4093.846191,4245.128418,450.000000,4.000000,91.000000,,,,0.000000,4.000000,4.000000,4.000000,4.000000,4.000000,100.000000,,,,,,,,,,,,,,,,,,,,,,,,,,,,,,,,,,,,,,,,,,,,,,,,,,,,,,,,,,,,,,,
1656266210.404655,82.000000,0.000000,4295.897461,4259.487305,4097.948730,4091.794922,4240.512695,450.000000,4.000000,91.000000,,,,0.000000,4.000000,4.000000,4.000000,4.000000,4.000000,100.000000,,,,,,,,,,,,,,,,,,,,,,,,,,,,,,,,,,,,,,,,,,,,,,,,,,,,,,,,,,,,,,,
1656266210.412369,83.000000,0.000000,4301.025879,4265.641113,4098.974121,4086.666748,4246.666504,16180.000000,4.000000,91.000000,,,,0.000000,4.000000,4.000000,4.000000,4.000000,4.000000,100.000000,,,,,,,,,,,,,,,,,,,,,,,,,,,,,,,,,,,,,,,,,,,,,,,,,,,,,,,,,,,,,,,
1656266210.420284,84.000000,0.000000,4301.025879,4257.948730,4097.948730,4089.230713,4242.563965,450.000000,4.000000,91.000000,,,,0.000000,4.000000,4.000000,4.000000,4.000000,4.000000,100.000000,,,,,,,,,,,,,,,,,,,,,,,,,,,,,,,,,,,,,,,,,,,,,,,,,,,,,,,,,,,,,,,
1656266210.428098,85.000000,0.000000,4289.743652,4242.563965,4098.974121,4090.256348,4232.307617,450.000000,4.000000,91.000000,,,,0.000000,4.000000,4.000000,4.000000,4.000000,4.000000,100.000000,,,,,,,,,,,,,,,,,,,,,,,,,,,,,,,,,,,,,,,,,,,,,,,,,,,,,,,,,,,,,,,
1656266210.435912,86.000000,0.000000,4272.820313,4241.025879,4095.384521,4096.410156,4225.128418,450.000000,4.000000,91.000000,,,,0.000000,4.000000,4.000000,4.000000,4.000000,4.000000,100.000000,,,,,,,,,,,,,,,,,,,,,,,,,,,,,,,,,,,,,,,,,,,,,,,,,,,,,,,,,,,,,,,
1656266210.443627,87.000000,0.000000,4254.358887,4249.743652,4088.718018,4102.051270,4206.666504,16180.000000,4.000000,91.000000,,,,0.000000,4.000000,4.000000,4.000000,4.000000,4.000000,100.000000,,,,,,,,,,,,,,,,,,,,,,,,,,,,,,,,,,,,,,,,,,,,,,,,,,,,,,,,,,,,,,,
1656266210.451541,88.000000,0.000000,4241.538574,4242.051270,4076.923096,4084.102539,4180.512695,450.000000,4.000000,91.000000,,,,0.000000,4.000000,4.000000,4.000000,4.000000,4.000000,100.000000,,,,,,,,,,,,,,,,,,,,,,,,,,,,,,,,,,,,,,,,,,,,,,,,,,,,,,,,,,,,,,,
1656266210.459356,89.000000,0.000000,4233.846191,4228.717773,4063.076904,4057.435791,4181.025879,450.000000,4.000000,91.000000,,,,0.000000,4.000000,4.000000,4.000000,4.000000,4.000000,100.000000,,,,,,,,,,,,,,,,,,,,,,,,,,,,,,,,,,,,,,,,,,,,,,,,,,,,,,,,,,,,,,,
1656266210.467170,90.000000,0.000000,4235.897461,4237.436035,4061.025635,4055.897461,4202.563965,450.000000,4.000000,91.000000,,,,0.000000,4.000000,4.000000,4.000000,4.000000,4.000000,100.000000,,,,,,,,,,,,,,,,,,,,,,,,,,,,,,,,,,,,,,,,,,,,,,,,,,,,,,,,,,,,,,,
1656266210.474885,91.000000,0.000000,4250.769043,4252.307617,4076.410156,4068.718018,4210.256348,16180.000000,4.000000,91.000000,,,,0.000000,4.000000,4.000000,4.000000,4.000000,4.000000,100.000000,,,,,,,,,,,,,,,,,,,,,,,,,,,,,,,,,,,,,,,,,,,,,,,,,,,,,,,,,,,,,,,
1656266210.482699,92.000000,0.000000,4265.128418,4247.179688,4088.205078,4078.461426,4213.333496,450.000000,4.000000,91.000000,,,,0.000000,4.000000,4.000000,4.000000,4.000000,4.000000,100.000000,,,,,,,,,,,,,,,,,,,,,,,,,,,,,,,,,,,,,,,5.291469,3.555682,1.142699,0.958552,0.361222,1.072641,0.708682,0.361884,0.538560,0.362959,2.062745,3.532898,1.742506,0.977532,0.324190,1.742936,0.915825,0.861088,0.991551,0.363301,3.911563,3.288734,0.600117,1.803089,0.723055
1656266210.490413,93.000000,0.000000,4272.307617,4232.820313,4090.256348,4095.897461,4223.077148,450.000000,4.000000,91.000000,,,,0.000000,4.000000,4.000000,4.000000,4.000000,4.000000,100.000000,,,,,,,,,,,,,,,,,,,,,,,,,,,,,,,,,,,,,,,,,,,,,,,,,,,,,,,,,,,,,,,
1656266210.498228,94.000000,0.000000,4268.717773,4232.307617,4093.333252,4108.717773,4217.948730,450.000000,4.000000,91.000000,,,,0.000000,4.000000,4.000000,4.000000,4.000000,4.000000,100.000000,,,,,,,,,,,,,,,,,,,,,,,,,,,,,,,,,,,,,,,,,,,,,,,,,,,,,,,,,,,,,,,
1656266210.505942,95.000000,0.000000,4255.384766,4243.077148,4089.743652,4101.538574,4201.025879,16180.000000,4.000000,91.000000,,,,0.000000,4.000000,4.000000,4.000000,4.000000,4.000000,100.000000,,,,,,,,,,,,,,,,,,,,,,,,,,,,,,,,,,,,,,,,,,,,,,,,,,,,,,,,,,,,,,,
1656266210.513857,96.000000,0.000000,4240.512695,4243.077148,4076.410156,4089.743652,4195.384766,450.000000,4.000000,91.000000,,,,0.000000,4.000000,4.000000,4.000000,4.000000,4.000000,100.000000,,,,,,,,,,,,,,,,,,,,,,,,,,,,,,,,,,,,,,,,,,,,,,,,,,,,,,,,,,,,,,,
1656266210.521671,97.000000,0.000000,4233.333496,4235.897461,4074.358887,4085.641113,4199.487305,450.000000,4.000000,91.000000,,,,0.000000,4.000000,4.000000,4.000000,4.000000,4.000000,100.000000,,,,,,,,,,,,,,,,,,,,,,,,,,,,,,,,,,,,,,,,,,,,,,,,,,,,,,,,,,,,,,,
1656266210.529486,98.000000,0.000000,4229.230957,4241.538574,4083.076904,4079.487061,4196.922852,450.000000,4.000000,91.000000,,,,0.000000,4.000000,4.000000,4.000000,4.000000,4.000000,100.000000,,,,,,,,,,,,,,,,,,,,,,,,,,,,,,,,,,,,,,,,,,,,,,,,,,,,,,,,,,,,,,,
1656266210.537200,99.000000,0.000000,4232.820313,4243.589844,4084.102539,4068.205078,4188.717773,16180.000000,4.000000,91.000000,,,,0.000000,4.000000,4.000000,4.000000,4.000000,4.000000,100.000000,,,,,,,,,,,,,,,,,,,,,,,,,,,,,,,,,,,,,,,,,,,,,,,,,,,,,,,,,,,,,,,
