title:david_g_Backwards, start timestamp:1656265723.845333, stop timestamp:1656265728.873571, headset type:INSIGHT, headset serial:A2D201AE, headset firmware:932, channels:84, sampling rate:eeg_128;pm_0.1;pow_8, samples:643       , version:2.1, 
Timestamp,EEG.Counter,EEG.Interpolated,EEG.AF3,EEG.T7,EEG.Pz,EEG.T8,EEG.AF4,EEG.RawCq,EEG.Battery,EEG.BatteryPercent,MarkerIndex,MarkerType,MarkerValueInt,EEG.MarkerHardware,CQ.AF3,CQ.T7,CQ.Pz,CQ.T8,CQ.AF4,CQ.Overall,EQ.SampleRateQuality,EQ.OVERALL,EQ.AF3,EQ.T7,EQ.Pz,EQ.T8,EQ.AF4,PM.Engagement.IsActive,PM.Engagement.Scaled,PM.Engagement.Raw,PM.Engagement.Min,PM.Engagement.Max,PM.Excitement.IsActive,PM.Excitement.Scaled,PM.Excitement.Raw,PM.Excitement.Min,PM.Excitement.Max,PM.LongTermExcitement,PM.Stress.IsActive,PM.Stress.Scaled,PM.Stress.Raw,PM.Stress.Min,PM.Stress.Max,PM.Relaxation.IsActive,PM.Relaxation.Scaled,PM.Relaxation.Raw,PM.Relaxation.Min,PM.Relaxation.Max,PM.Interest.IsActive,PM.Interest.Scaled,PM.Interest.Raw,PM.Interest.Min,PM.Interest.Max,PM.Focus.IsActive,PM.Focus.Scaled,PM.Focus.Raw,PM.Focus.Min,PM.Focus.Max,POW.AF3.Theta,POW.AF3.Alpha,POW.AF3.BetaL,POW.AF3.BetaH,POW.AF3.Gamma,POW.T7.Theta,POW.T7.Alpha,POW.T7.BetaL,POW.T7.BetaH,POW.T7.Gamma,POW.Pz.Theta,POW.Pz.Alpha,POW.Pz.BetaL,POW.Pz.BetaH,POW.Pz.Gamma,POW.T8.Theta,POW.T8.Alpha,POW.T8.BetaL,POW.T8.BetaH,POW.T8.Gamma,POW.AF4.Theta,POW.AF4.Alpha,POW.AF4.BetaL,POW.AF4.BetaH,POW.AF4.Gamma
1656265723.845333,25.000000,0.000000,4149.743652,4135.384766,4054.358887,3998.974365,4115.897461,0.000000,4.000000,95.000000,,,,0.000000,4.000000,4.000000,4.000000,4.000000,4.000000,100.000000,,,,,,,,,,,,,,,,,,,,,,,,,,,,,,,,,,,,,,,,,,,,,,,,,,,,,,,,,,,,,,,
1656265723.853248,26.000000,0.000000,4170.769043,4142.563965,4057.948730,4013.846191,4135.384766,0.000000,4.000000,95.000000,,,,0.000000,4.000000,4.000000,4.000000,4.000000,4.000000,100.000000,,,,,,,,,,,,,,,,,,,,,,,,,,,,,,,,,,,,,,,,,,,,,,,,,,,,,,,,,,,,,,,
1656265723.861062,27.000000,0.000000,4162.563965,4202.563965,4044.102539,4025.128174,4169.230957,0.000000,4.000000,95.000000,,,,0.000000,4.000000,4.000000,4.000000,4.000000,4.000000,100.000000,,,,,,,,,,,,,,,,,,,,,,,,,,,,,,,,,,,,,,,,,,,,,,,,,,,,,,,,,,,,,,,
1656265723.868976,28.000000,0.000000,4151.282227,4200.512695,4033.333252,4012.820557,4163.589844,0.000000,4.000000,95.000000,,,,0.000000,4.000000,4.000000,4.000000,4.000000,4.000000,100.000000,,,,,,,,,,,,,,,,,,,,,,,,,,,,,,,,,,,,,,,,,,,,,,,,,,,,,,,,,,,,,,,
1656265723.876791,29.000000,0.000000,4176.922852,4182.051270,4052.307617,4006.153809,4150.769043,0.000000,4.000000,95.000000,,,,0.000000,4.000000,4.000000,4.000000,4.000000,4.000000,100.000000,,,,,,,,,,,,,,,,,,,,,,,,,,,,,,,,,,,,,,,,,,,,,,,,,,,,,,,,,,,,,,,
1656265723.884705,30.000000,0.000000,4181.025879,4214.871582,4054.358887,4007.179443,4155.897461,0.000000,4.000000,95.000000,,,,0.000000,4.000000,4.000000,4.000000,4.000000,4.000000,100.000000,,,,,,,,,,,,,,,,,,,,,,,,,,,,,,,,,,,,,,,,,,,,,,,,,,,,,,,,,,,,,,,
1656265723.892520,31.000000,0.000000,4159.487305,4210.769043,4049.230713,4016.923096,4164.102539,0.000000,4.000000,95.000000,,,,0.000000,4.000000,4.000000,4.000000,4.000000,4.000000,100.000000,,,,,,,,,,,,,,,,,,,,,,,,,,,,,,,,,,,,,,,,,,,,,,,,,,,,,,,,,,,,,,,
1656265723.900434,32.000000,0.000000,4132.820313,4165.128418,4054.358887,4019.487061,4149.743652,0.000000,4.000000,95.000000,,,,0.000000,4.000000,4.000000,4.000000,4.000000,4.000000,100.000000,,,,,,,,,,,,,,,,,,,,,,,,,,,,,,,,,,,,,,,,,,,,,,,,,,,,,,,,,,,,,,,
1656265723.908248,33.000000,0.000000,4115.384766,4167.179688,4041.538574,4010.256348,4120.512695,0.000000,4.000000,95.000000,,,,0.000000,4.000000,4.000000,4.000000,4.000000,4.000000,100.000000,,,,,,,,,,,,,,,,,,,,,,,,,,,,,,,,,,,,,,,,,,,,,,,,,,,,,,,,,,,,,,,
1656265723.915963,34.000000,0.000000,4151.794922,4205.128418,4049.743652,4028.718018,4129.743652,0.000000,4.000000,95.000000,,,,0.000000,4.000000,4.000000,4.000000,4.000000,4.000000,100.000000,,,,,,,,,,,,,,,,,,,,,,,,,,,,,,,,,,,,,,,,,,,,,,,,,,,,,,,,,,,,,,,
1656265723.923777,35.000000,0.000000,4183.077148,4196.410156,4071.794922,4034.871826,4146.666504,0.000000,4.000000,95.000000,,,,0.000000,4.000000,4.000000,4.000000,4.000000,4.000000,100.000000,,,,,,,,,,,,,,,,,,,,,,,,,,,,,,,,,,,,,,,,,,,,,,,,,,,,,,,,,,,,,,,
1656265723.931691,36.000000,0.000000,4165.641113,4176.922852,4064.615479,4028.718018,4144.102539,0.000000,4.000000,95.000000,,,,0.000000,4.000000,4.000000,4.000000,4.000000,4.000000,100.000000,,,,,,,,,,,,,,,,,,,,,,,,,,,,,,,,,,,,,,,44.018650,7.458667,3.956339,11.134180,8.029985,3.156188,3.372607,3.034609,5.892067,4.009076,8.955631,5.664691,4.166859,3.272344,2.839816,2.683150,5.051574,4.580995,2.717414,3.946408,22.927425,2.719576,2.619490,7.708770,3.454401
1656265723.939506,37.000000,0.000000,4150.769043,4171.794922,4043.589844,4043.076904,4128.205078,0.000000,4.000000,95.000000,,,,0.000000,4.000000,4.000000,4.000000,4.000000,4.000000,100.000000,,,,,,,,,,,,,,,,,,,,,,,,,,,,,,,,,,,,,,,,,,,,,,,,,,,,,,,,,,,,,,,
1656265723.947220,38.000000,0.000000,4143.077148,4164.102539,4044.615479,4029.743652,4118.461426,0.000000,4.000000,95.000000,,,,0.000000,4.000000,4.000000,4.000000,4.000000,4.000000,100.000000,,,,,,,,,,,,,,,,,,,,,,,,,,,,,,,,,,,,,,,,,,,,,,,,,,,,,,,,,,,,,,,
1656265723.955035,39.000000,0.000000,4176.410156,4192.307617,4066.153809,4015.384521,4162.563965,0.000000,4.000000,95.000000,,,,0.000000,4.000000,4.000000,4.000000,4.000000,4.000000,100.000000,,,,,,,,,,,,,,,,,,,,,,,,,,,,,,,,,,,,,,,,,,,,,,,,,,,,,,,,,,,,,,,
1656265723.962749,40.000000,0.000000,4231.794922,4212.820313,4071.281982,4041.025635,4191.794922,0.000000,4.000000,95.000000,,,,0.000000,4.000000,4.000000,4.000000,4.000000,4.000000,100.000000,,,,,,,,,,,,,,,,,,,,,,,,,,,,,,,,,,,,,,,,,,,,,,,,,,,,,,,,,,,,,,,
1656265723.970664,41.000000,0.000000,4210.769043,4197.948730,4076.410156,4068.718018,4162.563965,0.000000,4.000000,95.000000,,,,0.000000,4.000000,4.000000,4.000000,4.000000,4.000000,100.000000,,,,,,,,,,,,,,,,,,,,,,,,,,,,,,,,,,,,,,,,,,,,,,,,,,,,,,,,,,,,,,,
1656265723.978478,42.000000,0.000000,4142.051270,4192.307617,4080.512939,4053.846191,4133.846191,0.000000,4.000000,95.000000,,,,0.000000,4.000000,4.000000,4.000000,4.000000,4.000000,100.000000,,,,,,,,,,,,,,,,,,,,,,,,,,,,,,,,,,,,,,,,,,,,,,,,,,,,,,,,,,,,,,,
1656265723.986292,43.000000,0.000000,4119.487305,4176.410156,4052.820557,4005.641113,4122.563965,0.000000,4.000000,95.000000,,,,0.000000,4.000000,4.000000,4.000000,4.000000,4.000000,100.000000,,,,,,,,,,,,,,,,,,,,,,,,,,,,,,,,,,,,,,,,,,,,,,,,,,,,,,,,,,,,,,,
1656265723.994007,44.000000,0.000000,4156.922852,4172.820313,4049.230713,4005.641113,4150.769043,0.000000,4.000000,95.000000,,,,0.000000,4.000000,4.000000,4.000000,4.000000,4.000000,100.000000,,,,,,,,,,,,,,,,,,,,,,,,,,,,,,,,,,,,,,,,,,,,,,,,,,,,,,,,,,,,,,,
1656265724.001821,45.000000,0.000000,4189.743652,4220.000000,4064.615479,4044.615479,4193.333496,0.000000,4.000000,95.000000,,,,0.000000,4.000000,4.000000,4.000000,4.000000,4.000000,100.000000,,,,,,,,,,,,,,,,,,,,,,,,,,,,,,,,,,,,,,,,,,,,,,,,,,,,,,,,,,,,,,,
1656265724.009536,46.000000,0.000000,4186.153809,4245.641113,4056.410156,4048.718018,4176.410156,0.000000,4.000000,95.000000,,,,0.000000,4.000000,4.000000,4.000000,4.000000,4.000000,100.000000,,,,,,,,,,,,,,,,,,,,,,,,,,,,,,,,,,,,,,,,,,,,,,,,,,,,,,,,,,,,,,,
1656265724.017350,47.000000,0.000000,4182.051270,4208.717773,4050.256348,4036.923096,4134.871582,0.000000,4.000000,95.000000,,,,0.000000,4.000000,4.000000,4.000000,4.000000,4.000000,100.000000,,,,,,,,,,,,,,,,,,,,,,,,,,,,,,,,,,,,,,,,,,,,,,,,,,,,,,,,,,,,,,,
1656265724.025065,48.000000,0.000000,4177.948730,4176.410156,4055.897461,4024.615479,4122.563965,0.000000,4.000000,95.000000,,,,0.000000,4.000000,4.000000,4.000000,4.000000,4.000000,100.000000,,,,,,,,,,,,,,,,,,,,,,,,,,,,,,,,,,,,,,,,,,,,,,,,,,,,,,,,,,,,,,,
1656265724.032979,49.000000,0.000000,4192.820313,4203.589844,4077.948730,4024.102539,4143.589844,0.000000,4.000000,95.000000,,,,0.000000,4.000000,4.000000,4.000000,4.000000,4.000000,100.000000,,,,,,,,,,,,,,,,,,,,,,,,,,,,,,,,,,,,,,,,,,,,,,,,,,,,,,,,,,,,,,,
1656265724.040793,50.000000,0.000000,4218.461426,4226.153809,4082.564209,4053.846191,4173.846191,0.000000,4.000000,95.000000,,,,0.000000,4.000000,4.000000,4.000000,4.000000,4.000000,100.000000,,,,,,,,,,,,,,,,,,,,,,,,,,,,,,,,,,,,,,,,,,,,,,,,,,,,,,,,,,,,,,,
1656265724.048708,51.000000,0.000000,4214.358887,4210.769043,4063.589844,4059.487061,4176.922852,0.000000,4.000000,95.000000,,,,0.000000,4.000000,4.000000,4.000000,4.000000,4.000000,100.000000,,,,,,,,,,,,,,,,,,,,,,,,,,,,,,,,,,,,,,,,,,,,,,,,,,,,,,,,,,,,,,,
1656265724.056522,52.000000,0.000000,4214.871582,4212.820313,4068.718018,4040.512939,4170.256348,0.000000,4.000000,95.000000,,,,0.000000,4.000000,4.000000,4.000000,4.000000,4.000000,100.000000,,,,,,,,,,,,,,,,,,,,,,,,,,,,,,,,,,,,,,,56.353817,9.092143,4.751196,11.185147,8.059764,2.604070,2.990928,2.876225,5.554718,4.250343,10.709813,6.447687,4.271757,2.831987,2.753759,3.609057,5.852227,4.277221,3.044452,3.772405,29.825041,2.817789,2.311739,7.746360,3.378209
1656265724.064436,53.000000,0.000000,4214.358887,4206.666504,4083.076904,4033.846191,4162.563965,0.000000,4.000000,95.000000,,,,0.000000,4.000000,4.000000,4.000000,4.000000,4.000000,100.000000,,,,,,,,,,,,,,,,,,,,,,,,,,,,,,,,,,,,,,,,,,,,,,,,,,,,,,,,,,,,,,,
1656265724.072251,54.000000,0.000000,4194.358887,4205.641113,4080.512939,4051.281982,4163.077148,0.000000,4.000000,95.000000,,,,0.000000,4.000000,4.000000,4.000000,4.000000,4.000000,100.000000,,,,,,,,,,,,,,,,,,,,,,,,,,,,,,,,,,,,,,,,,,,,,,,,,,,,,,,,,,,,,,,
1656265724.080165,55.000000,0.000000,4184.102539,4214.358887,4059.487061,4071.281982,4172.820313,0.000000,4.000000,95.000000,,,,0.000000,4.000000,4.000000,4.000000,4.000000,4.000000,100.000000,,,,,,,,,,,,,,,,,,,,,,,,,,,,,,,,,,,,,,,,,,,,,,,,,,,,,,,,,,,,,,,
1656265724.087980,56.000000,0.000000,4189.743652,4191.794922,4054.871826,4069.230713,4157.436035,0.000000,4.000000,95.000000,,,,0.000000,4.000000,4.000000,4.000000,4.000000,4.000000,100.000000,,,,,,,,,,,,,,,,,,,,,,,,,,,,,,,,,,,,,,,,,,,,,,,,,,,,,,,,,,,,,,,
1656265724.095794,57.000000,0.000000,4203.589844,4212.307617,4094.358887,4071.281982,4162.051270,0.000000,4.000000,95.000000,,,,0.000000,4.000000,4.000000,4.000000,4.000000,4.000000,100.000000,,,,,,,,,,,,,,,,,,,,,,,,,,,,,,,,,,,,,,,,,,,,,,,,,,,,,,,,,,,,,,,
1656265724.103509,58.000000,0.000000,4213.333496,4271.282227,4110.769043,4073.333252,4208.205078,0.000000,4.000000,95.000000,,,,0.000000,4.000000,4.000000,4.000000,4.000000,4.000000,100.000000,,,,,,,,,,,,,,,,,,,,,,,,,,,,,,,,,,,,,,,,,,,,,,,,,,,,,,,,,,,,,,,
1656265724.111423,59.000000,0.000000,4234.358887,4285.128418,4091.794922,4075.897461,4226.153809,0.000000,4.000000,95.000000,,,,0.000000,4.000000,4.000000,4.000000,4.000000,4.000000,100.000000,,,,,,,,,,,,,,,,,,,,,,,,,,,,,,,,,,,,,,,,,,,,,,,,,,,,,,,,,,,,,,,
1656265724.119237,60.000000,0.000000,4228.717773,4234.358887,4088.718018,4060.512939,4186.666504,0.000000,4.000000,95.000000,,,,0.000000,4.000000,4.000000,4.000000,4.000000,4.000000,100.000000,,,,,,,,,,,,,,,,,,,,,,,,,,,,,,,,,,,,,,,,,,,,,,,,,,,,,,,,,,,,,,,
1656265724.126952,61.000000,0.000000,4192.307617,4173.846191,4092.820557,4023.076904,4152.820313,0.000000,4.000000,95.000000,,,,0.000000,4.000000,4.000000,4.000000,4.000000,4.000000,100.000000,,,,,,,,,,,,,,,,,,,,,,,,,,,,,,,,,,,,,,,,,,,,,,,,,,,,,,,,,,,,,,,
1656265724.134766,62.000000,0.000000,4214.871582,4203.077148,4093.846191,4031.281982,4188.205078,0.000000,4.000000,95.000000,,,,0.000000,4.000000,4.000000,4.000000,4.000000,4.000000,100.000000,,,,,,,,,,,,,,,,,,,,,,,,,,,,,,,,,,,,,,,,,,,,,,,,,,,,,,,,,,,,,,,
1656265724.142481,63.000000,0.000000,4247.692383,4275.897461,4088.718018,4057.435791,4227.179688,0.000000,4.000000,95.000000,,,,0.000000,4.000000,4.000000,4.000000,4.000000,4.000000,100.000000,,,,,,,,,,,,,,,,,,,,,,,,,,,,,,,,,,,,,,,,,,,,,,,,,,,,,,,,,,,,,,,
1656265724.150295,64.000000,0.000000,4227.692383,4272.820313,4086.153809,4051.794922,4217.948730,450.000000,4.000000,95.000000,,,,0.000000,4.000000,4.000000,4.000000,4.000000,4.000000,100.000000,,,,,,,,,,,,,,,,,,,,,,,,,,,,,,,,,,,,,,,,,,,,,,,,,,,,,,,,,,,,,,,
1656265724.158010,65.000000,0.000000,4203.589844,4217.948730,4070.256348,4046.666748,4192.820313,450.000000,4.000000,95.000000,,,,0.000000,4.000000,4.000000,4.000000,4.000000,4.000000,100.000000,,,,,,,,,,,,,,,,,,,,,,,,,,,,,,,,,,,,,,,,,,,,,,,,,,,,,,,,,,,,,,,
1656265724.165924,66.000000,0.000000,4180.512695,4189.743652,4041.025635,4049.230713,4167.179688,16174.000000,4.000000,95.000000,,,,0.000000,4.000000,4.000000,4.000000,4.000000,4.000000,100.000000,,,,,,,,,,,,,,,,,,,,,,,,,,,,,,,,,,,,,,,,,,,,,,,,,,,,,,,,,,,,,,,
1656265724.173738,67.000000,0.000000,4191.282227,4207.179688,4062.564209,4061.025635,4189.743652,450.000000,4.000000,95.000000,,,,0.000000,4.000000,4.000000,4.000000,4.000000,4.000000,100.000000,,,,,,,,,,,,,,,,,,,,,,,,,,,,,,,,,,,,,,,,,,,,,,,,,,,,,,,,,,,,,,,
1656265724.181653,68.000000,0.000000,4240.512695,4215.384766,4098.461426,4080.512939,4225.128418,16141.000000,4.000000,95.000000,,,,0.000000,4.000000,4.000000,4.000000,4.000000,4.000000,100.000000,1.000000,83.333336,3.000000,4.000000,4.000000,4.000000,3.000000,,,,,,,,,,,,,,,,,,,,,,,,,,,,,,,,62.134609,10.074575,5.363489,11.510966,7.806158,2.355227,2.829144,2.656648,5.388790,4.381425,11.779806,7.140717,4.239595,2.588224,2.633739,4.756198,6.546904,4.030879,3.676420,3.448543,33.361580,2.818435,2.236710,7.479512,3.206858
1656265724.189467,69.000000,0.000000,4254.871582,4208.717773,4097.436035,4084.615479,4211.794922,450.000000,4.000000,95.000000,,,,0.000000,4.000000,4.000000,4.000000,4.000000,4.000000,100.000000,,,,,,,,,,,,,,,,,,,,,,,,,,,,,,,,,,,,,,,,,,,,,,,,,,,,,,,,,,,,,,,
1656265724.197381,70.000000,0.000000,4229.230957,4229.230957,4090.256348,4075.897461,4200.000000,16143.000000,4.000000,95.000000,,,,0.000000,4.000000,4.000000,4.000000,4.000000,4.000000,100.000000,,,,,,,,,,,,,,,,,,,,,,,,,,,,,,,,,,,,,,,,,,,,,,,,,,,,,,,,,,,,,,,
1656265724.205196,71.000000,0.000000,4203.077148,4244.102539,4078.974365,4064.102539,4205.641113,450.000000,4.000000,95.000000,,,,0.000000,4.000000,4.000000,4.000000,4.000000,4.000000,100.000000,,,,,,,,,,,,,,,,,,,,,,,,,,,,,,,,,,,,,,,,,,,,,,,,,,,,,,,,,,,,,,,
1656265724.213110,72.000000,0.000000,4222.563965,4243.589844,4086.153809,4065.641113,4209.230957,450.000000,4.000000,95.000000,,,,0.000000,4.000000,4.000000,4.000000,4.000000,4.000000,100.000000,,,,,,,,,,,,,,,,,,,,,,,,,,,,,,,,,,,,,,,,,,,,,,,,,,,,,,,,,,,,,,,
1656265724.220924,73.000000,0.000000,4248.717773,4224.615234,4100.000000,4063.589844,4189.743652,16158.000000,4.000000,95.000000,,,,0.000000,4.000000,4.000000,4.000000,4.000000,4.000000,100.000000,,,,,,,,,,,,,,,,,,,,,,,,,,,,,,,,,,,,,,,,,,,,,,,,,,,,,,,,,,,,,,,
1656265724.228739,74.000000,0.000000,4216.410156,4183.589844,4084.102539,4054.871826,4168.717773,450.000000,4.000000,95.000000,,,,0.000000,4.000000,4.000000,4.000000,4.000000,4.000000,100.000000,,,,,,,,,,,,,,,,,,,,,,,,,,,,,,,,,,,,,,,,,,,,,,,,,,,,,,,,,,,,,,,
1656265724.236453,75.000000,0.000000,4205.128418,4195.897461,4094.871826,4067.692383,4178.461426,16111.000000,4.000000,95.000000,,,,0.000000,4.000000,4.000000,4.000000,4.000000,4.000000,100.000000,,,,,,,,,,,,,,,,,,,,,,,,,,,,,,,,,,,,,,,,,,,,,,,,,,,,,,,,,,,,,,,
1656265724.244368,76.000000,0.000000,4247.179688,4243.077148,4112.307617,4060.000000,4191.282227,450.000000,4.000000,95.000000,,,,0.000000,4.000000,4.000000,4.000000,4.000000,4.000000,100.000000,,,,,,,,,,,,,,,,,,,,,,,,,,,,,,,,,,,,,,,,,,,,,,,,,,,,,,,,,,,,,,,
1656265724.252182,77.000000,0.000000,4267.692383,4229.230957,4087.692383,4044.102539,4204.615234,450.000000,4.000000,95.000000,,,,0.000000,4.000000,4.000000,4.000000,4.000000,4.000000,100.000000,,,,,,,,,,,,,,,,,,,,,,,,,,,,,,,,,,,,,,,,,,,,,,,,,,,,,,,,,,,,,,,
1656265724.259996,78.000000,0.000000,4222.051270,4166.666504,4071.281982,4044.615479,4185.641113,450.000000,4.000000,95.000000,,,,0.000000,4.000000,4.000000,4.000000,4.000000,4.000000,100.000000,,,,,,,,,,,,,,,,,,,,,,,,,,,,,,,,,,,,,,,,,,,,,,,,,,,,,,,,,,,,,,,
1656265724.267711,79.000000,0.000000,4168.717773,4143.589844,4066.666748,4021.025635,4142.051270,16111.000000,4.000000,95.000000,,,,0.000000,4.000000,4.000000,4.000000,4.000000,4.000000,100.000000,,,,,,,,,,,,,,,,,,,,,,,,,,,,,,,,,,,,,,,,,,,,,,,,,,,,,,,,,,,,,,,
1656265724.275625,80.000000,0.000000,4205.128418,4176.922852,4062.051270,4024.615479,4173.846191,450.000000,4.000000,95.000000,,,,0.000000,4.000000,4.000000,4.000000,4.000000,4.000000,100.000000,,,,,,,,,,,,,,,,,,,,,,,,,,,,,,,,,,,,,,,,,,,,,,,,,,,,,,,,,,,,,,,
1656265724.283440,81.000000,0.000000,4271.282227,4187.692383,4057.435791,4067.692383,4216.922852,450.000000,4.000000,95.000000,,,,0.000000,4.000000,4.000000,4.000000,4.000000,4.000000,100.000000,,,,,,,,,,,,,,,,,,,,,,,,,,,,,,,,,,,,,,,,,,,,,,,,,,,,,,,,,,,,,,,
1656265724.291354,82.000000,0.000000,4273.846191,4176.410156,4056.410156,4080.512939,4201.025879,450.000000,4.000000,95.000000,,,,0.000000,4.000000,4.000000,4.000000,4.000000,4.000000,100.000000,,,,,,,,,,,,,,,,,,,,,,,,,,,,,,,,,,,,,,,,,,,,,,,,,,,,,,,,,,,,,,,
1656265724.299168,83.000000,0.000000,4227.692383,4191.794922,4063.076904,4057.435791,4184.102539,16111.000000,4.000000,95.000000,,,,0.000000,4.000000,4.000000,4.000000,4.000000,4.000000,100.000000,,,,,,,,,,,,,,,,,,,,,,,,,,,,,,,,,,,,,,,,,,,,,,,,,,,,,,,,,,,,,,,
1656265724.306883,84.000000,0.000000,4184.102539,4175.897461,4061.538574,4030.256348,4165.128418,450.000000,4.000000,95.000000,,,,0.000000,4.000000,4.000000,4.000000,4.000000,4.000000,100.000000,,,,,,,,,,,,,,,,,,,,,,,,,,,,,,,,,,,,,,,59.417107,10.077427,5.674443,12.105524,7.359233,2.330073,2.941652,2.416644,5.318824,4.359651,11.844072,7.497368,4.021111,2.560246,2.479842,5.702611,6.791079,3.860479,4.405159,3.069800,32.351921,2.699052,2.425281,6.968153,2.970479
1656265724.314697,85.000000,0.000000,4199.487305,4168.205078,4059.487061,4048.718018,4174.358887,450.000000,4.000000,95.000000,,,,0.000000,4.000000,4.000000,4.000000,4.000000,4.000000,100.000000,,,,,,,,,,,,,,,,,,,,,,,,,,,,,,,,,,,,,,,,,,,,,,,,,,,,,,,,,,,,,,,
1656265724.322412,86.000000,0.000000,4244.615234,4223.589844,4058.461426,4070.769287,4230.256348,450.000000,4.000000,95.000000,,,,0.000000,4.000000,4.000000,4.000000,4.000000,4.000000,100.000000,,,,,,,,,,,,,,,,,,,,,,,,,,,,,,,,,,,,,,,,,,,,,,,,,,,,,,,,,,,,,,,
1656265724.330326,87.000000,0.000000,4255.384766,4238.974121,4072.820557,4063.076904,4241.025879,16111.000000,4.000000,95.000000,,,,0.000000,4.000000,4.000000,4.000000,4.000000,4.000000,100.000000,,,,,,,,,,,,,,,,,,,,,,,,,,,,,,,,,,,,,,,,,,,,,,,,,,,,,,,,,,,,,,,
1656265724.338141,88.000000,0.000000,4245.641113,4192.307617,4088.205078,4063.076904,4190.256348,450.000000,4.000000,95.000000,,,,0.000000,4.000000,4.000000,4.000000,4.000000,4.000000,100.000000,,,,,,,,,,,,,,,,,,,,,,,,,,,,,,,,,,,,,,,,,,,,,,,,,,,,,,,,,,,,,,,
1656265724.346055,89.000000,0.000000,4226.153809,4166.153809,4073.333252,4055.384521,4153.846191,450.000000,4.000000,95.000000,,,,0.000000,4.000000,4.000000,4.000000,4.000000,4.000000,100.000000,,,,,,,,,,,,,,,,,,,,,,,,,,,,,,,,,,,,,,,,,,,,,,,,,,,,,,,,,,,,,,,
1656265724.353869,90.000000,0.000000,4236.922852,4193.333496,4078.974365,4067.692383,4186.153809,450.000000,4.000000,95.000000,,,,0.000000,4.000000,4.000000,4.000000,4.000000,4.000000,100.000000,,,,,,,,,,,,,,,,,,,,,,,,,,,,,,,,,,,,,,,,,,,,,,,,,,,,,,,,,,,,,,,
1656265724.361684,91.000000,0.000000,4265.128418,4222.051270,4095.384521,4094.871826,4217.948730,16111.000000,4.000000,95.000000,,,,0.000000,4.000000,4.000000,4.000000,4.000000,4.000000,100.000000,,,,,,,,,,,,,,,,,,,,,,,,,,,,,,,,,,,,,,,,,,,,,,,,,,,,,,,,,,,,,,,
1656265724.369398,92.000000,0.000000,4255.897461,4226.666504,4088.205078,4073.333252,4199.487305,450.000000,4.000000,95.000000,,,,0.000000,4.000000,4.000000,4.000000,4.000000,4.000000,100.000000,,,,,,,,,,,,,,,,,,,,,,,,,,,,,,,,,,,,,,,,,,,,,,,,,,,,,,,,,,,,,,,
1656265724.377213,93.000000,0.000000,4253.333496,4211.282227,4064.615479,4046.666748,4204.615234,450.000000,4.000000,95.000000,,,,0.000000,4.000000,4.000000,4.000000,4.000000,4.000000,100.000000,,,,,,,,,,,,,,,,,,,,,,,,,,,,,,,,,,,,,,,,,,,,,,,,,,,,,,,,,,,,,,,
1656265724.384927,94.000000,0.000000,4265.128418,4170.256348,4042.051270,4050.769287,4219.487305,450.000000,4.000000,95.000000,,,,0.000000,4.000000,4.000000,4.000000,4.000000,4.000000,100.000000,,,,,,,,,,,,,,,,,,,,,,,,,,,,,,,,,,,,,,,,,,,,,,,,,,,,,,,,,,,,,,,
1656265724.392741,95.000000,0.000000,4264.102539,4180.512695,4055.384521,4062.564209,4219.487305,16111.000000,4.000000,95.000000,,,,0.000000,4.000000,4.000000,4.000000,4.000000,4.000000,100.000000,,,,,,,,,,,,,,,,,,,,,,,,,,,,,,,,,,,,,,,,,,,,,,,,,,,,,,,,,,,,,,,
1656265724.400456,96.000000,0.000000,4249.743652,4207.179688,4057.435791,4060.000000,4222.051270,450.000000,4.000000,95.000000,,,,0.000000,4.000000,4.000000,4.000000,4.000000,4.000000,100.000000,,,,,,,,,,,,,,,,,,,,,,,,,,,,,,,,,,,,,,,,,,,,,,,,,,,,,,,,,,,,,,,
1656265724.408270,97.000000,0.000000,4221.538574,4175.897461,4043.076904,4039.487061,4203.589844,450.000000,4.000000,95.000000,,,,0.000000,4.000000,4.000000,4.000000,4.000000,4.000000,100.000000,,,,,,,,,,,,,,,,,,,,,,,,,,,,,,,,,,,,,,,,,,,,,,,,,,,,,,,,,,,,,,,
1656265724.415985,98.000000,0.000000,4225.128418,4184.102539,4067.179443,4054.871826,4197.436035,450.000000,4.000000,95.000000,,,,0.000000,4.000000,4.000000,4.000000,4.000000,4.000000,100.000000,,,,,,,,,,,,,,,,,,,,,,,,,,,,,,,,,,,,,,,,,,,,,,,,,,,,,,,,,,,,,,,
1656265724.423799,99.000000,0.000000,4262.051270,4225.641113,4074.358887,4089.230713,4211.794922,16111.000000,4.000000,95.000000,,,,0.000000,4.000000,4.000000,4.000000,4.000000,4.000000,100.000000,,,,,,,,,,,,,,,,,,,,,,,,,,,,,,,,,,,,,,,,,,,,,,,,,,,,,,,,,,,,,,,
1656265724.431514,100.000000,0.000000,4276.410156,4221.025879,4073.333252,4089.230713,4211.282227,450.000000,4.000000,95.000000,,,,0.000000,4.000000,4.000000,4.000000,4.000000,4.000000,100.000000,,,,,,,,,,,,,,,,,,,,,,,,,,,,,,,,,,,,,,,49.086761,9.129611,5.641057,12.799035,6.820163,2.348923,3.293206,2.179743,5.332156,4.228227,10.854452,7.276594,3.612158,2.644887,2.284719,6.097267,6.388725,3.713295,4.997760,2.732358,27.107962,2.497800,2.763385,6.357300,2.753452
1656265724.439428,101.000000,0.000000,4226.666504,4195.384766,4078.974365,4058.974365,4198.461426,450.000000,4.000000,95.000000,,,,0.000000,4.000000,4.000000,4.000000,4.000000,4.000000,100.000000,,,,,,,,,,,,,,,,,,,,,,,,,,,,,,,,,,,,,,,,,,,,,,,,,,,,,,,,,,,,,,,
1656265724.447243,102.000000,0.000000,4176.410156,4177.436035,4057.948730,4025.128174,4174.358887,450.000000,4.000000,95.000000,,,,0.000000,4.000000,4.000000,4.000000,4.000000,4.000000,100.000000,,,,,,,,,,,,,,,,,,,,,,,,,,,,,,,,,,,,,,,,,,,,,,,,,,,,,,,,,,,,,,,
1656265724.455157,103.000000,0.000000,4229.743652,4199.487305,4065.641113,4046.153809,4185.128418,16111.000000,4.000000,95.000000,,,,0.000000,4.000000,4.000000,4.000000,4.000000,4.000000,100.000000,,,,,,,,,,,,,,,,,,,,,,,,,,,,,,,,,,,,,,,,,,,,,,,,,,,,,,,,,,,,,,,
1656265724.463071,104.000000,0.000000,4294.358887,4237.948730,4082.051270,4093.846191,4233.846191,450.000000,4.000000,95.000000,,,,0.000000,4.000000,4.000000,4.000000,4.000000,4.000000,100.000000,,,,,,,,,,,,,,,,,,,,,,,,,,,,,,,,,,,,,,,,,,,,,,,,,,,,,,,,,,,,,,,
1656265724.470886,105.000000,0.000000,4279.487305,4247.179688,4065.641113,4095.384521,4244.102539,450.000000,4.000000,95.000000,,,,0.000000,4.000000,4.000000,4.000000,4.000000,4.000000,100.000000,,,,,,,,,,,,,,,,,,,,,,,,,,,,,,,,,,,,,,,,,,,,,,,,,,,,,,,,,,,,,,,
1656265724.478800,106.000000,0.000000,4240.512695,4217.948730,4074.358887,4054.358887,4198.974121,450.000000,4.000000,95.000000,,,,0.000000,4.000000,4.000000,4.000000,4.000000,4.000000,100.000000,,,,,,,,,,,,,,,,,,,,,,,,,,,,,,,,,,,,,,,,,,,,,,,,,,,,,,,,,,,,,,,
1656265724.486614,107.000000,0.000000,4211.282227,4172.820313,4091.281982,4017.948730,4164.102539,16111.000000,4.000000,95.000000,,,,0.000000,4.000000,4.000000,4.000000,4.000000,4.000000,100.000000,,,,,,,,,,,,,,,,,,,,,,,,,,,,,,,,,,,,,,,,,,,,,,,,,,,,,,,,,,,,,,,
1656265724.494429,108.000000,0.000000,4230.769043,4196.410156,4082.051270,4031.281982,4188.205078,450.000000,4.000000,95.000000,,,,0.000000,4.000000,4.000000,4.000000,4.000000,4.000000,100.000000,,,,,,,,,,,,,,,,,,,,,,,,,,,,,,,,,,,,,,,,,,,,,,,,,,,,,,,,,,,,,,,
1656265724.502143,109.000000,0.000000,4264.102539,4245.128418,4071.794922,4055.384521,4214.358887,450.000000,4.000000,95.000000,,,,0.000000,4.000000,4.000000,4.000000,4.000000,4.000000,100.000000,,,,,,,,,,,,,,,,,,,,,,,,,,,,,,,,,,,,,,,,,,,,,,,,,,,,,,,,,,,,,,,
1656265724.509958,110.000000,0.000000,4241.538574,4230.256348,4072.307617,4053.333252,4214.358887,450.000000,4.000000,95.000000,,,,0.000000,4.000000,4.000000,4.000000,4.000000,4.000000,100.000000,,,,,,,,,,,,,,,,,,,,,,,,,,,,,,,,,,,,,,,,,,,,,,,,,,,,,,,,,,,,,,,
1656265724.517672,111.000000,0.000000,4209.743652,4188.717773,4046.153809,4051.281982,4201.538574,16111.000000,4.000000,95.000000,,,,0.000000,4.000000,4.000000,4.000000,4.000000,4.000000,100.000000,,,,,,,,,,,,,,,,,,,,,,,,,,,,,,,,,,,,,,,,,,,,,,,,,,,,,,,,,,,,,,,
1656265724.525487,112.000000,0.000000,4199.487305,4161.538574,4006.666748,4034.358887,4155.897461,450.000000,4.000000,95.000000,,,,0.000000,4.000000,4.000000,4.000000,4.000000,4.000000,100.000000,,,,,,,,,,,,,,,,,,,,,,,,,,,,,,,,,,,,,,,,,,,,,,,,,,,,,,,,,,,,,,,
1656265724.533201,113.000000,0.000000,4216.410156,4179.487305,4029.230713,4017.948730,4148.205078,450.000000,4.000000,95.000000,,,,0.000000,4.000000,4.000000,4.000000,4.000000,4.000000,100.000000,,,,,,,,,,,,,,,,,,,,,,,,,,,,,,,,,,,,,,,,,,,,,,,,,,,,,,,,,,,,,,,
1656265724.541015,114.000000,0.000000,4241.025879,4209.230957,4070.769287,4033.846191,4192.820313,450.000000,4.000000,95.000000,,,,0.000000,4.000000,4.000000,4.000000,4.000000,4.000000,100.000000,,,,,,,,,,,,,,,,,,,,,,,,,,,,,,,,,,,,,,,,,,,,,,,,,,,,,,,,,,,,,,,
1656265724.548730,115.000000,0.000000,4231.794922,4201.025879,4058.974365,4053.846191,4203.589844,16111.000000,4.000000,95.000000,,,,0.000000,4.000000,4.000000,4.000000,4.000000,4.000000,100.000000,,,,,,,,,,,,,,,,,,,,,,,,,,,,,,,,,,,,,,,,,,,,,,,,,,,,,,,,,,,,,,,
1656265724.556544,116.000000,0.000000,4220.000000,4207.692383,4063.076904,4050.256348,4196.410156,450.000000,4.000000,95.000000,,,,0.000000,4.000000,4.000000,4.000000,4.000000,4.000000,100.000000,,,,,,,,,,,,,,,,,,,,,,,,,,,,,,,,,,,,,,,34.729511,7.553202,5.328854,13.337297,6.287386,2.287885,3.811539,1.951265,5.526366,4.098980,9.067009,6.436242,3.075337,2.693542,2.054101,5.848389,5.460889,3.492163,5.279584,2.489328,19.476038,2.246311,3.048603,5.829253,2.665443
1656265724.564259,117.000000,0.000000,4220.000000,4234.358887,4090.769287,4032.820557,4196.410156,450.000000,4.000000,95.000000,,,,0.000000,4.000000,4.000000,4.000000,4.000000,4.000000,100.000000,,,,,,,,,,,,,,,,,,,,,,,,,,,,,,,,,,,,,,,,,,,,,,,,,,,,,,,,,,,,,,,
1656265724.572073,118.000000,0.000000,4233.333496,4229.743652,4094.358887,4044.615479,4201.538574,450.000000,4.000000,95.000000,,,,0.000000,4.000000,4.000000,4.000000,4.000000,4.000000,100.000000,,,,,,,,,,,,,,,,,,,,,,,,,,,,,,,,,,,,,,,,,,,,,,,,,,,,,,,,,,,,,,,
1656265724.579788,119.000000,0.000000,4232.307617,4201.025879,4073.333252,4054.358887,4207.179688,16111.000000,4.000000,95.000000,,,,0.000000,4.000000,4.000000,4.000000,4.000000,4.000000,100.000000,,,,,,,,,,,,,,,,,,,,,,,,,,,,,,,,,,,,,,,,,,,,,,,,,,,,,,,,,,,,,,,
1656265724.587602,120.000000,0.000000,4200.000000,4184.102539,4054.871826,4038.974365,4196.410156,450.000000,4.000000,95.000000,,,,0.000000,4.000000,4.000000,4.000000,4.000000,4.000000,100.000000,,,,,,,,,,,,,,,,,,,,,,,,,,,,,,,,,,,,,,,,,,,,,,,,,,,,,,,,,,,,,,,
1656265724.595317,121.000000,0.000000,4215.897461,4204.615234,4081.025635,4052.307617,4182.051270,450.000000,4.000000,95.000000,,,,0.000000,4.000000,4.000000,4.000000,4.000000,4.000000,100.000000,,,,,,,,,,,,,,,,,,,,,,,,,,,,,,,,,,,,,,,,,,,,,,,,,,,,,,,,,,,,,,,
1656265724.603131,122.000000,0.000000,4262.051270,4243.589844,4111.794922,4057.435791,4176.922852,450.000000,4.000000,95.000000,,,,0.000000,4.000000,4.000000,4.000000,4.000000,4.000000,100.000000,,,,,,,,,,,,,,,,,,,,,,,,,,,,,,,,,,,,,,,,,,,,,,,,,,,,,,,,,,,,,,,
1656265724.610846,123.000000,0.000000,4268.205078,4252.820313,4093.846191,4041.538574,4197.436035,16111.000000,4.000000,95.000000,,,,0.000000,4.000000,4.000000,4.000000,4.000000,4.000000,100.000000,,,,,,,,,,,,,,,,,,,,,,,,,,,,,,,,,,,,,,,,,,,,,,,,,,,,,,,,,,,,,,,
1656265724.618660,124.000000,0.000000,4235.897461,4203.077148,4064.615479,4052.820557,4207.692383,450.000000,4.000000,95.000000,,,,0.000000,4.000000,4.000000,4.000000,4.000000,4.000000,100.000000,,,,,,,,,,,,,,,,,,,,,,,,,,,,,,,,,,,,,,,,,,,,,,,,,,,,,,,,,,,,,,,
1656265724.626375,125.000000,0.000000,4200.000000,4158.461426,4070.256348,4046.666748,4169.230957,450.000000,4.000000,95.000000,,,,0.000000,4.000000,4.000000,4.000000,4.000000,4.000000,100.000000,,,,,,,,,,,,,,,,,,,,,,,,,,,,,,,,,,,,,,,,,,,,,,,,,,,,,,,,,,,,,,,
1656265724.634289,126.000000,0.000000,4232.307617,4203.589844,4097.436035,4035.897461,4175.384766,450.000000,4.000000,95.000000,,,,0.000000,4.000000,4.000000,4.000000,4.000000,4.000000,100.000000,,,,,,,,,,,,,,,,,,,,,,,,,,,,,,,,,,,,,,,,,,,,,,,,,,,,,,,,,,,,,,,
1656265724.642103,127.000000,0.000000,4298.461426,4246.153809,4090.769287,4064.102539,4230.769043,243.000000,4.000000,95.000000,,,,0.000000,4.000000,4.000000,4.000000,4.000000,4.000000,100.000000,,,,,,,,,,,,,,,,,,,,,,,,,,,,,,,,,,,,,,,,,,,,,,,,,,,,,,,,,,,,,,,
1656265724.650018,0.000000,0.000000,4291.794922,4208.717773,4070.769287,4084.615479,4243.589844,450.000000,4.000000,95.000000,,,,0.000000,4.000000,4.000000,4.000000,4.000000,4.000000,100.000000,,,,,,,,,,,,,,,,,,,,,,,,,,,,,,,,,,,,,,,,,,,,,,,,,,,,,,,,,,,,,,,
1656265724.657832,1.000000,0.000000,4226.153809,4177.436035,4065.128174,4037.948730,4202.563965,450.000000,4.000000,95.000000,,,,0.000000,4.000000,4.000000,4.000000,4.000000,4.000000,100.000000,,,,,,,,,,,,,,,,,,,,,,,,,,,,,,,,,,,,,,,,,,,,,,,,,,,,,,,,,,,,,,,
1656265724.665746,2.000000,0.000000,4172.820313,4178.461426,4048.718018,3974.871826,4157.436035,16149.000000,4.000000,95.000000,,,,0.000000,4.000000,4.000000,4.000000,4.000000,4.000000,100.000000,,,,,,,,,,,,,,,,,,,,,,,,,,,,,,,,,,,,,,,,,,,,,,,,,,,,,,,,,,,,,,,
1656265724.673561,3.000000,0.000000,4193.333496,4190.256348,4058.974365,4018.461426,4168.205078,450.000000,4.000000,95.000000,,,,0.000000,4.000000,4.000000,4.000000,4.000000,4.000000,100.000000,,,,,,,,,,,,,,,,,,,,,,,,,,,,,,,,,,,,,,,,,,,,,,,,,,,,,,,,,,,,,,,
1656265724.681475,4.000000,0.000000,4253.333496,4201.025879,4083.076904,4091.794922,4197.948730,16081.000000,4.000000,95.000000,,,,0.000000,4.000000,4.000000,4.000000,4.000000,4.000000,100.000000,1.000000,75.000000,3.000000,3.000000,4.000000,3.000000,3.000000,,,,,,,,,,,,,,,,,,,,,,,,,,,,,,,,20.775396,5.886225,4.851850,13.489719,5.850908,2.150496,4.428569,1.712895,6.003402,4.087539,6.942062,5.186438,2.556587,2.606066,1.808609,5.158338,4.339408,3.156039,5.186347,2.348917,11.920351,1.999640,3.117146,5.526742,2.784490
1656265724.689289,5.000000,0.000000,4262.563965,4203.077148,4081.025635,4083.076904,4184.102539,450.000000,4.000000,95.000000,,,,0.000000,4.000000,4.000000,4.000000,4.000000,4.000000,100.000000,,,,,,,,,,,,,,,,,,,,,,,,,,,,,,,,,,,,,,,,,,,,,,,,,,,,,,,,,,,,,,,
1656265724.697004,6.000000,0.000000,4224.615234,4205.128418,4084.615479,4057.948730,4148.717773,16129.000000,4.000000,95.000000,,,,0.000000,4.000000,4.000000,4.000000,4.000000,4.000000,100.000000,,,,,,,,,,,,,,,,,,,,,,,,,,,,,,,,,,,,,,,,,,,,,,,,,,,,,,,,,,,,,,,
1656265724.704818,7.000000,0.000000,4186.666504,4196.922852,4082.051270,4039.487061,4114.871582,450.000000,4.000000,95.000000,,,,0.000000,4.000000,4.000000,4.000000,4.000000,4.000000,100.000000,,,,,,,,,,,,,,,,,,,,,,,,,,,,,,,,,,,,,,,,,,,,,,,,,,,,,,,,,,,,,,,
1656265724.712533,8.000000,0.000000,4209.230957,4216.922852,4077.435791,4038.461426,4141.025879,450.000000,4.000000,95.000000,,,,0.000000,4.000000,4.000000,4.000000,4.000000,4.000000,100.000000,,,,,,,,,,,,,,,,,,,,,,,,,,,,,,,,,,,,,,,,,,,,,,,,,,,,,,,,,,,,,,,
1656265724.720347,9.000000,0.000000,4252.820313,4242.563965,4075.384521,4072.307617,4204.102539,16078.000000,4.000000,95.000000,,,,0.000000,4.000000,4.000000,4.000000,4.000000,4.000000,100.000000,,,,,,,,,,,,,,,,,,,,,,,,,,,,,,,,,,,,,,,,,,,,,,,,,,,,,,,,,,,,,,,
1656265724.728062,10.000000,0.000000,4244.102539,4230.769043,4073.846191,4078.461426,4197.948730,450.000000,4.000000,95.000000,,,,0.000000,4.000000,4.000000,4.000000,4.000000,4.000000,100.000000,,,,,,,,,,,,,,,,,,,,,,,,,,,,,,,,,,,,,,,,,,,,,,,,,,,,,,,,,,,,,,,
1656265724.735876,11.000000,0.000000,4237.948730,4237.948730,4080.512939,4069.230713,4189.230957,16163.000000,4.000000,95.000000,,,,0.000000,4.000000,4.000000,4.000000,4.000000,4.000000,100.000000,,,,,,,,,,,,,,,,,,,,,,,,,,,,,,,,,,,,,,,,,,,,,,,,,,,,,,,,,,,,,,,
1656265724.743591,12.000000,0.000000,4256.410156,4237.948730,4066.666748,4075.384521,4230.256348,450.000000,4.000000,95.000000,,,,0.000000,4.000000,4.000000,4.000000,4.000000,4.000000,100.000000,,,,,,,,,,,,,,,,,,,,,,,,,,,,,,,,,,,,,,,,,,,,,,,,,,,,,,,,,,,,,,,
1656265724.751405,13.000000,0.000000,4256.410156,4220.512695,4055.897461,4063.076904,4226.666504,450.000000,4.000000,95.000000,,,,0.000000,4.000000,4.000000,4.000000,4.000000,4.000000,100.000000,,,,,,,,,,,,,,,,,,,,,,,,,,,,,,,,,,,,,,,,,,,,,,,,,,,,,,,,,,,,,,,
1656265724.759120,14.000000,0.000000,4227.179688,4211.282227,4056.923096,4029.230713,4174.358887,450.000000,4.000000,95.000000,,,,0.000000,4.000000,4.000000,4.000000,4.000000,4.000000,100.000000,,,,,,,,,,,,,,,,,,,,,,,,,,,,,,,,,,,,,,,,,,,,,,,,,,,,,,,,,,,,,,,
1656265724.767034,15.000000,0.000000,4205.128418,4178.461426,4044.102539,4022.051270,4165.641113,16163.000000,4.000000,95.000000,,,,0.000000,4.000000,4.000000,4.000000,4.000000,4.000000,100.000000,,,,,,,,,,,,,,,,,,,,,,,,,,,,,,,,,,,,,,,,,,,,,,,,,,,,,,,,,,,,,,,
1656265724.774848,16.000000,0.000000,4223.589844,4176.410156,4054.358887,4042.051270,4208.205078,0.000000,4.000000,95.000000,,,,0.000000,4.000000,4.000000,4.000000,4.000000,4.000000,100.000000,,,,,,,,,,,,,,,,,,,,,,,,,,,,,,,,,,,,,,,,,,,,,,,,,,,,,,,,,,,,,,,
1656265724.782763,17.000000,0.000000,4235.897461,4228.205078,4083.076904,4034.871826,4215.384766,0.000000,4.000000,95.000000,,,,0.000000,4.000000,4.000000,4.000000,4.000000,4.000000,100.000000,,,,,,,,,,,,,,,,,,,,,,,,,,,,,,,,,,,,,,,,,,,,,,,,,,,,,,,,,,,,,,,
1656265724.790577,18.000000,0.000000,4237.436035,4263.077148,4090.769287,4036.410156,4197.436035,0.000000,4.000000,95.000000,,,,0.000000,4.000000,4.000000,4.000000,4.000000,4.000000,100.000000,,,,,,,,,,,,,,,,,,,,,,,,,,,,,,,,,,,,,,,,,,,,,,,,,,,,,,,,,,,,,,,
1656265724.798491,19.000000,0.000000,4238.461426,4234.358887,4080.512939,4055.897461,4189.743652,0.000000,4.000000,95.000000,,,,0.000000,4.000000,4.000000,4.000000,4.000000,4.000000,100.000000,,,,,,,,,,,,,,,,,,,,,,,,,,,,,,,,,,,,,,,,,,,,,,,,,,,,,,,,,,,,,,,
1656265724.806306,20.000000,0.000000,4213.846191,4180.000000,4069.743652,4046.153809,4177.436035,0.000000,4.000000,95.000000,,,,0.000000,4.000000,4.000000,4.000000,4.000000,4.000000,100.000000,,,,,,,,,,,,,,,,,,,,,,,,,,,,,,,,,,,,,,,10.494803,4.575017,4.302838,13.126719,5.589845,2.029262,5.063430,1.457640,6.759280,4.259451,5.052557,4.009376,2.256115,2.380659,1.584307,4.413082,3.414960,2.740747,4.781919,2.296776,6.326141,1.817664,2.943708,5.475481,3.105967
1656265724.814220,21.000000,0.000000,4222.563965,4207.179688,4078.974365,4055.897461,4192.820313,0.000000,4.000000,95.000000,,,,0.000000,4.000000,4.000000,4.000000,4.000000,4.000000,100.000000,,,,,,,,,,,,,,,,,,,,,,,,,,,,,,,,,,,,,,,,,,,,,,,,,,,,,,,,,,,,,,,
1656265724.822034,22.000000,0.000000,4277.948730,4279.487305,4074.871826,4088.205078,4229.743652,0.000000,4.000000,95.000000,,,,0.000000,4.000000,4.000000,4.000000,4.000000,4.000000,100.000000,,,,,,,,,,,,,,,,,,,,,,,,,,,,,,,,,,,,,,,,,,,,,,,,,,,,,,,,,,,,,,,
1656265724.829949,23.000000,0.000000,4286.153809,4278.974121,4064.102539,4101.025879,4242.051270,0.000000,4.000000,95.000000,,,,0.000000,4.000000,4.000000,4.000000,4.000000,4.000000,100.000000,,,,,,,,,,,,,,,,,,,,,,,,,,,,,,,,,,,,,,,,,,,,,,,,,,,,,,,,,,,,,,,
1656265724.837763,24.000000,0.000000,4237.948730,4221.025879,4087.179443,4077.948730,4204.615234,0.000000,4.000000,95.000000,,,,0.000000,4.000000,4.000000,4.000000,4.000000,4.000000,100.000000,,,,,,,,,,,,,,,,,,,,,,,,,,,,,,,,,,,,,,,,,,,,,,,,,,,,,,,,,,,,,,,
1656265724.845677,25.000000,0.000000,4193.333496,4189.743652,4089.230713,4037.435791,4154.358887,0.000000,4.000000,95.000000,,,,0.000000,4.000000,4.000000,4.000000,4.000000,4.000000,100.000000,,,,,,,,,,,,,,,,,,,,,,,,,,,,,,,,,,,,,,,,,,,,,,,,,,,,,,,,,,,,,,,
1656265724.853492,26.000000,0.000000,4207.692383,4217.948730,4072.820557,4062.051270,4185.641113,0.000000,4.000000,95.000000,,,,0.000000,4.000000,4.000000,4.000000,4.000000,4.000000,100.000000,,,,,,,,,,,,,,,,,,,,,,,,,,,,,,,,,,,,,,,,,,,,,,,,,,,,,,,,,,,,,,,
1656265724.861206,27.000000,0.000000,4262.563965,4248.717773,4077.435791,4114.358887,4254.358887,0.000000,4.000000,95.000000,,,,0.000000,4.000000,4.000000,4.000000,4.000000,4.000000,100.000000,,,,,,,,,,,,,,,,,,,,,,,,,,,,,,,,,,,,,,,,,,,,,,,,,,,,,,,,,,,,,,,
1656265724.869021,28.000000,0.000000,4291.282227,4235.897461,4086.153809,4084.615479,4253.846191,0.000000,4.000000,95.000000,,,,0.000000,4.000000,4.000000,4.000000,4.000000,4.000000,100.000000,,,,,,,,,,,,,,,,,,,,,,,,,,,,,,,,,,,,,,,,,,,,,,,,,,,,,,,,,,,,,,,
1656265724.876735,29.000000,0.000000,4280.512695,4207.179688,4074.871826,4047.692383,4228.205078,0.000000,4.000000,95.000000,,,,0.000000,4.000000,4.000000,4.000000,4.000000,4.000000,100.000000,,,,,,,,,,,,,,,,,,,,,,,,,,,,,,,,,,,,,,,,,,,,,,,,,,,,,,,,,,,,,,,
1656265724.884550,30.000000,0.000000,4244.615234,4197.948730,4077.435791,4056.923096,4202.563965,0.000000,4.000000,95.000000,,,,0.000000,4.000000,4.000000,4.000000,4.000000,4.000000,100.000000,,,,,,,,,,,,,,,,,,,,,,,,,,,,,,,,,,,,,,,,,,,,,,,,,,,,,,,,,,,,,,,
1656265724.892264,31.000000,0.000000,4234.871582,4222.563965,4122.051270,4075.897461,4189.230957,0.000000,4.000000,95.000000,,,,0.000000,4.000000,4.000000,4.000000,4.000000,4.000000,100.000000,,,,,,,,,,,,,,,,,,,,,,,,,,,,,,,,,,,,,,,,,,,,,,,,,,,,,,,,,,,,,,,
1656265724.900079,32.000000,0.000000,4254.358887,4241.025879,4113.333496,4100.512695,4220.000000,0.000000,4.000000,95.000000,,,,0.000000,4.000000,4.000000,4.000000,4.000000,4.000000,100.000000,,,,,,,,,,,,,,,,,,,,,,,,,,,,,,,,,,,,,,,,,,,,,,,,,,,,,,,,,,,,,,,
1656265724.907793,33.000000,0.000000,4246.153809,4228.205078,4048.205078,4111.794922,4233.846191,0.000000,4.000000,95.000000,,,,0.000000,4.000000,4.000000,4.000000,4.000000,4.000000,100.000000,,,,,,,,,,,,,,,,,,,,,,,,,,,,,,,,,,,,,,,,,,,,,,,,,,,,,,,,,,,,,,,
1656265724.915707,34.000000,0.000000,4251.282227,4232.307617,4060.512939,4078.974365,4207.179688,0.000000,4.000000,95.000000,,,,0.000000,4.000000,4.000000,4.000000,4.000000,4.000000,100.000000,,,,,,,,,,,,,,,,,,,,,,,,,,,,,,,,,,,,,,,,,,,,,,,,,,,,,,,,,,,,,,,
1656265724.923522,35.000000,0.000000,4270.256348,4246.153809,4100.000000,4037.948730,4189.743652,0.000000,4.000000,95.000000,,,,0.000000,4.000000,4.000000,4.000000,4.000000,4.000000,100.000000,,,,,,,,,,,,,,,,,,,,,,,,,,,,,,,,,,,,,,,,,,,,,,,,,,,,,,,,,,,,,,,
1656265724.931436,36.000000,0.000000,4273.333496,4251.794922,4087.179443,4048.718018,4201.025879,0.000000,4.000000,95.000000,,,,0.000000,4.000000,4.000000,4.000000,4.000000,4.000000,100.000000,,,,,,,,,,,,,,,,,,,,,,,,,,,,,,,,,,,,,,,4.911016,3.838719,3.731348,12.315640,5.559644,2.073511,5.609488,1.219728,7.649095,4.599915,3.841046,3.386709,2.276471,2.098703,1.424478,3.932199,2.905952,2.308623,4.273932,2.323366,3.387705,1.826329,2.616343,5.590645,3.556201
1656265724.939251,37.000000,0.000000,4245.641113,4241.538574,4076.923096,4049.743652,4191.794922,0.000000,4.000000,95.000000,,,,0.000000,4.000000,4.000000,4.000000,4.000000,4.000000,100.000000,,,,,,,,,,,,,,,,,,,,,,,,,,,,,,,,,,,,,,,,,,,,,,,,,,,,,,,,,,,,,,,
1656265724.947165,38.000000,0.000000,4208.717773,4218.974121,4088.718018,4025.641113,4164.615234,0.000000,4.000000,95.000000,,,,0.000000,4.000000,4.000000,4.000000,4.000000,4.000000,100.000000,,,,,,,,,,,,,,,,,,,,,,,,,,,,,,,,,,,,,,,,,,,,,,,,,,,,,,,,,,,,,,,
1656265724.954979,39.000000,0.000000,4238.461426,4240.512695,4115.897461,4056.410156,4184.615234,0.000000,4.000000,95.000000,,,,0.000000,4.000000,4.000000,4.000000,4.000000,4.000000,100.000000,,,,,,,,,,,,,,,,,,,,,,,,,,,,,,,,,,,,,,,,,,,,,,,,,,,,,,,,,,,,,,,
1656265724.962894,40.000000,0.000000,4282.051270,4280.512695,4128.205078,4084.102539,4204.615234,0.000000,4.000000,95.000000,,,,0.000000,4.000000,4.000000,4.000000,4.000000,4.000000,100.000000,,,,,,,,,,,,,,,,,,,,,,,,,,,,,,,,,,,,,,,,,,,,,,,,,,,,,,,,,,,,,,,
1656265724.970708,41.000000,0.000000,4272.307617,4273.333496,4104.615234,4059.487061,4198.461426,0.000000,4.000000,95.000000,,,,0.000000,4.000000,4.000000,4.000000,4.000000,4.000000,100.000000,,,,,,,,,,,,,,,,,,,,,,,,,,,,,,,,,,,,,,,,,,,,,,,,,,,,,,,,,,,,,,,
1656265724.978622,42.000000,0.000000,4242.051270,4235.384766,4088.205078,4036.410156,4202.563965,0.000000,4.000000,95.000000,,,,0.000000,4.000000,4.000000,4.000000,4.000000,4.000000,100.000000,,,,,,,,,,,,,,,,,,,,,,,,,,,,,,,,,,,,,,,,,,,,,,,,,,,,,,,,,,,,,,,
1656265724.986437,43.000000,0.000000,4210.256348,4198.974121,4097.436035,4028.205078,4190.769043,0.000000,4.000000,95.000000,,,,0.000000,4.000000,4.000000,4.000000,4.000000,4.000000,100.000000,,,,,,,,,,,,,,,,,,,,,,,,,,,,,,,,,,,,,,,,,,,,,,,,,,,,,,,,,,,,,,,
1656265724.994351,44.000000,0.000000,4211.794922,4216.410156,4107.179688,4051.794922,4200.000000,0.000000,4.000000,95.000000,,,,0.000000,4.000000,4.000000,4.000000,4.000000,4.000000,100.000000,,,,,,,,,,,,,,,,,,,,,,,,,,,,,,,,,,,,,,,,,,,,,,,,,,,,,,,,,,,,,,,
1656265725.002165,45.000000,0.000000,4251.282227,4273.846191,4080.000000,4082.564209,4244.615234,0.000000,4.000000,95.000000,,,,0.000000,4.000000,4.000000,4.000000,4.000000,4.000000,100.000000,,,,,,,,,,,,,,,,,,,,,,,,,,,,,,,,,,,,,,,,,,,,,,,,,,,,,,,,,,,,,,,
1656265725.010080,46.000000,0.000000,4267.179688,4277.948730,4062.051270,4076.410156,4250.256348,0.000000,4.000000,95.000000,,,,0.000000,4.000000,4.000000,4.000000,4.000000,4.000000,100.000000,,,,,,,,,,,,,,,,,,,,,,,,,,,,,,,,,,,,,,,,,,,,,,,,,,,,,,,,,,,,,,,
1656265725.017894,47.000000,0.000000,4242.563965,4233.333496,4081.538574,4055.897461,4193.333496,0.000000,4.000000,95.000000,,,,0.000000,4.000000,4.000000,4.000000,4.000000,4.000000,100.000000,,,,,,,,,,,,,,,,,,,,,,,,,,,,,,,,,,,,,,,,,,,,,,,,,,,,,,,,,,,,,,,
1656265725.025808,48.000000,0.000000,4199.487305,4197.436035,4079.487061,4031.794922,4137.948730,0.000000,4.000000,95.000000,,,,0.000000,4.000000,4.000000,4.000000,4.000000,4.000000,100.000000,,,,,,,,,,,,,,,,,,,,,,,,,,,,,,,,,,,,,,,,,,,,,,,,,,,,,,,,,,,,,,,
1656265725.033623,49.000000,0.000000,4198.461426,4199.487305,4060.000000,4044.615479,4176.922852,0.000000,4.000000,95.000000,,,,0.000000,4.000000,4.000000,4.000000,4.000000,4.000000,100.000000,,,,,,,,,,,,,,,,,,,,,,,,,,,,,,,,,,,,,,,,,,,,,,,,,,,,,,,,,,,,,,,
1656265725.041337,50.000000,0.000000,4245.641113,4215.384766,4051.281982,4090.256348,4250.256348,0.000000,4.000000,95.000000,,,,0.000000,4.000000,4.000000,4.000000,4.000000,4.000000,100.000000,,,,,,,,,,,,,,,,,,,,,,,,,,,,,,,,,,,,,,,,,,,,,,,,,,,,,,,,,,,,,,,
1656265725.049152,51.000000,0.000000,4263.589844,4227.179688,4076.410156,4107.692383,4234.871582,0.000000,4.000000,95.000000,,,,0.000000,4.000000,4.000000,4.000000,4.000000,4.000000,100.000000,,,,,,,,,,,,,,,,,,,,,,,,,,,,,,,,,,,,,,,,,,,,,,,,,,,,,,,,,,,,,,,
1656265725.056966,52.000000,0.000000,4249.230957,4249.743652,4116.922852,4096.922852,4188.205078,0.000000,4.000000,95.000000,,,,0.000000,4.000000,4.000000,4.000000,4.000000,4.000000,100.000000,,,,,,,,,,,,,,,,,,,,,,,,,,,,,,,,,,,,,,,3.025321,3.624474,3.165150,11.314511,5.760664,2.355484,6.005924,1.036243,8.428382,5.027938,3.488106,3.530965,2.572690,1.866160,1.353296,3.904086,2.818932,1.899148,3.945707,2.426596,2.713159,2.158206,2.310313,5.752849,4.038907
1656265725.064681,53.000000,0.000000,4231.794922,4230.769043,4114.871582,4053.846191,4178.461426,0.000000,4.000000,95.000000,,,,0.000000,4.000000,4.000000,4.000000,4.000000,4.000000,100.000000,,,,,,,,,,,,,,,,,,,,,,,,,,,,,,,,,,,,,,,,,,,,,,,,,,,,,,,,,,,,,,,
1656265725.072395,54.000000,0.000000,4238.974121,4208.205078,4108.717773,4029.743652,4186.153809,0.000000,4.000000,95.000000,,,,0.000000,4.000000,4.000000,4.000000,4.000000,4.000000,100.000000,,,,,,,,,,,,,,,,,,,,,,,,,,,,,,,,,,,,,,,,,,,,,,,,,,,,,,,,,,,,,,,
1656265725.080210,55.000000,0.000000,4248.205078,4224.102539,4103.589844,4070.256348,4187.692383,0.000000,4.000000,95.000000,,,,0.000000,4.000000,4.000000,4.000000,4.000000,4.000000,100.000000,,,,,,,,,,,,,,,,,,,,,,,,,,,,,,,,,,,,,,,,,,,,,,,,,,,,,,,,,,,,,,,
1656265725.087924,56.000000,0.000000,4224.615234,4221.025879,4071.281982,4088.718018,4177.436035,0.000000,4.000000,95.000000,,,,0.000000,4.000000,4.000000,4.000000,4.000000,4.000000,100.000000,,,,,,,,,,,,,,,,,,,,,,,,,,,,,,,,,,,,,,,,,,,,,,,,,,,,,,,,,,,,,,,
1656265725.095738,57.000000,0.000000,4224.615234,4210.769043,4068.205078,4051.281982,4177.948730,0.000000,4.000000,95.000000,,,,0.000000,4.000000,4.000000,4.000000,4.000000,4.000000,100.000000,,,,,,,,,,,,,,,,,,,,,,,,,,,,,,,,,,,,,,,,,,,,,,,,,,,,,,,,,,,,,,,
1656265725.103453,58.000000,0.000000,4244.615234,4216.410156,4084.615479,4025.641113,4173.846191,0.000000,4.000000,95.000000,,,,0.000000,4.000000,4.000000,4.000000,4.000000,4.000000,100.000000,,,,,,,,,,,,,,,,,,,,,,,,,,,,,,,,,,,,,,,,,,,,,,,,,,,,,,,,,,,,,,,
1656265725.111367,59.000000,0.000000,4239.487305,4216.410156,4078.974365,4046.666748,4168.717773,0.000000,4.000000,95.000000,,,,0.000000,4.000000,4.000000,4.000000,4.000000,4.000000,100.000000,,,,,,,,,,,,,,,,,,,,,,,,,,,,,,,,,,,,,,,,,,,,,,,,,,,,,,,,,,,,,,,
1656265725.119182,60.000000,0.000000,4204.615234,4205.641113,4065.128174,4048.718018,4162.051270,0.000000,4.000000,95.000000,,,,0.000000,4.000000,4.000000,4.000000,4.000000,4.000000,100.000000,,,,,,,,,,,,,,,,,,,,,,,,,,,,,,,,,,,,,,,,,,,,,,,,,,,,,,,,,,,,,,,
1656265725.127096,61.000000,0.000000,4167.692383,4189.230957,4047.179443,4021.538574,4141.025879,0.000000,4.000000,95.000000,,,,0.000000,4.000000,4.000000,4.000000,4.000000,4.000000,100.000000,,,,,,,,,,,,,,,,,,,,,,,,,,,,,,,,,,,,,,,,,,,,,,,,,,,,,,,,,,,,,,,
1656265725.134910,62.000000,0.000000,4190.256348,4182.563965,4028.718018,4045.128174,4161.025879,0.000000,4.000000,95.000000,,,,0.000000,4.000000,4.000000,4.000000,4.000000,4.000000,100.000000,,,,,,,,,,,,,,,,,,,,,,,,,,,,,,,,,,,,,,,,,,,,,,,,,,,,,,,,,,,,,,,
1656265725.142825,63.000000,0.000000,4241.538574,4177.948730,4019.487061,4082.051270,4197.948730,0.000000,4.000000,95.000000,,,,0.000000,4.000000,4.000000,4.000000,4.000000,4.000000,100.000000,,,,,,,,,,,,,,,,,,,,,,,,,,,,,,,,,,,,,,,,,,,,,,,,,,,,,,,,,,,,,,,
1656265725.150639,64.000000,0.000000,4246.666504,4188.205078,4042.564209,4086.153809,4187.692383,450.000000,4.000000,95.000000,,,,0.000000,4.000000,4.000000,4.000000,4.000000,4.000000,100.000000,,,,,,,,,,,,,,,,,,,,,,,,,,,,,,,,,,,,,,,,,,,,,,,,,,,,,,,,,,,,,,,
1656265725.158553,65.000000,0.000000,4198.461426,4201.025879,4056.410156,4070.256348,4161.538574,450.000000,4.000000,95.000000,,,,0.000000,4.000000,4.000000,4.000000,4.000000,4.000000,100.000000,,,,,,,,,,,,,,,,,,,,,,,,,,,,,,,,,,,,,,,,,,,,,,,,,,,,,,,,,,,,,,,
1656265725.166368,66.000000,0.000000,4156.410156,4181.025879,4043.076904,4033.846191,4145.128418,16151.000000,4.000000,95.000000,,,,0.000000,4.000000,4.000000,4.000000,4.000000,4.000000,100.000000,,,,,,,,,,,,,,,,,,,,,,,,,,,,,,,,,,,,,,,,,,,,,,,,,,,,,,,,,,,,,,,
1656265725.174282,67.000000,0.000000,4205.641113,4187.179688,4074.871826,4048.205078,4161.025879,450.000000,4.000000,95.000000,,,,0.000000,4.000000,4.000000,4.000000,4.000000,4.000000,100.000000,,,,,,,,,,,,,,,,,,,,,,,,,,,,,,,,,,,,,,,,,,,,,,,,,,,,,,,,,,,,,,,
1656265725.182097,68.000000,0.000000,4285.128418,4218.461426,4103.589844,4095.897461,4204.102539,16173.000000,4.000000,95.000000,,,,0.000000,4.000000,4.000000,4.000000,4.000000,4.000000,100.000000,1.000000,75.000000,3.000000,3.000000,4.000000,3.000000,3.000000,,,,,,,,,,,,,,,,,,,,,,,,,,,,,,,,2.773285,3.683933,2.638971,10.470987,6.113731,2.845142,6.281730,0.943477,8.870818,5.443915,3.761914,4.294760,3.030855,1.742486,1.370430,4.245393,2.977206,1.563437,4.019222,2.604582,3.189124,2.868415,2.193611,5.911457,4.472544
1656265725.190011,69.000000,0.000000,4290.769043,4220.512695,4083.076904,4076.410156,4223.589844,450.000000,4.000000,95.000000,,,,0.000000,4.000000,4.000000,4.000000,4.000000,4.000000,100.000000,,,,,,,,,,,,,,,,,,,,,,,,,,,,,,,,,,,,,,,,,,,,,,,,,,,,,,,,,,,,,,,
1656265725.197825,70.000000,0.000000,4241.538574,4206.153809,4074.358887,4036.410156,4198.461426,16153.000000,4.000000,95.000000,,,,0.000000,4.000000,4.000000,4.000000,4.000000,4.000000,100.000000,,,,,,,,,,,,,,,,,,,,,,,,,,,,,,,,,,,,,,,,,,,,,,,,,,,,,,,,,,,,,,,
1656265725.205740,71.000000,0.000000,4202.051270,4175.384766,4079.487061,4024.615479,4156.410156,450.000000,4.000000,95.000000,,,,0.000000,4.000000,4.000000,4.000000,4.000000,4.000000,100.000000,,,,,,,,,,,,,,,,,,,,,,,,,,,,,,,,,,,,,,,,,,,,,,,,,,,,,,,,,,,,,,,
1656265725.213554,72.000000,0.000000,4229.230957,4177.948730,4076.923096,4026.666748,4172.307617,450.000000,4.000000,95.000000,,,,0.000000,4.000000,4.000000,4.000000,4.000000,4.000000,100.000000,,,,,,,,,,,,,,,,,,,,,,,,,,,,,,,,,,,,,,,,,,,,,,,,,,,,,,,,,,,,,,,
1656265725.221368,73.000000,0.000000,4258.461426,4224.615234,4064.615479,4054.358887,4217.948730,16139.000000,4.000000,95.000000,,,,0.000000,4.000000,4.000000,4.000000,4.000000,4.000000,100.000000,,,,,,,,,,,,,,,,,,,,,,,,,,,,,,,,,,,,,,,,,,,,,,,,,,,,,,,,,,,,,,,
1656265725.229083,74.000000,0.000000,4226.153809,4232.307617,4047.692383,4069.743652,4214.358887,450.000000,4.000000,95.000000,,,,0.000000,4.000000,4.000000,4.000000,4.000000,4.000000,100.000000,,,,,,,,,,,,,,,,,,,,,,,,,,,,,,,,,,,,,,,,,,,,,,,,,,,,,,,,,,,,,,,
1656265725.236797,75.000000,0.000000,4227.692383,4218.461426,4047.692383,4061.025635,4197.436035,16130.000000,4.000000,95.000000,,,,0.000000,4.000000,4.000000,4.000000,4.000000,4.000000,100.000000,,,,,,,,,,,,,,,,,,,,,,,,,,,,,,,,,,,,,,,,,,,,,,,,,,,,,,,,,,,,,,,
1656265725.244612,76.000000,0.000000,4259.487305,4206.666504,4043.589844,4067.692383,4189.230957,450.000000,4.000000,95.000000,,,,0.000000,4.000000,4.000000,4.000000,4.000000,4.000000,100.000000,,,,,,,,,,,,,,,,,,,,,,,,,,,,,,,,,,,,,,,,,,,,,,,,,,,,,,,,,,,,,,,
1656265725.252326,77.000000,0.000000,4242.051270,4192.307617,4028.205078,4089.743652,4195.897461,450.000000,4.000000,95.000000,,,,0.000000,4.000000,4.000000,4.000000,4.000000,4.000000,100.000000,,,,,,,,,,,,,,,,,,,,,,,,,,,,,,,,,,,,,,,,,,,,,,,,,,,,,,,,,,,,,,,
1656265725.260141,78.000000,0.000000,4205.641113,4188.717773,4021.538574,4066.666748,4198.461426,450.000000,4.000000,95.000000,,,,0.000000,4.000000,4.000000,4.000000,4.000000,4.000000,100.000000,,,,,,,,,,,,,,,,,,,,,,,,,,,,,,,,,,,,,,,,,,,,,,,,,,,,,,,,,,,,,,,
1656265725.267855,79.000000,0.000000,4198.461426,4180.512695,4023.589844,4028.718018,4190.256348,16130.000000,4.000000,95.000000,,,,0.000000,4.000000,4.000000,4.000000,4.000000,4.000000,100.000000,,,,,,,,,,,,,,,,,,,,,,,,,,,,,,,,,,,,,,,,,,,,,,,,,,,,,,,,,,,,,,,
1656265725.275670,80.000000,0.000000,4230.256348,4199.487305,4061.538574,4054.871826,4204.615234,450.000000,4.000000,95.000000,,,,0.000000,4.000000,4.000000,4.000000,4.000000,4.000000,100.000000,,,,,,,,,,,,,,,,,,,,,,,,,,,,,,,,,,,,,,,,,,,,,,,,,,,,,,,,,,,,,,,
1656265725.283384,81.000000,0.000000,4261.025879,4234.871582,4110.256348,4078.974365,4209.743652,450.000000,4.000000,95.000000,,,,0.000000,4.000000,4.000000,4.000000,4.000000,4.000000,100.000000,,,,,,,,,,,,,,,,,,,,,,,,,,,,,,,,,,,,,,,,,,,,,,,,,,,,,,,,,,,,,,,
1656265725.291298,82.000000,0.000000,4277.948730,4240.000000,4123.077148,4064.615479,4210.769043,450.000000,4.000000,95.000000,,,,0.000000,4.000000,4.000000,4.000000,4.000000,4.000000,100.000000,,,,,,,,,,,,,,,,,,,,,,,,,,,,,,,,,,,,,,,,,,,,,,,,,,,,,,,,,,,,,,,
1656265725.299113,83.000000,0.000000,4263.077148,4215.897461,4107.692383,4031.794922,4209.743652,16130.000000,4.000000,95.000000,,,,0.000000,4.000000,4.000000,4.000000,4.000000,4.000000,100.000000,,,,,,,,,,,,,,,,,,,,,,,,,,,,,,,,,,,,,,,,,,,,,,,,,,,,,,,,,,,,,,,
1656265725.307027,84.000000,0.000000,4221.025879,4197.948730,4082.564209,4005.641113,4175.897461,450.000000,4.000000,95.000000,,,,0.000000,4.000000,4.000000,4.000000,4.000000,4.000000,100.000000,,,,,,,,,,,,,,,,,,,,,,,,,,,,,,,,,,,,,,,2.803118,3.793943,2.210185,10.059623,6.473318,3.410677,6.514093,0.946416,8.899357,5.765785,4.222090,5.340420,3.458705,1.744951,1.462900,4.713968,3.156811,1.350979,4.557721,2.846331,3.894035,3.880979,2.357374,6.127137,4.811609
1656265725.314842,85.000000,0.000000,4240.000000,4229.230957,4087.179443,4041.538574,4178.461426,450.000000,4.000000,95.000000,,,,0.000000,4.000000,4.000000,4.000000,4.000000,4.000000,100.000000,,,,,,,,,,,,,,,,,,,,,,,,,,,,,,,,,,,,,,,,,,,,,,,,,,,,,,,,,,,,,,,
1656265725.322756,86.000000,0.000000,4280.000000,4250.256348,4111.282227,4072.307617,4212.307617,450.000000,4.000000,95.000000,,,,0.000000,4.000000,4.000000,4.000000,4.000000,4.000000,100.000000,,,,,,,,,,,,,,,,,,,,,,,,,,,,,,,,,,,,,,,,,,,,,,,,,,,,,,,,,,,,,,,
1656265725.330570,87.000000,0.000000,4263.589844,4240.000000,4125.641113,4053.333252,4193.333496,16130.000000,4.000000,95.000000,,,,0.000000,4.000000,4.000000,4.000000,4.000000,4.000000,100.000000,,,,,,,,,,,,,,,,,,,,,,,,,,,,,,,,,,,,,,,,,,,,,,,,,,,,,,,,,,,,,,,
1656265725.338385,88.000000,0.000000,4226.153809,4233.846191,4109.230957,4045.128174,4161.025879,450.000000,4.000000,95.000000,,,,0.000000,4.000000,4.000000,4.000000,4.000000,4.000000,100.000000,,,,,,,,,,,,,,,,,,,,,,,,,,,,,,,,,,,,,,,,,,,,,,,,,,,,,,,,,,,,,,,
1656265725.346099,89.000000,0.000000,4208.717773,4210.769043,4080.512939,4038.461426,4163.077148,450.000000,4.000000,95.000000,,,,0.000000,4.000000,4.000000,4.000000,4.000000,4.000000,100.000000,,,,,,,,,,,,,,,,,,,,,,,,,,,,,,,,,,,,,,,,,,,,,,,,,,,,,,,,,,,,,,,
1656265725.353914,90.000000,0.000000,4259.487305,4218.974121,4094.358887,4045.128174,4209.230957,450.000000,4.000000,95.000000,,,,0.000000,4.000000,4.000000,4.000000,4.000000,4.000000,100.000000,,,,,,,,,,,,,,,,,,,,,,,,,,,,,,,,,,,,,,,,,,,,,,,,,,,,,,,,,,,,,,,
1656265725.361628,91.000000,0.000000,4322.051270,4272.820313,4089.743652,4090.256348,4261.538574,16130.000000,4.000000,95.000000,,,,0.000000,4.000000,4.000000,4.000000,4.000000,4.000000,100.000000,,,,,,,,,,,,,,,,,,,,,,,,,,,,,,,,,,,,,,,,,,,,,,,,,,,,,,,,,,,,,,,
1656265725.369542,92.000000,0.000000,4301.538574,4278.974121,4049.743652,4106.153809,4261.025879,450.000000,4.000000,95.000000,,,,0.000000,4.000000,4.000000,4.000000,4.000000,4.000000,100.000000,,,,,,,,,,,,,,,,,,,,,,,,,,,,,,,,,,,,,,,,,,,,,,,,,,,,,,,,,,,,,,,
1656265725.377357,93.000000,0.000000,4252.307617,4240.000000,4058.974365,4075.897461,4222.051270,450.000000,4.000000,95.000000,,,,0.000000,4.000000,4.000000,4.000000,4.000000,4.000000,100.000000,,,,,,,,,,,,,,,,,,,,,,,,,,,,,,,,,,,,,,,,,,,,,,,,,,,,,,,,,,,,,,,
1656265725.385271,94.000000,0.000000,4237.436035,4213.846191,4085.641113,4042.051270,4191.794922,450.000000,4.000000,95.000000,,,,0.000000,4.000000,4.000000,4.000000,4.000000,4.000000,100.000000,,,,,,,,,,,,,,,,,,,,,,,,,,,,,,,,,,,,,,,,,,,,,,,,,,,,,,,,,,,,,,,
1656265725.393086,95.000000,0.000000,4265.641113,4221.538574,4092.820557,4040.512939,4223.589844,16130.000000,4.000000,95.000000,,,,0.000000,4.000000,4.000000,4.000000,4.000000,4.000000,100.000000,,,,,,,,,,,,,,,,,,,,,,,,,,,,,,,,,,,,,,,,,,,,,,,,,,,,,,,,,,,,,,,
1656265725.401000,96.000000,0.000000,4285.128418,4237.436035,4100.000000,4050.769287,4241.538574,450.000000,4.000000,95.000000,,,,0.000000,4.000000,4.000000,4.000000,4.000000,4.000000,100.000000,,,,,,,,,,,,,,,,,,,,,,,,,,,,,,,,,,,,,,,,,,,,,,,,,,,,,,,,,,,,,,,
1656265725.408814,97.000000,0.000000,4246.666504,4230.256348,4101.025879,4041.025635,4199.487305,450.000000,4.000000,95.000000,,,,0.000000,4.000000,4.000000,4.000000,4.000000,4.000000,100.000000,,,,,,,,,,,,,,,,,,,,,,,,,,,,,,,,,,,,,,,,,,,,,,,,,,,,,,,,,,,,,,,
1656265725.416629,98.000000,0.000000,4243.589844,4213.333496,4098.461426,4053.846191,4202.563965,450.000000,4.000000,95.000000,,,,0.000000,4.000000,4.000000,4.000000,4.000000,4.000000,100.000000,,,,,,,,,,,,,,,,,,,,,,,,,,,,,,,,,,,,,,,,,,,,,,,,,,,,,,,,,,,,,,,
1656265725.424343,99.000000,0.000000,4280.512695,4196.410156,4086.153809,4073.846191,4219.487305,16130.000000,4.000000,95.000000,,,,0.000000,4.000000,4.000000,4.000000,4.000000,4.000000,100.000000,,,,,,,,,,,,,,,,,,,,,,,,,,,,,,,,,,,,,,,,,,,,,,,,,,,,,,,,,,,,,,,
1656265725.432058,100.000000,0.000000,4263.077148,4205.641113,4080.512939,4085.641113,4198.461426,450.000000,4.000000,95.000000,,,,0.000000,4.000000,4.000000,4.000000,4.000000,4.000000,100.000000,,,,,,,,,,,,,,,,,,,,,,,,,,,,,,,,,,,,,,,2.908151,3.837177,1.923334,10.177827,6.696281,3.891548,6.730106,1.015917,8.619659,5.936296,4.495445,6.446135,3.679305,1.857325,1.607861,5.125692,3.273562,1.283443,5.439283,3.125904,4.613759,4.962145,2.737806,6.511191,5.044655
1656265725.439972,101.000000,0.000000,4216.410156,4207.692383,4085.641113,4062.051270,4177.948730,450.000000,4.000000,95.000000,,,,0.000000,4.000000,4.000000,4.000000,4.000000,4.000000,100.000000,,,,,,,,,,,,,,,,,,,,,,,,,,,,,,,,,,,,,,,,,,,,,,,,,,,,,,,,,,,,,,,
1656265725.447786,102.000000,0.000000,4213.846191,4178.974121,4074.871826,4021.025635,4171.282227,450.000000,4.000000,95.000000,,,,0.000000,4.000000,4.000000,4.000000,4.000000,4.000000,100.000000,,,,,,,,,,,,,,,,,,,,,,,,,,,,,,,,,,,,,,,,,,,,,,,,,,,,,,,,,,,,,,,
1656265725.455601,103.000000,0.000000,4245.128418,4203.589844,4075.897461,4052.307617,4193.333496,16130.000000,4.000000,95.000000,,,,0.000000,4.000000,4.000000,4.000000,4.000000,4.000000,100.000000,,,,,,,,,,,,,,,,,,,,,,,,,,,,,,,,,,,,,,,,,,,,,,,,,,,,,,,,,,,,,,,
1656265725.463315,104.000000,0.000000,4242.051270,4232.307617,4079.487061,4074.871826,4219.487305,450.000000,4.000000,95.000000,,,,0.000000,4.000000,4.000000,4.000000,4.000000,4.000000,100.000000,,,,,,,,,,,,,,,,,,,,,,,,,,,,,,,,,,,,,,,,,,,,,,,,,,,,,,,,,,,,,,,
1656265725.471130,105.000000,0.000000,4232.307617,4218.974121,4085.128174,4053.846191,4196.410156,450.000000,4.000000,95.000000,,,,0.000000,4.000000,4.000000,4.000000,4.000000,4.000000,100.000000,,,,,,,,,,,,,,,,,,,,,,,,,,,,,,,,,,,,,,,,,,,,,,,,,,,,,,,,,,,,,,,
1656265725.478844,106.000000,0.000000,4238.974121,4215.897461,4053.846191,4054.358887,4174.358887,450.000000,4.000000,95.000000,,,,0.000000,4.000000,4.000000,4.000000,4.000000,4.000000,100.000000,,,,,,,,,,,,,,,,,,,,,,,,,,,,,,,,,,,,,,,,,,,,,,,,,,,,,,,,,,,,,,,
1656265725.486659,107.000000,0.000000,4205.641113,4211.794922,4001.538574,4043.076904,4171.794922,16130.000000,4.000000,95.000000,,,,0.000000,4.000000,4.000000,4.000000,4.000000,4.000000,100.000000,,,,,,,,,,,,,,,,,,,,,,,,,,,,,,,,,,,,,,,,,,,,,,,,,,,,,,,,,,,,,,,
1656265725.494373,108.000000,0.000000,4212.307617,4215.897461,4034.871826,4048.718018,4173.846191,450.000000,4.000000,95.000000,,,,0.000000,4.000000,4.000000,4.000000,4.000000,4.000000,100.000000,,,,,,,,,,,,,,,,,,,,,,,,,,,,,,,,,,,,,,,,,,,,,,,,,,,,,,,,,,,,,,,
1656265725.502188,109.000000,0.000000,4273.333496,4226.666504,4072.820557,4090.256348,4191.282227,450.000000,4.000000,95.000000,,,,0.000000,4.000000,4.000000,4.000000,4.000000,4.000000,100.000000,,,,,,,,,,,,,,,,,,,,,,,,,,,,,,,,,,,,,,,,,,,,,,,,,,,,,,,,,,,,,,,
1656265725.509902,110.000000,0.000000,4273.846191,4216.410156,4075.384521,4090.769287,4191.282227,450.000000,4.000000,95.000000,,,,0.000000,4.000000,4.000000,4.000000,4.000000,4.000000,100.000000,,,,,,,,,,,,,,,,,,,,,,,,,,,,,,,,,,,,,,,,,,,,,,,,,,,,,,,,,,,,,,,
1656265725.517716,111.000000,0.000000,4225.641113,4205.128418,4081.538574,4061.025635,4167.179688,16130.000000,4.000000,95.000000,,,,0.000000,4.000000,4.000000,4.000000,4.000000,4.000000,100.000000,,,,,,,,,,,,,,,,,,,,,,,,,,,,,,,,,,,,,,,,,,,,,,,,,,,,,,,,,,,,,,,
1656265725.525431,112.000000,0.000000,4188.717773,4190.769043,4049.230713,4057.435791,4144.615234,450.000000,4.000000,95.000000,,,,0.000000,4.000000,4.000000,4.000000,4.000000,4.000000,100.000000,,,,,,,,,,,,,,,,,,,,,,,,,,,,,,,,,,,,,,,,,,,,,,,,,,,,,,,,,,,,,,,
1656265725.533345,113.000000,0.000000,4193.846191,4196.922852,4038.461426,4077.948730,4151.794922,450.000000,4.000000,95.000000,,,,0.000000,4.000000,4.000000,4.000000,4.000000,4.000000,100.000000,,,,,,,,,,,,,,,,,,,,,,,,,,,,,,,,,,,,,,,,,,,,,,,,,,,,,,,,,,,,,,,
1656265725.541160,114.000000,0.000000,4215.897461,4222.563965,4080.000000,4077.948730,4168.205078,450.000000,4.000000,95.000000,,,,0.000000,4.000000,4.000000,4.000000,4.000000,4.000000,100.000000,,,,,,,,,,,,,,,,,,,,,,,,,,,,,,,,,,,,,,,,,,,,,,,,,,,,,,,,,,,,,,,
1656265725.548974,115.000000,0.000000,4219.487305,4223.589844,4074.358887,4058.974365,4172.820313,16130.000000,4.000000,95.000000,,,,0.000000,4.000000,4.000000,4.000000,4.000000,4.000000,100.000000,,,,,,,,,,,,,,,,,,,,,,,,,,,,,,,,,,,,,,,,,,,,,,,,,,,,,,,,,,,,,,,
1656265725.556689,116.000000,0.000000,4219.487305,4219.487305,4040.512939,4047.179443,4165.641113,450.000000,4.000000,95.000000,,,,0.000000,4.000000,4.000000,4.000000,4.000000,4.000000,100.000000,,,,,,,,,,,,,,,,,,,,,,,,,,,,,,,,,,,,,,,3.091098,3.810567,1.802113,10.734023,6.722317,4.193243,6.865891,1.127395,8.231853,5.916189,4.558424,7.752800,3.572770,2.052635,1.773046,5.465107,3.454512,1.348692,6.420687,3.406387,5.394213,5.771826,3.171779,7.101693,5.178888
1656265725.564503,117.000000,0.000000,4221.538574,4219.487305,4046.666748,4033.846191,4152.820313,450.000000,4.000000,95.000000,,,,0.000000,4.000000,4.000000,4.000000,4.000000,4.000000,100.000000,,,,,,,,,,,,,,,,,,,,,,,,,,,,,,,,,,,,,,,,,,,,,,,,,,,,,,,,,,,,,,,
1656265725.572218,118.000000,0.000000,4235.897461,4200.512695,4057.948730,4035.384521,4188.717773,450.000000,4.000000,95.000000,,,,0.000000,4.000000,4.000000,4.000000,4.000000,4.000000,100.000000,,,,,,,,,,,,,,,,,,,,,,,,,,,,,,,,,,,,,,,,,,,,,,,,,,,,,,,,,,,,,,,
1656265725.580132,119.000000,0.000000,4234.358887,4168.717773,4053.333252,4045.128174,4206.153809,16130.000000,4.000000,95.000000,,,,0.000000,4.000000,4.000000,4.000000,4.000000,4.000000,100.000000,,,,,,,,,,,,,,,,,,,,,,,,,,,,,,,,,,,,,,,,,,,,,,,,,,,,,,,,,,,,,,,
1656265725.587946,120.000000,0.000000,4221.025879,4179.487305,4056.923096,4041.538574,4165.128418,450.000000,4.000000,95.000000,,,,0.000000,4.000000,4.000000,4.000000,4.000000,4.000000,100.000000,,,,,,,,,,,,,,,,,,,,,,,,,,,,,,,,,,,,,,,,,,,,,,,,,,,,,,,,,,,,,,,
1656265725.595761,121.000000,0.000000,4246.666504,4228.717773,4090.256348,4044.615479,4176.410156,450.000000,4.000000,95.000000,,,,0.000000,4.000000,4.000000,4.000000,4.000000,4.000000,100.000000,,,,,,,,,,,,,,,,,,,,,,,,,,,,,,,,,,,,,,,,,,,,,,,,,,,,,,,,,,,,,,,
1656265725.603575,122.000000,0.000000,4259.487305,4227.692383,4108.717773,4044.102539,4200.512695,450.000000,4.000000,95.000000,,,,0.000000,4.000000,4.000000,4.000000,4.000000,4.000000,100.000000,,,,,,,,,,,,,,,,,,,,,,,,,,,,,,,,,,,,,,,,,,,,,,,,,,,,,,,,,,,,,,,
1656265725.611290,123.000000,0.000000,4244.102539,4212.307617,4096.410156,4035.384521,4171.282227,16130.000000,4.000000,95.000000,,,,0.000000,4.000000,4.000000,4.000000,4.000000,4.000000,100.000000,,,,,,,,,,,,,,,,,,,,,,,,,,,,,,,,,,,,,,,,,,,,,,,,,,,,,,,,,,,,,,,
1656265725.619104,124.000000,0.000000,4218.974121,4213.333496,4081.025635,4029.230713,4153.846191,450.000000,4.000000,95.000000,,,,0.000000,4.000000,4.000000,4.000000,4.000000,4.000000,100.000000,,,,,,,,,,,,,,,,,,,,,,,,,,,,,,,,,,,,,,,,,,,,,,,,,,,,,,,,,,,,,,,
1656265725.626818,125.000000,0.000000,4193.846191,4197.948730,4078.974365,4031.281982,4153.333496,450.000000,4.000000,95.000000,,,,0.000000,4.000000,4.000000,4.000000,4.000000,4.000000,100.000000,,,,,,,,,,,,,,,,,,,,,,,,,,,,,,,,,,,,,,,,,,,,,,,,,,,,,,,,,,,,,,,
1656265725.634633,126.000000,0.000000,4218.461426,4221.538574,4097.436035,4061.538574,4162.051270,450.000000,4.000000,95.000000,,,,0.000000,4.000000,4.000000,4.000000,4.000000,4.000000,100.000000,,,,,,,,,,,,,,,,,,,,,,,,,,,,,,,,,,,,,,,,,,,,,,,,,,,,,,,,,,,,,,,
1656265725.642347,127.000000,0.000000,4259.487305,4259.487305,4094.358887,4075.897461,4185.641113,243.000000,4.000000,95.000000,,,,0.000000,4.000000,4.000000,4.000000,4.000000,4.000000,100.000000,,,,,,,,,,,,,,,,,,,,,,,,,,,,,,,,,,,,,,,,,,,,,,,,,,,,,,,,,,,,,,,
1656265725.650162,0.000000,0.000000,4258.974121,4244.615234,4075.897461,4048.718018,4210.769043,450.000000,4.000000,95.000000,,,,0.000000,4.000000,4.000000,4.000000,4.000000,4.000000,100.000000,,,,,,,,,,,,,,,,,,,,,,,,,,,,,,,,,,,,,,,,,,,,,,,,,,,,,,,,,,,,,,,
1656265725.657876,1.000000,0.000000,4223.077148,4213.333496,4068.718018,4024.615479,4190.769043,450.000000,4.000000,95.000000,,,,0.000000,4.000000,4.000000,4.000000,4.000000,4.000000,100.000000,,,,,,,,,,,,,,,,,,,,,,,,,,,,,,,,,,,,,,,,,,,,,,,,,,,,,,,,,,,,,,,
1656265725.665691,2.000000,0.000000,4185.128418,4188.205078,4054.358887,4011.794922,4130.256348,16164.000000,4.000000,95.000000,,,,0.000000,4.000000,4.000000,4.000000,4.000000,4.000000,100.000000,,,,,,,,,,,,,,,,,,,,,,,,,,,,,,,,,,,,,,,,,,,,,,,,,,,,,,,,,,,,,,,
1656265725.673405,3.000000,0.000000,4205.128418,4195.897461,4050.256348,4032.307617,4155.897461,450.000000,4.000000,95.000000,,,,0.000000,4.000000,4.000000,4.000000,4.000000,4.000000,100.000000,,,,,,,,,,,,,,,,,,,,,,,,,,,,,,,,,,,,,,,,,,,,,,,,,,,,,,,,,,,,,,,
1656265725.681220,4.000000,0.000000,4257.436035,4243.077148,4057.948730,4063.589844,4225.128418,16105.000000,4.000000,95.000000,,,,0.000000,4.000000,4.000000,4.000000,4.000000,4.000000,100.000000,1.000000,75.000000,3.000000,4.000000,4.000000,3.000000,3.000000,,,,,,,,,,,,,,,,,,,,,,,,,,,,,,,,3.273441,3.739314,1.811632,11.473719,6.593513,4.280103,6.748377,1.246067,7.899595,5.684557,4.584177,9.534138,3.149734,2.332934,1.923600,5.670755,3.810920,1.484190,7.246828,3.646393,6.173879,6.065784,3.489607,7.794390,5.220928
1656265725.688934,5.000000,0.000000,4251.794922,4245.128418,4062.051270,4059.487061,4221.538574,450.000000,4.000000,95.000000,,,,0.000000,4.000000,4.000000,4.000000,4.000000,4.000000,100.000000,,,,,,,,,,,,,,,,,,,,,,,,,,,,,,,,,,,,,,,,,,,,,,,,,,,,,,,,,,,,,,,
1656265725.696749,6.000000,0.000000,4206.666504,4213.333496,4067.179443,4044.615479,4183.589844,16197.000000,4.000000,95.000000,,,,0.000000,4.000000,4.000000,4.000000,4.000000,4.000000,100.000000,,,,,,,,,,,,,,,,,,,,,,,,,,,,,,,,,,,,,,,,,,,,,,,,,,,,,,,,,,,,,,,
1656265725.704463,7.000000,0.000000,4188.205078,4196.410156,4077.948730,4025.128174,4159.487305,450.000000,4.000000,95.000000,,,,0.000000,4.000000,4.000000,4.000000,4.000000,4.000000,100.000000,,,,,,,,,,,,,,,,,,,,,,,,,,,,,,,,,,,,,,,,,,,,,,,,,,,,,,,,,,,,,,,
1656265725.712277,8.000000,0.000000,4214.358887,4203.589844,4092.820557,4028.718018,4174.358887,450.000000,4.000000,95.000000,,,,0.000000,4.000000,4.000000,4.000000,4.000000,4.000000,100.000000,,,,,,,,,,,,,,,,,,,,,,,,,,,,,,,,,,,,,,,,,,,,,,,,,,,,,,,,,,,,,,,
1656265725.719992,9.000000,0.000000,4232.820313,4230.769043,4088.205078,4054.871826,4208.205078,16112.000000,4.000000,95.000000,,,,0.000000,4.000000,4.000000,4.000000,4.000000,4.000000,100.000000,,,,,,,,,,,,,,,,,,,,,,,,,,,,,,,,,,,,,,,,,,,,,,,,,,,,,,,,,,,,,,,
1656265725.727906,10.000000,0.000000,4227.179688,4248.205078,4095.897461,4067.179443,4203.589844,450.000000,4.000000,95.000000,,,,0.000000,4.000000,4.000000,4.000000,4.000000,4.000000,100.000000,,,,,,,,,,,,,,,,,,,,,,,,,,,,,,,,,,,,,,,,,,,,,,,,,,,,,,,,,,,,,,,
1656265725.735721,11.000000,0.000000,4245.641113,4261.025879,4107.179688,4089.230713,4186.666504,16174.000000,4.000000,95.000000,,,,0.000000,4.000000,4.000000,4.000000,4.000000,4.000000,100.000000,,,,,,,,,,,,,,,,,,,,,,,,,,,,,,,,,,,,,,,,,,,,,,,,,,,,,,,,,,,,,,,
1656265725.743535,12.000000,0.000000,4239.487305,4264.102539,4062.564209,4086.153809,4183.589844,450.000000,4.000000,95.000000,,,,0.000000,4.000000,4.000000,4.000000,4.000000,4.000000,100.000000,,,,,,,,,,,,,,,,,,,,,,,,,,,,,,,,,,,,,,,,,,,,,,,,,,,,,,,,,,,,,,,
1656265725.751349,13.000000,0.000000,4228.717773,4267.692383,4040.000000,4056.923096,4197.948730,450.000000,4.000000,95.000000,,,,0.000000,4.000000,4.000000,4.000000,4.000000,4.000000,100.000000,,,,,,,,,,,,,,,,,,,,,,,,,,,,,,,,,,,,,,,,,,,,,,,,,,,,,,,,,,,,,,,
1656265725.759264,14.000000,0.000000,4252.307617,4248.205078,4065.641113,4061.538574,4213.333496,450.000000,4.000000,95.000000,,,,0.000000,4.000000,4.000000,4.000000,4.000000,4.000000,100.000000,,,,,,,,,,,,,,,,,,,,,,,,,,,,,,,,,,,,,,,,,,,,,,,,,,,,,,,,,,,,,,,
1656265725.767078,15.000000,0.000000,4246.153809,4198.461426,4080.512939,4079.487061,4189.230957,16174.000000,4.000000,95.000000,,,,0.000000,4.000000,4.000000,4.000000,4.000000,4.000000,100.000000,,,,,,,,,,,,,,,,,,,,,,,,,,,,,,,,,,,,,,,,,,,,,,,,,,,,,,,,,,,,,,,
1656265725.774993,16.000000,0.000000,4238.461426,4225.128418,4090.256348,4094.871826,4186.666504,0.000000,4.000000,95.000000,,,,0.000000,4.000000,4.000000,4.000000,4.000000,4.000000,100.000000,,,,,,,,,,,,,,,,,,,,,,,,,,,,,,,,,,,,,,,,,,,,,,,,,,,,,,,,,,,,,,,
1656265725.782807,17.000000,0.000000,4259.487305,4293.333496,4086.666748,4094.871826,4219.487305,0.000000,4.000000,95.000000,,,,0.000000,4.000000,4.000000,4.000000,4.000000,4.000000,100.000000,,,,,,,,,,,,,,,,,,,,,,,,,,,,,,,,,,,,,,,,,,,,,,,,,,,,,,,,,,,,,,,
1656265725.790721,18.000000,0.000000,4267.692383,4291.282227,4089.743652,4078.461426,4220.512695,0.000000,4.000000,95.000000,,,,0.000000,4.000000,4.000000,4.000000,4.000000,4.000000,100.000000,,,,,,,,,,,,,,,,,,,,,,,,,,,,,,,,,,,,,,,,,,,,,,,,,,,,,,,,,,,,,,,
1656265725.798536,19.000000,0.000000,4235.384766,4227.179688,4106.666504,4070.256348,4193.333496,0.000000,4.000000,95.000000,,,,0.000000,4.000000,4.000000,4.000000,4.000000,4.000000,100.000000,,,,,,,,,,,,,,,,,,,,,,,,,,,,,,,,,,,,,,,,,,,,,,,,,,,,,,,,,,,,,,,
1656265725.806450,20.000000,0.000000,4202.563965,4201.025879,4095.897461,4058.974365,4181.538574,0.000000,4.000000,95.000000,,,,0.000000,4.000000,4.000000,4.000000,4.000000,4.000000,100.000000,,,,,,,,,,,,,,,,,,,,,,,,,,,,,,,,,,,,,,,3.444959,3.664991,1.899235,12.090599,6.414158,4.201979,6.207819,1.359152,7.670578,5.242910,4.809902,11.840481,2.541602,2.715492,2.034669,5.636376,4.362434,1.628378,7.739375,3.804776,6.803180,5.836703,3.583657,8.366096,5.163041
1656265725.814264,21.000000,0.000000,4235.384766,4250.769043,4103.077148,4060.000000,4202.563965,0.000000,4.000000,95.000000,,,,0.000000,4.000000,4.000000,4.000000,4.000000,4.000000,100.000000,,,,,,,,,,,,,,,,,,,,,,,,,,,,,,,,,,,,,,,,,,,,,,,,,,,,,,,,,,,,,,,
1656265725.821979,22.000000,0.000000,4284.615234,4270.256348,4139.487305,4069.743652,4200.512695,0.000000,4.000000,95.000000,,,,0.000000,4.000000,4.000000,4.000000,4.000000,4.000000,100.000000,,,,,,,,,,,,,,,,,,,,,,,,,,,,,,,,,,,,,,,,,,,,,,,,,,,,,,,,,,,,,,,
1656265725.829793,23.000000,0.000000,4280.000000,4236.410156,4130.256348,4067.179443,4185.641113,0.000000,4.000000,95.000000,,,,0.000000,4.000000,4.000000,4.000000,4.000000,4.000000,100.000000,,,,,,,,,,,,,,,,,,,,,,,,,,,,,,,,,,,,,,,,,,,,,,,,,,,,,,,,,,,,,,,
1656265725.837508,24.000000,0.000000,4235.384766,4225.641113,4076.923096,4051.281982,4184.102539,0.000000,4.000000,95.000000,,,,0.000000,4.000000,4.000000,4.000000,4.000000,4.000000,100.000000,,,,,,,,,,,,,,,,,,,,,,,,,,,,,,,,,,,,,,,,,,,,,,,,,,,,,,,,,,,,,,,
1656265725.845322,25.000000,0.000000,4200.512695,4223.589844,4040.512939,4044.615479,4167.179688,0.000000,4.000000,95.000000,,,,0.000000,4.000000,4.000000,4.000000,4.000000,4.000000,100.000000,,,,,,,,,,,,,,,,,,,,,,,,,,,,,,,,,,,,,,,,,,,,,,,,,,,,,,,,,,,,,,,
1656265725.853037,26.000000,0.000000,4223.589844,4225.128418,4058.461426,4060.512939,4177.948730,0.000000,4.000000,95.000000,,,,0.000000,4.000000,4.000000,4.000000,4.000000,4.000000,100.000000,,,,,,,,,,,,,,,,,,,,,,,,,,,,,,,,,,,,,,,,,,,,,,,,,,,,,,,,,,,,,,,
1656265725.860951,27.000000,0.000000,4257.948730,4233.846191,4074.358887,4040.512939,4196.410156,0.000000,4.000000,95.000000,,,,0.000000,4.000000,4.000000,4.000000,4.000000,4.000000,100.000000,,,,,,,,,,,,,,,,,,,,,,,,,,,,,,,,,,,,,,,,,,,,,,,,,,,,,,,,,,,,,,,
1656265725.868765,28.000000,0.000000,4242.051270,4237.436035,4066.666748,4028.205078,4163.589844,0.000000,4.000000,95.000000,,,,0.000000,4.000000,4.000000,4.000000,4.000000,4.000000,100.000000,,,,,,,,,,,,,,,,,,,,,,,,,,,,,,,,,,,,,,,,,,,,,,,,,,,,,,,,,,,,,,,
1656265725.876580,29.000000,0.000000,4215.897461,4232.820313,4074.871826,4055.897461,4124.102539,0.000000,4.000000,95.000000,,,,0.000000,4.000000,4.000000,4.000000,4.000000,4.000000,100.000000,,,,,,,,,,,,,,,,,,,,,,,,,,,,,,,,,,,,,,,,,,,,,,,,,,,,,,,,,,,,,,,
1656265725.884294,30.000000,0.000000,4197.948730,4195.384766,4069.230713,4024.102539,4117.948730,0.000000,4.000000,95.000000,,,,0.000000,4.000000,4.000000,4.000000,4.000000,4.000000,100.000000,,,,,,,,,,,,,,,,,,,,,,,,,,,,,,,,,,,,,,,,,,,,,,,,,,,,,,,,,,,,,,,
1656265725.892109,31.000000,0.000000,4204.102539,4175.897461,4063.589844,3991.281982,4135.897461,0.000000,4.000000,95.000000,,,,0.000000,4.000000,4.000000,4.000000,4.000000,4.000000,100.000000,,,,,,,,,,,,,,,,,,,,,,,,,,,,,,,,,,,,,,,,,,,,,,,,,,,,,,,,,,,,,,,
1656265725.899823,32.000000,0.000000,4228.205078,4194.871582,4067.692383,4035.897461,4151.794922,0.000000,4.000000,95.000000,,,,0.000000,4.000000,4.000000,4.000000,4.000000,4.000000,100.000000,,,,,,,,,,,,,,,,,,,,,,,,,,,,,,,,,,,,,,,,,,,,,,,,,,,,,,,,,,,,,,,
1656265725.907738,33.000000,0.000000,4217.436035,4195.384766,4066.153809,4051.281982,4160.512695,0.000000,4.000000,95.000000,,,,0.000000,4.000000,4.000000,4.000000,4.000000,4.000000,100.000000,,,,,,,,,,,,,,,,,,,,,,,,,,,,,,,,,,,,,,,,,,,,,,,,,,,,,,,,,,,,,,,
1656265725.915552,34.000000,0.000000,4224.615234,4183.589844,4070.769287,4042.051270,4173.333496,0.000000,4.000000,95.000000,,,,0.000000,4.000000,4.000000,4.000000,4.000000,4.000000,100.000000,,,,,,,,,,,,,,,,,,,,,,,,,,,,,,,,,,,,,,,,,,,,,,,,,,,,,,,,,,,,,,,
1656265725.923466,35.000000,0.000000,4248.717773,4170.256348,4062.051270,4055.384521,4157.436035,0.000000,4.000000,95.000000,,,,0.000000,4.000000,4.000000,4.000000,4.000000,4.000000,100.000000,,,,,,,,,,,,,,,,,,,,,,,,,,,,,,,,,,,,,,,,,,,,,,,,,,,,,,,,,,,,,,,
1656265725.931281,36.000000,0.000000,4243.077148,4171.794922,4052.307617,4061.025635,4150.256348,0.000000,4.000000,95.000000,,,,0.000000,4.000000,4.000000,4.000000,4.000000,4.000000,100.000000,,,,,,,,,,,,,,,,,,,,,,,,,,,,,,,,,,,,,,,3.595693,3.608387,2.029415,12.348910,6.282461,4.146358,5.271206,1.496400,7.514285,4.633507,5.392187,14.356865,1.948987,3.189759,2.092141,5.322114,4.992649,1.727377,7.849794,3.844913,7.116573,5.274263,3.410102,8.594096,5.007524
1656265725.939195,37.000000,0.000000,4225.128418,4171.282227,4052.307617,4064.615479,4162.051270,0.000000,4.000000,95.000000,,,,0.000000,4.000000,4.000000,4.000000,4.000000,4.000000,100.000000,,,,,,,,,,,,,,,,,,,,,,,,,,,,,,,,,,,,,,,,,,,,,,,,,,,,,,,,,,,,,,,
1656265725.947009,38.000000,0.000000,4205.128418,4156.922852,4050.256348,4056.410156,4132.307617,0.000000,4.000000,95.000000,,,,0.000000,4.000000,4.000000,4.000000,4.000000,4.000000,100.000000,,,,,,,,,,,,,,,,,,,,,,,,,,,,,,,,,,,,,,,,,,,,,,,,,,,,,,,,,,,,,,,
1656265725.954924,39.000000,0.000000,4217.948730,4177.948730,4051.281982,4043.076904,4147.692383,0.000000,4.000000,95.000000,,,,0.000000,4.000000,4.000000,4.000000,4.000000,4.000000,100.000000,,,,,,,,,,,,,,,,,,,,,,,,,,,,,,,,,,,,,,,,,,,,,,,,,,,,,,,,,,,,,,,
1656265725.962738,40.000000,0.000000,4249.230957,4216.410156,4044.102539,4045.128174,4212.820313,0.000000,4.000000,95.000000,,,,0.000000,4.000000,4.000000,4.000000,4.000000,4.000000,100.000000,,,,,,,,,,,,,,,,,,,,,,,,,,,,,,,,,,,,,,,,,,,,,,,,,,,,,,,,,,,,,,,
1656265725.970652,41.000000,0.000000,4261.538574,4220.000000,4053.846191,4042.051270,4196.922852,0.000000,4.000000,95.000000,,,,0.000000,4.000000,4.000000,4.000000,4.000000,4.000000,100.000000,,,,,,,,,,,,,,,,,,,,,,,,,,,,,,,,,,,,,,,,,,,,,,,,,,,,,,,,,,,,,,,
1656265725.978467,42.000000,0.000000,4249.230957,4188.205078,4065.641113,4034.358887,4140.512695,0.000000,4.000000,95.000000,,,,0.000000,4.000000,4.000000,4.000000,4.000000,4.000000,100.000000,,,,,,,,,,,,,,,,,,,,,,,,,,,,,,,,,,,,,,,,,,,,,,,,,,,,,,,,,,,,,,,
1656265725.986181,43.000000,0.000000,4213.846191,4163.589844,4036.923096,4031.794922,4137.948730,0.000000,4.000000,95.000000,,,,0.000000,4.000000,4.000000,4.000000,4.000000,4.000000,100.000000,,,,,,,,,,,,,,,,,,,,,,,,,,,,,,,,,,,,,,,,,,,,,,,,,,,,,,,,,,,,,,,
1656265725.993996,44.000000,0.000000,4227.692383,4173.333496,4048.718018,4045.641113,4168.717773,0.000000,4.000000,95.000000,,,,0.000000,4.000000,4.000000,4.000000,4.000000,4.000000,100.000000,,,,,,,,,,,,,,,,,,,,,,,,,,,,,,,,,,,,,,,,,,,,,,,,,,,,,,,,,,,,,,,
1656265726.001710,45.000000,0.000000,4272.307617,4181.025879,4097.436035,4046.666748,4178.974121,0.000000,4.000000,95.000000,,,,0.000000,4.000000,4.000000,4.000000,4.000000,4.000000,100.000000,,,,,,,,,,,,,,,,,,,,,,,,,,,,,,,,,,,,,,,,,,,,,,,,,,,,,,,,,,,,,,,
1656265726.009525,46.000000,0.000000,4273.333496,4182.051270,4087.179443,4044.102539,4186.153809,0.000000,4.000000,95.000000,,,,0.000000,4.000000,4.000000,4.000000,4.000000,4.000000,100.000000,,,,,,,,,,,,,,,,,,,,,,,,,,,,,,,,,,,,,,,,,,,,,,,,,,,,,,,,,,,,,,,
1656265726.017239,47.000000,0.000000,4248.205078,4182.051270,4053.846191,4047.179443,4181.538574,0.000000,4.000000,95.000000,,,,0.000000,4.000000,4.000000,4.000000,4.000000,4.000000,100.000000,,,,,,,,,,,,,,,,,,,,,,,,,,,,,,,,,,,,,,,,,,,,,,,,,,,,,,,,,,,,,,,
1656265726.025054,48.000000,0.000000,4228.717773,4145.641113,4039.487061,4034.358887,4141.538574,0.000000,4.000000,95.000000,,,,0.000000,4.000000,4.000000,4.000000,4.000000,4.000000,100.000000,,,,,,,,,,,,,,,,,,,,,,,,,,,,,,,,,,,,,,,,,,,,,,,,,,,,,,,,,,,,,,,
1656265726.032768,49.000000,0.000000,4230.256348,4150.769043,4043.589844,4044.102539,4151.282227,0.000000,4.000000,95.000000,,,,0.000000,4.000000,4.000000,4.000000,4.000000,4.000000,100.000000,,,,,,,,,,,,,,,,,,,,,,,,,,,,,,,,,,,,,,,,,,,,,,,,,,,,,,,,,,,,,,,
1656265726.040582,50.000000,0.000000,4229.743652,4211.282227,4056.923096,4049.743652,4191.794922,0.000000,4.000000,95.000000,,,,0.000000,4.000000,4.000000,4.000000,4.000000,4.000000,100.000000,,,,,,,,,,,,,,,,,,,,,,,,,,,,,,,,,,,,,,,,,,,,,,,,,,,,,,,,,,,,,,,
1656265726.048297,51.000000,0.000000,4220.512695,4210.256348,4067.179443,4038.461426,4181.025879,0.000000,4.000000,95.000000,,,,0.000000,4.000000,4.000000,4.000000,4.000000,4.000000,100.000000,,,,,,,,,,,,,,,,,,,,,,,,,,,,,,,,,,,,,,,,,,,,,,,,,,,,,,,,,,,,,,,
1656265726.056111,52.000000,0.000000,4219.487305,4189.230957,4056.410156,4053.333252,4165.641113,0.000000,4.000000,95.000000,,,,0.000000,4.000000,4.000000,4.000000,4.000000,4.000000,100.000000,,,,,,,,,,,,,,,,,,,,,,,,,,,,,,,,,,,,,,,3.800776,3.558642,2.182575,12.144283,6.224050,4.290380,4.182035,1.667798,7.402013,3.957677,6.284698,16.513512,1.519621,3.699278,2.094405,4.860913,5.475369,1.737071,7.643495,3.738858,6.997299,4.615492,3.017152,8.372375,4.787821
1656265726.063826,53.000000,0.000000,4212.820313,4204.102539,4023.076904,4056.923096,4163.077148,0.000000,4.000000,95.000000,,,,0.000000,4.000000,4.000000,4.000000,4.000000,4.000000,100.000000,,,,,,,,,,,,,,,,,,,,,,,,,,,,,,,,,,,,,,,,,,,,,,,,,,,,,,,,,,,,,,,
1656265726.071740,54.000000,0.000000,4220.000000,4214.871582,4041.538574,4053.333252,4157.948730,0.000000,4.000000,95.000000,,,,0.000000,4.000000,4.000000,4.000000,4.000000,4.000000,100.000000,,,,,,,,,,,,,,,,,,,,,,,,,,,,,,,,,,,,,,,,,,,,,,,,,,,,,,,,,,,,,,,
1656265726.079555,55.000000,0.000000,4229.230957,4205.128418,4091.794922,4052.307617,4150.769043,0.000000,4.000000,95.000000,,,,0.000000,4.000000,4.000000,4.000000,4.000000,4.000000,100.000000,,,,,,,,,,,,,,,,,,,,,,,,,,,,,,,,,,,,,,,,,,,,,,,,,,,,,,,,,,,,,,,
1656265726.087469,56.000000,0.000000,4215.897461,4186.153809,4097.948730,4031.794922,4145.641113,0.000000,4.000000,95.000000,,,,0.000000,4.000000,4.000000,4.000000,4.000000,4.000000,100.000000,,,,,,,,,,,,,,,,,,,,,,,,,,,,,,,,,,,,,,,,,,,,,,,,,,,,,,,,,,,,,,,
1656265726.095283,57.000000,0.000000,4227.179688,4200.000000,4074.358887,4018.461426,4175.384766,0.000000,4.000000,95.000000,,,,0.000000,4.000000,4.000000,4.000000,4.000000,4.000000,100.000000,,,,,,,,,,,,,,,,,,,,,,,,,,,,,,,,,,,,,,,,,,,,,,,,,,,,,,,,,,,,,,,
1656265726.103198,58.000000,0.000000,4248.717773,4215.897461,4052.820557,4022.051270,4201.538574,0.000000,4.000000,95.000000,,,,0.000000,4.000000,4.000000,4.000000,4.000000,4.000000,100.000000,,,,,,,,,,,,,,,,,,,,,,,,,,,,,,,,,,,,,,,,,,,,,,,,,,,,,,,,,,,,,,,
1656265726.111012,59.000000,0.000000,4243.077148,4220.000000,4066.666748,4048.205078,4171.794922,0.000000,4.000000,95.000000,,,,0.000000,4.000000,4.000000,4.000000,4.000000,4.000000,100.000000,,,,,,,,,,,,,,,,,,,,,,,,,,,,,,,,,,,,,,,,,,,,,,,,,,,,,,,,,,,,,,,
1656265726.118926,60.000000,0.000000,4224.615234,4218.461426,4074.358887,4062.564209,4132.820313,0.000000,4.000000,95.000000,,,,0.000000,4.000000,4.000000,4.000000,4.000000,4.000000,100.000000,,,,,,,,,,,,,,,,,,,,,,,,,,,,,,,,,,,,,,,,,,,,,,,,,,,,,,,,,,,,,,,
1656265726.126741,61.000000,0.000000,4203.077148,4194.358887,4053.333252,4030.769287,4134.358887,0.000000,4.000000,95.000000,,,,0.000000,4.000000,4.000000,4.000000,4.000000,4.000000,100.000000,,,,,,,,,,,,,,,,,,,,,,,,,,,,,,,,,,,,,,,,,,,,,,,,,,,,,,,,,,,,,,,
1656265726.134655,62.000000,0.000000,4235.384766,4207.692383,4064.102539,4036.410156,4188.717773,0.000000,4.000000,95.000000,,,,0.000000,4.000000,4.000000,4.000000,4.000000,4.000000,100.000000,,,,,,,,,,,,,,,,,,,,,,,,,,,,,,,,,,,,,,,,,,,,,,,,,,,,,,,,,,,,,,,
1656265726.142469,63.000000,0.000000,4293.846191,4240.512695,4074.358887,4081.025635,4223.589844,0.000000,4.000000,95.000000,,,,0.000000,4.000000,4.000000,4.000000,4.000000,4.000000,100.000000,,,,,,,,,,,,,,,,,,,,,,,,,,,,,,,,,,,,,,,,,,,,,,,,,,,,,,,,,,,,,,,
1656265726.150284,64.000000,0.000000,4282.563965,4225.128418,4061.025635,4078.461426,4208.205078,450.000000,4.000000,95.000000,,,,0.000000,4.000000,4.000000,4.000000,4.000000,4.000000,100.000000,,,,,,,,,,,,,,,,,,,,,,,,,,,,,,,,,,,,,,,,,,,,,,,,,,,,,,,,,,,,,,,
1656265726.157998,65.000000,0.000000,4221.538574,4196.410156,4060.512939,4038.974365,4181.025879,450.000000,4.000000,95.000000,,,,0.000000,4.000000,4.000000,4.000000,4.000000,4.000000,100.000000,,,,,,,,,,,,,,,,,,,,,,,,,,,,,,,,,,,,,,,,,,,,,,,,,,,,,,,,,,,,,,,
1656265726.165913,66.000000,0.000000,4185.641113,4198.461426,4063.589844,4010.256348,4161.025879,16190.000000,4.000000,95.000000,,,,0.000000,4.000000,4.000000,4.000000,4.000000,4.000000,100.000000,,,,,,,,,,,,,,,,,,,,,,,,,,,,,,,,,,,,,,,,,,,,,,,,,,,,,,,,,,,,,,,
1656265726.173727,67.000000,0.000000,4233.333496,4213.846191,4072.820557,4036.923096,4178.461426,450.000000,4.000000,95.000000,,,,0.000000,4.000000,4.000000,4.000000,4.000000,4.000000,100.000000,,,,,,,,,,,,,,,,,,,,,,,,,,,,,,,,,,,,,,,,,,,,,,,,,,,,,,,,,,,,,,,
1656265726.181641,68.000000,0.000000,4292.307617,4196.922852,4090.256348,4064.615479,4198.461426,16142.000000,4.000000,95.000000,,,,0.000000,4.000000,4.000000,4.000000,4.000000,4.000000,100.000000,1.000000,75.000000,3.000000,3.000000,4.000000,3.000000,3.000000,,,,,,,,,,,,,,,,,,,,,,,,,,,,,,,,4.090862,3.491901,2.346740,11.510966,6.174867,4.622616,3.263343,1.874108,7.346003,3.356072,7.221644,17.686834,1.293715,4.157471,2.053421,4.510620,5.602728,1.675880,7.228112,3.477788,6.494454,4.084938,2.512747,7.760220,4.553558
1656265726.189456,69.000000,0.000000,4281.538574,4194.358887,4107.179688,4050.256348,4189.230957,450.000000,4.000000,95.000000,,,,0.000000,4.000000,4.000000,4.000000,4.000000,4.000000,100.000000,,,,,,,,,,,,,,,,,,,,,,,,,,,,,,,,,,,,,,,,,,,,,,,,,,,,,,,,,,,,,,,
1656265726.197170,70.000000,0.000000,4240.512695,4211.282227,4104.102539,4048.718018,4180.512695,16144.000000,4.000000,95.000000,,,,0.000000,4.000000,4.000000,4.000000,4.000000,4.000000,100.000000,,,,,,,,,,,,,,,,,,,,,,,,,,,,,,,,,,,,,,,,,,,,,,,,,,,,,,,,,,,,,,,
1656265726.204985,71.000000,0.000000,4212.307617,4182.051270,4076.410156,4045.128174,4168.205078,450.000000,4.000000,95.000000,,,,0.000000,4.000000,4.000000,4.000000,4.000000,4.000000,100.000000,,,,,,,,,,,,,,,,,,,,,,,,,,,,,,,,,,,,,,,,,,,,,,,,,,,,,,,,,,,,,,,
1656265726.212699,72.000000,0.000000,4243.589844,4185.128418,4073.846191,4032.820557,4181.025879,450.000000,4.000000,95.000000,,,,0.000000,4.000000,4.000000,4.000000,4.000000,4.000000,100.000000,,,,,,,,,,,,,,,,,,,,,,,,,,,,,,,,,,,,,,,,,,,,,,,,,,,,,,,,,,,,,,,
1656265726.220514,73.000000,0.000000,4282.051270,4236.410156,4078.461426,4041.538574,4206.666504,16111.000000,4.000000,95.000000,,,,0.000000,4.000000,4.000000,4.000000,4.000000,4.000000,100.000000,,,,,,,,,,,,,,,,,,,,,,,,,,,,,,,,,,,,,,,,,,,,,,,,,,,,,,,,,,,,,,,
1656265726.228228,74.000000,0.000000,4260.000000,4238.461426,4067.692383,4053.333252,4192.307617,450.000000,4.000000,95.000000,,,,0.000000,4.000000,4.000000,4.000000,4.000000,4.000000,100.000000,,,,,,,,,,,,,,,,,,,,,,,,,,,,,,,,,,,,,,,,,,,,,,,,,,,,,,,,,,,,,,,
1656265726.236142,75.000000,0.000000,4238.461426,4204.615234,4092.307617,4048.718018,4163.077148,16120.000000,4.000000,95.000000,,,,0.000000,4.000000,4.000000,4.000000,4.000000,4.000000,100.000000,,,,,,,,,,,,,,,,,,,,,,,,,,,,,,,,,,,,,,,,,,,,,,,,,,,,,,,,,,,,,,,
1656265726.243957,76.000000,0.000000,4235.384766,4196.410156,4106.153809,4042.051270,4156.922852,450.000000,4.000000,95.000000,,,,0.000000,4.000000,4.000000,4.000000,4.000000,4.000000,100.000000,,,,,,,,,,,,,,,,,,,,,,,,,,,,,,,,,,,,,,,,,,,,,,,,,,,,,,,,,,,,,,,
1656265726.251871,77.000000,0.000000,4254.358887,4222.563965,4096.410156,4056.923096,4185.128418,450.000000,4.000000,95.000000,,,,0.000000,4.000000,4.000000,4.000000,4.000000,4.000000,100.000000,,,,,,,,,,,,,,,,,,,,,,,,,,,,,,,,,,,,,,,,,,,,,,,,,,,,,,,,,,,,,,,
1656265726.259686,78.000000,0.000000,4262.563965,4231.794922,4095.897461,4060.000000,4202.051270,450.000000,4.000000,95.000000,,,,0.000000,4.000000,4.000000,4.000000,4.000000,4.000000,100.000000,,,,,,,,,,,,,,,,,,,,,,,,,,,,,,,,,,,,,,,,,,,,,,,,,,,,,,,,,,,,,,,
1656265726.267600,79.000000,0.000000,4232.307617,4217.948730,4094.358887,4053.846191,4176.922852,16120.000000,4.000000,95.000000,,,,0.000000,4.000000,4.000000,4.000000,4.000000,4.000000,100.000000,,,,,,,,,,,,,,,,,,,,,,,,,,,,,,,,,,,,,,,,,,,,,,,,,,,,,,,,,,,,,,,
1656265726.275414,80.000000,0.000000,4238.974121,4243.589844,4107.179688,4069.230713,4171.282227,450.000000,4.000000,95.000000,,,,0.000000,4.000000,4.000000,4.000000,4.000000,4.000000,100.000000,,,,,,,,,,,,,,,,,,,,,,,,,,,,,,,,,,,,,,,,,,,,,,,,,,,,,,,,,,,,,,,
1656265726.283229,81.000000,0.000000,4258.461426,4270.769043,4109.230957,4058.461426,4181.025879,450.000000,4.000000,95.000000,,,,0.000000,4.000000,4.000000,4.000000,4.000000,4.000000,100.000000,,,,,,,,,,,,,,,,,,,,,,,,,,,,,,,,,,,,,,,,,,,,,,,,,,,,,,,,,,,,,,,
1656265726.290943,82.000000,0.000000,4264.102539,4259.487305,4089.743652,4048.718018,4193.333496,450.000000,4.000000,95.000000,,,,0.000000,4.000000,4.000000,4.000000,4.000000,4.000000,100.000000,,,,,,,,,,,,,,,,,,,,,,,,,,,,,,,,,,,,,,,,,,,,,,,,,,,,,,,,,,,,,,,
1656265726.298857,83.000000,0.000000,4252.820313,4224.615234,4074.358887,4060.000000,4200.512695,16120.000000,4.000000,95.000000,,,,0.000000,4.000000,4.000000,4.000000,4.000000,4.000000,100.000000,,,,,,,,,,,,,,,,,,,,,,,,,,,,,,,,,,,,,,,,,,,,,,,,,,,,,,,,,,,,,,,
1656265726.306672,84.000000,0.000000,4216.922852,4185.128418,4062.051270,4040.000000,4176.922852,450.000000,4.000000,95.000000,,,,0.000000,4.000000,4.000000,4.000000,4.000000,4.000000,100.000000,,,,,,,,,,,,,,,,,,,,,,,,,,,,,,,,,,,,,,,4.444796,3.375075,2.473622,10.578117,6.029030,4.947245,2.789251,2.091332,7.373756,2.956547,7.892158,17.576319,1.205808,4.480077,1.990842,4.506481,5.323713,1.602040,6.686006,3.080599,5.802852,3.761095,2.020262,6.969604,4.347877
1656265726.314586,85.000000,0.000000,4233.846191,4200.512695,4072.307617,4038.974365,4169.230957,450.000000,4.000000,95.000000,,,,0.000000,4.000000,4.000000,4.000000,4.000000,4.000000,100.000000,,,,,,,,,,,,,,,,,,,,,,,,,,,,,,,,,,,,,,,,,,,,,,,,,,,,,,,,,,,,,,,
1656265726.322401,86.000000,0.000000,4289.743652,4237.948730,4083.076904,4059.487061,4187.179688,450.000000,4.000000,95.000000,,,,0.000000,4.000000,4.000000,4.000000,4.000000,4.000000,100.000000,,,,,,,,,,,,,,,,,,,,,,,,,,,,,,,,,,,,,,,,,,,,,,,,,,,,,,,,,,,,,,,
1656265726.330315,87.000000,0.000000,4290.256348,4227.179688,4083.589844,4056.923096,4206.153809,16120.000000,4.000000,95.000000,,,,0.000000,4.000000,4.000000,4.000000,4.000000,4.000000,100.000000,,,,,,,,,,,,,,,,,,,,,,,,,,,,,,,,,,,,,,,,,,,,,,,,,,,,,,,,,,,,,,,
1656265726.338129,88.000000,0.000000,4228.205078,4203.589844,4076.410156,4034.358887,4202.051270,450.000000,4.000000,95.000000,,,,0.000000,4.000000,4.000000,4.000000,4.000000,4.000000,100.000000,,,,,,,,,,,,,,,,,,,,,,,,,,,,,,,,,,,,,,,,,,,,,,,,,,,,,,,,,,,,,,,
1656265726.346044,89.000000,0.000000,4179.487305,4197.436035,4061.025635,4016.923096,4175.897461,450.000000,4.000000,95.000000,,,,0.000000,4.000000,4.000000,4.000000,4.000000,4.000000,100.000000,,,,,,,,,,,,,,,,,,,,,,,,,,,,,,,,,,,,,,,,,,,,,,,,,,,,,,,,,,,,,,,
1656265726.353858,90.000000,0.000000,4228.205078,4217.436035,4085.128174,4054.871826,4187.692383,450.000000,4.000000,95.000000,,,,0.000000,4.000000,4.000000,4.000000,4.000000,4.000000,100.000000,,,,,,,,,,,,,,,,,,,,,,,,,,,,,,,,,,,,,,,,,,,,,,,,,,,,,,,,,,,,,,,
1656265726.361573,91.000000,0.000000,4303.077148,4235.897461,4124.615234,4096.410156,4193.333496,16120.000000,4.000000,95.000000,,,,0.000000,4.000000,4.000000,4.000000,4.000000,4.000000,100.000000,,,,,,,,,,,,,,,,,,,,,,,,,,,,,,,,,,,,,,,,,,,,,,,,,,,,,,,,,,,,,,,
1656265726.369387,92.000000,0.000000,4293.333496,4234.358887,4117.436035,4076.410156,4174.358887,450.000000,4.000000,95.000000,,,,0.000000,4.000000,4.000000,4.000000,4.000000,4.000000,100.000000,,,,,,,,,,,,,,,,,,,,,,,,,,,,,,,,,,,,,,,,,,,,,,,,,,,,,,,,,,,,,,,
1656265726.377101,93.000000,0.000000,4245.641113,4224.102539,4087.179443,4045.128174,4194.358887,450.000000,4.000000,95.000000,,,,0.000000,4.000000,4.000000,4.000000,4.000000,4.000000,100.000000,,,,,,,,,,,,,,,,,,,,,,,,,,,,,,,,,,,,,,,,,,,,,,,,,,,,,,,,,,,,,,,
1656265726.385016,94.000000,0.000000,4223.589844,4193.333496,4068.718018,4026.666748,4198.461426,450.000000,4.000000,95.000000,,,,0.000000,4.000000,4.000000,4.000000,4.000000,4.000000,100.000000,,,,,,,,,,,,,,,,,,,,,,,,,,,,,,,,,,,,,,,,,,,,,,,,,,,,,,,,,,,,,,,
1656265726.392830,95.000000,0.000000,4233.846191,4193.846191,4080.512939,4044.102539,4181.025879,16120.000000,4.000000,95.000000,,,,0.000000,4.000000,4.000000,4.000000,4.000000,4.000000,100.000000,,,,,,,,,,,,,,,,,,,,,,,,,,,,,,,,,,,,,,,,,,,,,,,,,,,,,,,,,,,,,,,
1656265726.400744,96.000000,0.000000,4260.512695,4238.461426,4095.384521,4076.410156,4196.410156,450.000000,4.000000,95.000000,,,,0.000000,4.000000,4.000000,4.000000,4.000000,4.000000,100.000000,,,,,,,,,,,,,,,,,,,,,,,,,,,,,,,,,,,,,,,,,,,,,,,,,,,,,,,,,,,,,,,
1656265726.408559,97.000000,0.000000,4272.307617,4251.794922,4087.179443,4065.128174,4207.179688,450.000000,4.000000,95.000000,,,,0.000000,4.000000,4.000000,4.000000,4.000000,4.000000,100.000000,,,,,,,,,,,,,,,,,,,,,,,,,,,,,,,,,,,,,,,,,,,,,,,,,,,,,,,,,,,,,,,
1656265726.416373,98.000000,0.000000,4272.820313,4236.410156,4077.435791,4052.307617,4210.256348,450.000000,4.000000,95.000000,,,,0.000000,4.000000,4.000000,4.000000,4.000000,4.000000,100.000000,,,,,,,,,,,,,,,,,,,,,,,,,,,,,,,,,,,,,,,,,,,,,,,,,,,,,,,,,,,,,,,
1656265726.424088,99.000000,0.000000,4255.897461,4216.410156,4075.897461,4051.281982,4211.282227,16120.000000,4.000000,95.000000,,,,0.000000,4.000000,4.000000,4.000000,4.000000,4.000000,100.000000,,,,,,,,,,,,,,,,,,,,,,,,,,,,,,,,,,,,,,,,,,,,,,,,,,,,,,,,,,,,,,,
1656265726.431902,100.000000,0.000000,4234.358887,4215.897461,4084.615479,4049.743652,4206.666504,450.000000,4.000000,95.000000,,,,0.000000,4.000000,4.000000,4.000000,4.000000,4.000000,100.000000,,,,,,,,,,,,,,,,,,,,,,,,,,,,,,,,,,,,,,,4.845932,3.181482,2.495166,9.563272,5.733409,5.143752,2.805267,2.261501,7.446866,2.809103,8.016188,16.299009,1.143749,4.616024,1.928962,4.894215,4.735187,1.582614,6.055689,2.606848,5.179032,3.544435,1.627629,6.288792,4.187454
1656265726.439617,101.000000,0.000000,4227.692383,4228.205078,4073.333252,4060.000000,4209.743652,450.000000,4.000000,95.000000,,,,0.000000,4.000000,4.000000,4.000000,4.000000,4.000000,100.000000,,,,,,,,,,,,,,,,,,,,,,,,,,,,,,,,,,,,,,,,,,,,,,,,,,,,,,,,,,,,,,,
1656265726.447531,102.000000,0.000000,4226.666504,4227.179688,4070.769287,4063.589844,4208.717773,450.000000,4.000000,95.000000,,,,0.000000,4.000000,4.000000,4.000000,4.000000,4.000000,100.000000,,,,,,,,,,,,,,,,,,,,,,,,,,,,,,,,,,,,,,,,,,,,,,,,,,,,,,,,,,,,,,,
1656265726.455345,103.000000,0.000000,4251.282227,4235.897461,4100.512695,4081.538574,4213.846191,16120.000000,4.000000,95.000000,,,,0.000000,4.000000,4.000000,4.000000,4.000000,4.000000,100.000000,,,,,,,,,,,,,,,,,,,,,,,,,,,,,,,,,,,,,,,,,,,,,,,,,,,,,,,,,,,,,,,
1656265726.463260,104.000000,0.000000,4270.769043,4234.358887,4088.205078,4093.846191,4208.205078,450.000000,4.000000,95.000000,,,,0.000000,4.000000,4.000000,4.000000,4.000000,4.000000,100.000000,,,,,,,,,,,,,,,,,,,,,,,,,,,,,,,,,,,,,,,,,,,,,,,,,,,,,,,,,,,,,,,
1656265726.471074,105.000000,0.000000,4252.820313,4228.717773,4077.948730,4082.051270,4189.230957,450.000000,4.000000,95.000000,,,,0.000000,4.000000,4.000000,4.000000,4.000000,4.000000,100.000000,,,,,,,,,,,,,,,,,,,,,,,,,,,,,,,,,,,,,,,,,,,,,,,,,,,,,,,,,,,,,,,
1656265726.478988,106.000000,0.000000,4205.128418,4219.487305,4090.769287,4065.641113,4169.230957,450.000000,4.000000,95.000000,,,,0.000000,4.000000,4.000000,4.000000,4.000000,4.000000,100.000000,,,,,,,,,,,,,,,,,,,,,,,,,,,,,,,,,,,,,,,,,,,,,,,,,,,,,,,,,,,,,,,
1656265726.486803,107.000000,0.000000,4180.000000,4191.794922,4068.718018,4043.076904,4161.025879,16120.000000,4.000000,95.000000,,,,0.000000,4.000000,4.000000,4.000000,4.000000,4.000000,100.000000,,,,,,,,,,,,,,,,,,,,,,,,,,,,,,,,,,,,,,,,,,,,,,,,,,,,,,,,,,,,,,,
1656265726.494717,108.000000,0.000000,4238.974121,4200.000000,4068.205078,4044.102539,4196.922852,450.000000,4.000000,95.000000,,,,0.000000,4.000000,4.000000,4.000000,4.000000,4.000000,100.000000,,,,,,,,,,,,,,,,,,,,,,,,,,,,,,,,,,,,,,,,,,,,,,,,,,,,,,,,,,,,,,,
1656265726.502532,109.000000,0.000000,4293.846191,4242.563965,4097.436035,4066.666748,4230.769043,450.000000,4.000000,95.000000,,,,0.000000,4.000000,4.000000,4.000000,4.000000,4.000000,100.000000,,,,,,,,,,,,,,,,,,,,,,,,,,,,,,,,,,,,,,,,,,,,,,,,,,,,,,,,,,,,,,,
1656265726.510346,110.000000,0.000000,4276.922852,4268.205078,4091.794922,4072.820557,4216.922852,450.000000,4.000000,95.000000,,,,0.000000,4.000000,4.000000,4.000000,4.000000,4.000000,100.000000,,,,,,,,,,,,,,,,,,,,,,,,,,,,,,,,,,,,,,,,,,,,,,,,,,,,,,,,,,,,,,,
1656265726.518060,111.000000,0.000000,4225.128418,4247.179688,4056.410156,4053.333252,4186.666504,16120.000000,4.000000,95.000000,,,,0.000000,4.000000,4.000000,4.000000,4.000000,4.000000,100.000000,,,,,,,,,,,,,,,,,,,,,,,,,,,,,,,,,,,,,,,,,,,,,,,,,,,,,,,,,,,,,,,
1656265726.525975,112.000000,0.000000,4187.179688,4206.666504,4034.358887,4028.718018,4176.410156,450.000000,4.000000,95.000000,,,,0.000000,4.000000,4.000000,4.000000,4.000000,4.000000,100.000000,,,,,,,,,,,,,,,,,,,,,,,,,,,,,,,,,,,,,,,,,,,,,,,,,,,,,,,,,,,,,,,
1656265726.533789,113.000000,0.000000,4227.692383,4209.743652,4061.025635,4043.076904,4198.461426,450.000000,4.000000,95.000000,,,,0.000000,4.000000,4.000000,4.000000,4.000000,4.000000,100.000000,,,,,,,,,,,,,,,,,,,,,,,,,,,,,,,,,,,,,,,,,,,,,,,,,,,,,,,,,,,,,,,
1656265726.541504,114.000000,0.000000,4283.589844,4225.128418,4097.436035,4077.948730,4218.974121,450.000000,4.000000,95.000000,,,,0.000000,4.000000,4.000000,4.000000,4.000000,4.000000,100.000000,,,,,,,,,,,,,,,,,,,,,,,,,,,,,,,,,,,,,,,,,,,,,,,,,,,,,,,,,,,,,,,
1656265726.549318,115.000000,0.000000,4273.333496,4215.897461,4095.384521,4077.435791,4212.307617,16120.000000,4.000000,95.000000,,,,0.000000,4.000000,4.000000,4.000000,4.000000,4.000000,100.000000,,,,,,,,,,,,,,,,,,,,,,,,,,,,,,,,,,,,,,,,,,,,,,,,,,,,,,,,,,,,,,,
1656265726.557033,116.000000,0.000000,4242.563965,4225.128418,4081.025635,4041.538574,4190.769043,450.000000,4.000000,95.000000,,,,0.000000,4.000000,4.000000,4.000000,4.000000,4.000000,100.000000,,,,,,,,,,,,,,,,,,,,,,,,,,,,,,,,,,,,,,,5.254447,2.898809,2.360605,8.694481,5.348222,5.205339,3.157868,2.356869,7.464966,2.872744,7.511551,14.306328,1.050767,4.563947,1.881209,5.479810,4.004569,1.644632,5.359436,2.150307,4.782660,3.256611,1.365305,5.934371,4.055538
1656265726.564947,117.000000,0.000000,4215.897461,4224.102539,4056.410156,4010.256348,4171.282227,450.000000,4.000000,95.000000,,,,0.000000,4.000000,4.000000,4.000000,4.000000,4.000000,100.000000,,,,,,,,,,,,,,,,,,,,,,,,,,,,,,,,,,,,,,,,,,,,,,,,,,,,,,,,,,,,,,,
1656265726.572761,118.000000,0.000000,4204.615234,4212.820313,4044.615479,4026.666748,4192.820313,450.000000,4.000000,95.000000,,,,0.000000,4.000000,4.000000,4.000000,4.000000,4.000000,100.000000,,,,,,,,,,,,,,,,,,,,,,,,,,,,,,,,,,,,,,,,,,,,,,,,,,,,,,,,,,,,,,,
1656265726.580576,119.000000,0.000000,4218.974121,4234.358887,4066.153809,4058.461426,4212.820313,16120.000000,4.000000,95.000000,,,,0.000000,4.000000,4.000000,4.000000,4.000000,4.000000,100.000000,,,,,,,,,,,,,,,,,,,,,,,,,,,,,,,,,,,,,,,,,,,,,,,,,,,,,,,,,,,,,,,
1656265726.588290,120.000000,0.000000,4233.846191,4244.102539,4073.846191,4054.358887,4196.410156,450.000000,4.000000,95.000000,,,,0.000000,4.000000,4.000000,4.000000,4.000000,4.000000,100.000000,,,,,,,,,,,,,,,,,,,,,,,,,,,,,,,,,,,,,,,,,,,,,,,,,,,,,,,,,,,,,,,
1656265726.596205,121.000000,0.000000,4243.077148,4237.948730,4053.333252,4057.948730,4207.692383,450.000000,4.000000,95.000000,,,,0.000000,4.000000,4.000000,4.000000,4.000000,4.000000,100.000000,,,,,,,,,,,,,,,,,,,,,,,,,,,,,,,,,,,,,,,,,,,,,,,,,,,,,,,,,,,,,,,
1656265726.604019,122.000000,0.000000,4249.230957,4230.256348,4047.692383,4067.692383,4221.538574,450.000000,4.000000,95.000000,,,,0.000000,4.000000,4.000000,4.000000,4.000000,4.000000,100.000000,,,,,,,,,,,,,,,,,,,,,,,,,,,,,,,,,,,,,,,,,,,,,,,,,,,,,,,,,,,,,,,
1656265726.611833,123.000000,0.000000,4246.666504,4231.794922,4079.487061,4073.333252,4207.692383,16120.000000,4.000000,95.000000,,,,0.000000,4.000000,4.000000,4.000000,4.000000,4.000000,100.000000,,,,,,,,,,,,,,,,,,,,,,,,,,,,,,,,,,,,,,,,,,,,,,,,,,,,,,,,,,,,,,,
1656265726.619548,124.000000,0.000000,4218.461426,4245.641113,4091.794922,4077.948730,4196.922852,450.000000,4.000000,95.000000,,,,0.000000,4.000000,4.000000,4.000000,4.000000,4.000000,100.000000,,,,,,,,,,,,,,,,,,,,,,,,,,,,,,,,,,,,,,,,,,,,,,,,,,,,,,,,,,,,,,,
1656265726.627462,125.000000,0.000000,4194.358887,4247.692383,4078.461426,4060.000000,4192.820313,450.000000,4.000000,95.000000,,,,0.000000,4.000000,4.000000,4.000000,4.000000,4.000000,100.000000,,,,,,,,,,,,,,,,,,,,,,,,,,,,,,,,,,,,,,,,,,,,,,,,,,,,,,,,,,,,,,,
1656265726.635277,126.000000,0.000000,4254.871582,4260.512695,4101.025879,4076.923096,4211.794922,450.000000,4.000000,95.000000,,,,0.000000,4.000000,4.000000,4.000000,4.000000,4.000000,100.000000,,,,,,,,,,,,,,,,,,,,,,,,,,,,,,,,,,,,,,,,,,,,,,,,,,,,,,,,,,,,,,,
1656265726.643191,127.000000,0.000000,4326.666504,4270.256348,4116.410156,4112.820313,4230.769043,243.000000,4.000000,95.000000,,,,0.000000,4.000000,4.000000,4.000000,4.000000,4.000000,100.000000,,,,,,,,,,,,,,,,,,,,,,,,,,,,,,,,,,,,,,,,,,,,,,,,,,,,,,,,,,,,,,,
1656265726.651005,0.000000,0.000000,4315.897461,4268.205078,4096.410156,4095.384521,4242.051270,450.000000,4.000000,95.000000,,,,0.000000,4.000000,4.000000,4.000000,4.000000,4.000000,100.000000,,,,,,,,,,,,,,,,,,,,,,,,,,,,,,,,,,,,,,,,,,,,,,,,,,,,,,,,,,,,,,,
1656265726.658920,1.000000,0.000000,4268.205078,4248.717773,4068.205078,4056.923096,4238.974121,450.000000,4.000000,95.000000,,,,0.000000,4.000000,4.000000,4.000000,4.000000,4.000000,100.000000,,,,,,,,,,,,,,,,,,,,,,,,,,,,,,,,,,,,,,,,,,,,,,,,,,,,,,,,,,,,,,,
1656265726.666734,2.000000,0.000000,4224.615234,4206.666504,4045.128174,4047.179443,4194.871582,16203.000000,4.000000,95.000000,,,,0.000000,4.000000,4.000000,4.000000,4.000000,4.000000,100.000000,,,,,,,,,,,,,,,,,,,,,,,,,,,,,,,,,,,,,,,,,,,,,,,,,,,,,,,,,,,,,,,
1656265726.674648,3.000000,0.000000,4232.307617,4230.256348,4063.076904,4071.794922,4197.948730,450.000000,4.000000,95.000000,,,,0.000000,4.000000,4.000000,4.000000,4.000000,4.000000,100.000000,,,,,,,,,,,,,,,,,,,,,,,,,,,,,,,,,,,,,,,,,,,,,,,,,,,,,,,,,,,,,,,
1656265726.682463,4.000000,0.000000,4282.563965,4280.512695,4086.666748,4094.358887,4257.948730,16104.000000,4.000000,95.000000,,,,0.000000,4.000000,4.000000,4.000000,4.000000,4.000000,100.000000,1.000000,75.000000,3.000000,4.000000,4.000000,3.000000,3.000000,,,,,,,,,,,,,,,,,,,,,,,,,,,,,,,,5.594391,2.542802,2.051275,8.174632,5.022655,5.171686,3.556245,2.366883,7.320578,3.039677,6.501051,12.147511,0.932478,4.375015,1.850231,5.901301,3.313020,1.768910,4.639646,1.802577,4.613637,2.822845,1.200239,5.937252,3.915621
1656265726.690377,5.000000,0.000000,4304.102539,4264.615234,4085.128174,4101.025879,4260.000000,450.000000,4.000000,95.000000,,,,0.000000,4.000000,4.000000,4.000000,4.000000,4.000000,100.000000,,,,,,,,,,,,,,,,,,,,,,,,,,,,,,,,,,,,,,,,,,,,,,,,,,,,,,,,,,,,,,,
1656265726.698191,6.000000,0.000000,4263.077148,4236.922852,4077.948730,4066.153809,4202.051270,16159.000000,4.000000,95.000000,,,,0.000000,4.000000,4.000000,4.000000,4.000000,4.000000,100.000000,,,,,,,,,,,,,,,,,,,,,,,,,,,,,,,,,,,,,,,,,,,,,,,,,,,,,,,,,,,,,,,
1656265726.705906,7.000000,0.000000,4196.410156,4237.948730,4060.512939,4020.512939,4158.974121,450.000000,4.000000,95.000000,,,,0.000000,4.000000,4.000000,4.000000,4.000000,4.000000,100.000000,,,,,,,,,,,,,,,,,,,,,,,,,,,,,,,,,,,,,,,,,,,,,,,,,,,,,,,,,,,,,,,
1656265726.713720,8.000000,0.000000,4213.846191,4254.871582,4070.256348,4052.307617,4191.794922,450.000000,4.000000,95.000000,,,,0.000000,4.000000,4.000000,4.000000,4.000000,4.000000,100.000000,,,,,,,,,,,,,,,,,,,,,,,,,,,,,,,,,,,,,,,,,,,,,,,,,,,,,,,,,,,,,,,
1656265726.721435,9.000000,0.000000,4273.846191,4264.102539,4090.769287,4089.743652,4248.205078,16121.000000,4.000000,95.000000,,,,0.000000,4.000000,4.000000,4.000000,4.000000,4.000000,100.000000,,,,,,,,,,,,,,,,,,,,,,,,,,,,,,,,,,,,,,,,,,,,,,,,,,,,,,,,,,,,,,,
1656265726.729249,10.000000,0.000000,4265.128418,4263.589844,4091.794922,4085.128174,4238.461426,450.000000,4.000000,95.000000,,,,0.000000,4.000000,4.000000,4.000000,4.000000,4.000000,100.000000,,,,,,,,,,,,,,,,,,,,,,,,,,,,,,,,,,,,,,,,,,,,,,,,,,,,,,,,,,,,,,,
1656265726.736964,11.000000,0.000000,4238.974121,4246.153809,4100.512695,4082.564209,4202.563965,16179.000000,4.000000,95.000000,,,,0.000000,4.000000,4.000000,4.000000,4.000000,4.000000,100.000000,,,,,,,,,,,,,,,,,,,,,,,,,,,,,,,,,,,,,,,,,,,,,,,,,,,,,,,,,,,,,,,
1656265726.744778,12.000000,0.000000,4233.846191,4201.025879,4094.358887,4059.487061,4188.205078,450.000000,4.000000,95.000000,,,,0.000000,4.000000,4.000000,4.000000,4.000000,4.000000,100.000000,,,,,,,,,,,,,,,,,,,,,,,,,,,,,,,,,,,,,,,,,,,,,,,,,,,,,,,,,,,,,,,
1656265726.752493,13.000000,0.000000,4257.436035,4200.512695,4092.820557,4056.923096,4202.563965,450.000000,4.000000,95.000000,,,,0.000000,4.000000,4.000000,4.000000,4.000000,4.000000,100.000000,,,,,,,,,,,,,,,,,,,,,,,,,,,,,,,,,,,,,,,,,,,,,,,,,,,,,,,,,,,,,,,
1656265726.760307,14.000000,0.000000,4272.820313,4225.641113,4097.948730,4073.846191,4213.333496,450.000000,4.000000,95.000000,,,,0.000000,4.000000,4.000000,4.000000,4.000000,4.000000,100.000000,,,,,,,,,,,,,,,,,,,,,,,,,,,,,,,,,,,,,,,,,,,,,,,,,,,,,,,,,,,,,,,
1656265726.768022,15.000000,0.000000,4240.000000,4205.641113,4082.051270,4053.333252,4201.025879,16179.000000,4.000000,95.000000,,,,0.000000,4.000000,4.000000,4.000000,4.000000,4.000000,100.000000,,,,,,,,,,,,,,,,,,,,,,,,,,,,,,,,,,,,,,,,,,,,,,,,,,,,,,,,,,,,,,,
1656265726.775836,16.000000,0.000000,4249.230957,4208.205078,4068.718018,4062.051270,4229.743652,0.000000,4.000000,95.000000,,,,0.000000,4.000000,4.000000,4.000000,4.000000,4.000000,100.000000,,,,,,,,,,,,,,,,,,,,,,,,,,,,,,,,,,,,,,,,,,,,,,,,,,,,,,,,,,,,,,,
1656265726.783551,17.000000,0.000000,4292.307617,4226.666504,4060.512939,4096.922852,4262.051270,0.000000,4.000000,95.000000,,,,0.000000,4.000000,4.000000,4.000000,4.000000,4.000000,100.000000,,,,,,,,,,,,,,,,,,,,,,,,,,,,,,,,,,,,,,,,,,,,,,,,,,,,,,,,,,,,,,,
1656265726.791365,18.000000,0.000000,4285.641113,4215.384766,4081.538574,4086.666748,4233.333496,0.000000,4.000000,95.000000,,,,0.000000,4.000000,4.000000,4.000000,4.000000,4.000000,100.000000,,,,,,,,,,,,,,,,,,,,,,,,,,,,,,,,,,,,,,,,,,,,,,,,,,,,,,,,,,,,,,,
1656265726.799079,19.000000,0.000000,4234.358887,4199.487305,4103.589844,4051.794922,4185.641113,0.000000,4.000000,95.000000,,,,0.000000,4.000000,4.000000,4.000000,4.000000,4.000000,100.000000,,,,,,,,,,,,,,,,,,,,,,,,,,,,,,,,,,,,,,,,,,,,,,,,,,,,,,,,,,,,,,,
1656265726.806894,20.000000,0.000000,4188.717773,4179.487305,4082.051270,4034.871826,4166.666504,0.000000,4.000000,95.000000,,,,0.000000,4.000000,4.000000,4.000000,4.000000,4.000000,100.000000,,,,,,,,,,,,,,,,,,,,,,,,,,,,,,,,,,,,,,,5.764588,2.162063,1.621253,8.214729,4.903056,5.104621,3.743805,2.327199,6.967713,3.185666,5.250510,10.212255,0.820065,4.127237,1.829798,5.829336,2.818051,1.906368,3.985098,1.620663,4.538073,2.316847,1.104616,6.144140,3.733221
1656265726.814608,21.000000,0.000000,4212.820313,4183.077148,4075.897461,4067.692383,4194.358887,0.000000,4.000000,95.000000,,,,0.000000,4.000000,4.000000,4.000000,4.000000,4.000000,100.000000,,,,,,,,,,,,,,,,,,,,,,,,,,,,,,,,,,,,,,,,,,,,,,,,,,,,,,,,,,,,,,,
1656265726.822423,22.000000,0.000000,4267.179688,4199.487305,4093.846191,4087.179443,4218.461426,0.000000,4.000000,95.000000,,,,0.000000,4.000000,4.000000,4.000000,4.000000,4.000000,100.000000,,,,,,,,,,,,,,,,,,,,,,,,,,,,,,,,,,,,,,,,,,,,,,,,,,,,,,,,,,,,,,,
1656265726.830137,23.000000,0.000000,4276.922852,4207.179688,4102.563965,4056.410156,4209.230957,0.000000,4.000000,95.000000,,,,0.000000,4.000000,4.000000,4.000000,4.000000,4.000000,100.000000,,,,,,,,,,,,,,,,,,,,,,,,,,,,,,,,,,,,,,,,,,,,,,,,,,,,,,,,,,,,,,,
1656265726.838052,24.000000,0.000000,4228.717773,4195.897461,4087.179443,4047.179443,4187.692383,0.000000,4.000000,95.000000,,,,0.000000,4.000000,4.000000,4.000000,4.000000,4.000000,100.000000,,,,,,,,,,,,,,,,,,,,,,,,,,,,,,,,,,,,,,,,,,,,,,,,,,,,,,,,,,,,,,,
1656265726.845866,25.000000,0.000000,4182.563965,4161.025879,4058.461426,4049.230713,4155.897461,0.000000,4.000000,95.000000,,,,0.000000,4.000000,4.000000,4.000000,4.000000,4.000000,100.000000,,,,,,,,,,,,,,,,,,,,,,,,,,,,,,,,,,,,,,,,,,,,,,,,,,,,,,,,,,,,,,,
1656265726.853680,26.000000,0.000000,4230.256348,4186.666504,4067.179443,4043.589844,4178.461426,0.000000,4.000000,95.000000,,,,0.000000,4.000000,4.000000,4.000000,4.000000,4.000000,100.000000,,,,,,,,,,,,,,,,,,,,,,,,,,,,,,,,,,,,,,,,,,,,,,,,,,,,,,,,,,,,,,,
1656265726.861395,27.000000,0.000000,4296.922852,4236.922852,4088.205078,4058.461426,4240.512695,0.000000,4.000000,95.000000,,,,0.000000,4.000000,4.000000,4.000000,4.000000,4.000000,100.000000,,,,,,,,,,,,,,,,,,,,,,,,,,,,,,,,,,,,,,,,,,,,,,,,,,,,,,,,,,,,,,,
1656265726.869309,28.000000,0.000000,4274.871582,4216.922852,4089.230713,4071.794922,4231.794922,0.000000,4.000000,95.000000,,,,0.000000,4.000000,4.000000,4.000000,4.000000,4.000000,100.000000,,,,,,,,,,,,,,,,,,,,,,,,,,,,,,,,,,,,,,,,,,,,,,,,,,,,,,,,,,,,,,,
1656265726.877124,29.000000,0.000000,4227.179688,4190.256348,4080.000000,4062.051270,4184.615234,0.000000,4.000000,95.000000,,,,0.000000,4.000000,4.000000,4.000000,4.000000,4.000000,100.000000,,,,,,,,,,,,,,,,,,,,,,,,,,,,,,,,,,,,,,,,,,,,,,,,,,,,,,,,,,,,,,,
1656265726.885038,30.000000,0.000000,4219.487305,4187.179688,4051.794922,4038.974365,4183.589844,0.000000,4.000000,95.000000,,,,0.000000,4.000000,4.000000,4.000000,4.000000,4.000000,100.000000,,,,,,,,,,,,,,,,,,,,,,,,,,,,,,,,,,,,,,,,,,,,,,,,,,,,,,,,,,,,,,,
1656265726.892852,31.000000,0.000000,4246.153809,4180.000000,4055.384521,4048.718018,4216.410156,0.000000,4.000000,95.000000,,,,0.000000,4.000000,4.000000,4.000000,4.000000,4.000000,100.000000,,,,,,,,,,,,,,,,,,,,,,,,,,,,,,,,,,,,,,,,,,,,,,,,,,,,,,,,,,,,,,,
1656265726.900767,32.000000,0.000000,4259.487305,4178.461426,4095.897461,4068.205078,4220.000000,0.000000,4.000000,95.000000,,,,0.000000,4.000000,4.000000,4.000000,4.000000,4.000000,100.000000,,,,,,,,,,,,,,,,,,,,,,,,,,,,,,,,,,,,,,,,,,,,,,,,,,,,,,,,,,,,,,,
1656265726.908581,33.000000,0.000000,4251.794922,4181.025879,4108.205078,4058.974365,4207.179688,0.000000,4.000000,95.000000,,,,0.000000,4.000000,4.000000,4.000000,4.000000,4.000000,100.000000,,,,,,,,,,,,,,,,,,,,,,,,,,,,,,,,,,,,,,,,,,,,,,,,,,,,,,,,,,,,,,,
1656265726.916495,34.000000,0.000000,4251.794922,4193.846191,4108.717773,4054.358887,4192.820313,0.000000,4.000000,95.000000,,,,0.000000,4.000000,4.000000,4.000000,4.000000,4.000000,100.000000,,,,,,,,,,,,,,,,,,,,,,,,,,,,,,,,,,,,,,,,,,,,,,,,,,,,,,,,,,,,,,,
1656265726.924310,35.000000,0.000000,4242.051270,4211.282227,4096.922852,4044.102539,4178.461426,0.000000,4.000000,95.000000,,,,0.000000,4.000000,4.000000,4.000000,4.000000,4.000000,100.000000,,,,,,,,,,,,,,,,,,,,,,,,,,,,,,,,,,,,,,,,,,,,,,,,,,,,,,,,,,,,,,,
1656265726.932024,36.000000,0.000000,4250.769043,4212.307617,4078.974365,4039.487061,4219.487305,0.000000,4.000000,95.000000,,,,0.000000,4.000000,4.000000,4.000000,4.000000,4.000000,100.000000,,,,,,,,,,,,,,,,,,,,,,,,,,,,,,,,,,,,,,,5.695044,1.856261,1.171937,8.997721,5.045536,4.947080,3.605692,2.289830,6.463134,3.231003,4.029825,8.663676,0.749815,3.897498,1.812685,5.250831,2.582503,2.003355,3.515527,1.612226,4.403740,1.901063,1.062506,6.343270,3.508630
1656265726.939839,37.000000,0.000000,4256.410156,4188.205078,4095.384521,4038.974365,4240.000000,0.000000,4.000000,95.000000,,,,0.000000,4.000000,4.000000,4.000000,4.000000,4.000000,100.000000,,,,,,,,,,,,,,,,,,,,,,,,,,,,,,,,,,,,,,,,,,,,,,,,,,,,,,,,,,,,,,,
1656265726.947553,38.000000,0.000000,4226.153809,4176.922852,4115.897461,4026.666748,4194.358887,0.000000,4.000000,95.000000,,,,0.000000,4.000000,4.000000,4.000000,4.000000,4.000000,100.000000,,,,,,,,,,,,,,,,,,,,,,,,,,,,,,,,,,,,,,,,,,,,,,,,,,,,,,,,,,,,,,,
1656265726.955368,39.000000,0.000000,4249.743652,4216.922852,4113.333496,4035.897461,4190.256348,0.000000,4.000000,95.000000,,,,0.000000,4.000000,4.000000,4.000000,4.000000,4.000000,100.000000,,,,,,,,,,,,,,,,,,,,,,,,,,,,,,,,,,,,,,,,,,,,,,,,,,,,,,,,,,,,,,,
1656265726.963082,40.000000,0.000000,4288.205078,4243.589844,4093.846191,4045.641113,4205.641113,0.000000,4.000000,95.000000,,,,0.000000,4.000000,4.000000,4.000000,4.000000,4.000000,100.000000,,,,,,,,,,,,,,,,,,,,,,,,,,,,,,,,,,,,,,,,,,,,,,,,,,,,,,,,,,,,,,,
1656265726.970897,41.000000,0.000000,4264.615234,4220.512695,4075.897461,4037.948730,4197.436035,0.000000,4.000000,95.000000,,,,0.000000,4.000000,4.000000,4.000000,4.000000,4.000000,100.000000,,,,,,,,,,,,,,,,,,,,,,,,,,,,,,,,,,,,,,,,,,,,,,,,,,,,,,,,,,,,,,,
1656265726.978611,42.000000,0.000000,4219.487305,4191.794922,4068.718018,4034.871826,4193.333496,0.000000,4.000000,95.000000,,,,0.000000,4.000000,4.000000,4.000000,4.000000,4.000000,100.000000,,,,,,,,,,,,,,,,,,,,,,,,,,,,,,,,,,,,,,,,,,,,,,,,,,,,,,,,,,,,,,,
1656265726.986425,43.000000,0.000000,4193.333496,4178.461426,4076.410156,4043.076904,4176.922852,0.000000,4.000000,95.000000,,,,0.000000,4.000000,4.000000,4.000000,4.000000,4.000000,100.000000,,,,,,,,,,,,,,,,,,,,,,,,,,,,,,,,,,,,,,,,,,,,,,,,,,,,,,,,,,,,,,,
1656265726.994140,44.000000,0.000000,4222.563965,4218.974121,4095.384521,4065.641113,4201.538574,0.000000,4.000000,95.000000,,,,0.000000,4.000000,4.000000,4.000000,4.000000,4.000000,100.000000,,,,,,,,,,,,,,,,,,,,,,,,,,,,,,,,,,,,,,,,,,,,,,,,,,,,,,,,,,,,,,,
1656265727.002054,45.000000,0.000000,4277.948730,4268.205078,4084.615479,4077.435791,4250.256348,0.000000,4.000000,95.000000,,,,0.000000,4.000000,4.000000,4.000000,4.000000,4.000000,100.000000,,,,,,,,,,,,,,,,,,,,,,,,,,,,,,,,,,,,,,,,,,,,,,,,,,,,,,,,,,,,,,,
1656265727.009869,46.000000,0.000000,4283.077148,4248.205078,4084.102539,4076.923096,4249.230957,0.000000,4.000000,95.000000,,,,0.000000,4.000000,4.000000,4.000000,4.000000,4.000000,100.000000,,,,,,,,,,,,,,,,,,,,,,,,,,,,,,,,,,,,,,,,,,,,,,,,,,,,,,,,,,,,,,,
1656265727.017683,47.000000,0.000000,4235.897461,4193.333496,4109.230957,4064.615479,4214.871582,0.000000,4.000000,95.000000,,,,0.000000,4.000000,4.000000,4.000000,4.000000,4.000000,100.000000,,,,,,,,,,,,,,,,,,,,,,,,,,,,,,,,,,,,,,,,,,,,,,,,,,,,,,,,,,,,,,,
1656265727.025398,48.000000,0.000000,4203.077148,4169.230957,4092.820557,4026.153809,4173.333496,0.000000,4.000000,95.000000,,,,0.000000,4.000000,4.000000,4.000000,4.000000,4.000000,100.000000,,,,,,,,,,,,,,,,,,,,,,,,,,,,,,,,,,,,,,,,,,,,,,,,,,,,,,,,,,,,,,,
1656265727.033312,49.000000,0.000000,4244.615234,4195.384766,4080.000000,4014.871826,4197.948730,0.000000,4.000000,95.000000,,,,0.000000,4.000000,4.000000,4.000000,4.000000,4.000000,100.000000,,,,,,,,,,,,,,,,,,,,,,,,,,,,,,,,,,,,,,,,,,,,,,,,,,,,,,,,,,,,,,,
1656265727.041126,50.000000,0.000000,4294.871582,4229.743652,4109.230957,4038.461426,4253.846191,0.000000,4.000000,95.000000,,,,0.000000,4.000000,4.000000,4.000000,4.000000,4.000000,100.000000,,,,,,,,,,,,,,,,,,,,,,,,,,,,,,,,,,,,,,,,,,,,,,,,,,,,,,,,,,,,,,,
1656265727.049041,51.000000,0.000000,4272.307617,4231.282227,4130.256348,4054.358887,4228.717773,0.000000,4.000000,95.000000,,,,0.000000,4.000000,4.000000,4.000000,4.000000,4.000000,100.000000,,,,,,,,,,,,,,,,,,,,,,,,,,,,,,,,,,,,,,,,,,,,,,,,,,,,,,,,,,,,,,,
1656265727.056955,52.000000,0.000000,4229.743652,4221.025879,4109.230957,4054.871826,4180.512695,0.000000,4.000000,95.000000,,,,0.000000,4.000000,4.000000,4.000000,4.000000,4.000000,100.000000,,,,,,,,,,,,,,,,,,,,,,,,,,,,,,,,,,,,,,,5.405823,1.738953,0.804163,10.558585,5.404076,4.709833,3.214562,2.313155,5.946809,3.158713,3.049933,7.471845,0.755436,3.723556,1.798778,4.457687,2.514031,2.027790,3.350539,1.739516,4.097898,1.711699,1.060516,6.413459,3.297559
1656265727.064769,53.000000,0.000000,4221.538574,4209.743652,4076.923096,4036.410156,4187.179688,0.000000,4.000000,95.000000,,,,0.000000,4.000000,4.000000,4.000000,4.000000,4.000000,100.000000,,,,,,,,,,,,,,,,,,,,,,,,,,,,,,,,,,,,,,,,,,,,,,,,,,,,,,,,,,,,,,,
1656265727.072684,54.000000,0.000000,4249.743652,4233.333496,4091.794922,4045.128174,4229.230957,0.000000,4.000000,95.000000,,,,0.000000,4.000000,4.000000,4.000000,4.000000,4.000000,100.000000,,,,,,,,,,,,,,,,,,,,,,,,,,,,,,,,,,,,,,,,,,,,,,,,,,,,,,,,,,,,,,,
1656265727.080498,55.000000,0.000000,4270.256348,4268.717773,4103.077148,4072.820557,4258.461426,0.000000,4.000000,95.000000,,,,0.000000,4.000000,4.000000,4.000000,4.000000,4.000000,100.000000,,,,,,,,,,,,,,,,,,,,,,,,,,,,,,,,,,,,,,,,,,,,,,,,,,,,,,,,,,,,,,,
1656265727.088412,56.000000,0.000000,4263.077148,4252.307617,4091.794922,4070.256348,4251.282227,0.000000,4.000000,95.000000,,,,0.000000,4.000000,4.000000,4.000000,4.000000,4.000000,100.000000,,,,,,,,,,,,,,,,,,,,,,,,,,,,,,,,,,,,,,,,,,,,,,,,,,,,,,,,,,,,,,,
1656265727.096227,57.000000,0.000000,4260.512695,4221.538574,4111.282227,4063.589844,4219.487305,0.000000,4.000000,95.000000,,,,0.000000,4.000000,4.000000,4.000000,4.000000,4.000000,100.000000,,,,,,,,,,,,,,,,,,,,,,,,,,,,,,,,,,,,,,,,,,,,,,,,,,,,,,,,,,,,,,,
1656265727.104141,58.000000,0.000000,4257.948730,4227.179688,4110.256348,4052.820557,4195.897461,0.000000,4.000000,95.000000,,,,0.000000,4.000000,4.000000,4.000000,4.000000,4.000000,100.000000,,,,,,,,,,,,,,,,,,,,,,,,,,,,,,,,,,,,,,,,,,,,,,,,,,,,,,,,,,,,,,,
1656265727.111955,59.000000,0.000000,4276.410156,4263.589844,4096.410156,4047.179443,4220.000000,0.000000,4.000000,95.000000,,,,0.000000,4.000000,4.000000,4.000000,4.000000,4.000000,100.000000,,,,,,,,,,,,,,,,,,,,,,,,,,,,,,,,,,,,,,,,,,,,,,,,,,,,,,,,,,,,,,,
1656265727.119870,60.000000,0.000000,4290.256348,4261.025879,4096.922852,4045.641113,4248.205078,0.000000,4.000000,95.000000,,,,0.000000,4.000000,4.000000,4.000000,4.000000,4.000000,100.000000,,,,,,,,,,,,,,,,,,,,,,,,,,,,,,,,,,,,,,,,,,,,,,,,,,,,,,,,,,,,,,,
1656265727.127684,61.000000,0.000000,4250.256348,4212.820313,4099.487305,4029.230713,4218.974121,0.000000,4.000000,95.000000,,,,0.000000,4.000000,4.000000,4.000000,4.000000,4.000000,100.000000,,,,,,,,,,,,,,,,,,,,,,,,,,,,,,,,,,,,,,,,,,,,,,,,,,,,,,,,,,,,,,,
1656265727.135598,62.000000,0.000000,4255.897461,4233.846191,4121.538574,4055.384521,4216.922852,0.000000,4.000000,95.000000,,,,0.000000,4.000000,4.000000,4.000000,4.000000,4.000000,100.000000,,,,,,,,,,,,,,,,,,,,,,,,,,,,,,,,,,,,,,,,,,,,,,,,,,,,,,,,,,,,,,,
1656265727.143413,63.000000,0.000000,4301.538574,4283.589844,4121.538574,4086.153809,4260.000000,0.000000,4.000000,95.000000,,,,0.000000,4.000000,4.000000,4.000000,4.000000,4.000000,100.000000,,,,,,,,,,,,,,,,,,,,,,,,,,,,,,,,,,,,,,,,,,,,,,,,,,,,,,,,,,,,,,,
1656265727.151327,64.000000,0.000000,4273.846191,4269.230957,4103.077148,4077.948730,4252.820313,450.000000,4.000000,95.000000,,,,0.000000,4.000000,4.000000,4.000000,4.000000,4.000000,100.000000,,,,,,,,,,,,,,,,,,,,,,,,,,,,,,,,,,,,,,,,,,,,,,,,,,,,,,,,,,,,,,,
1656265727.159142,65.000000,0.000000,4206.666504,4231.282227,4110.256348,4069.230713,4189.230957,450.000000,4.000000,95.000000,,,,0.000000,4.000000,4.000000,4.000000,4.000000,4.000000,100.000000,,,,,,,,,,,,,,,,,,,,,,,,,,,,,,,,,,,,,,,,,,,,,,,,,,,,,,,,,,,,,,,
1656265727.167056,66.000000,0.000000,4198.974121,4217.436035,4110.769043,4060.512939,4164.102539,16153.000000,4.000000,95.000000,,,,0.000000,4.000000,4.000000,4.000000,4.000000,4.000000,100.000000,,,,,,,,,,,,,,,,,,,,,,,,,,,,,,,,,,,,,,,,,,,,,,,,,,,,,,,,,,,,,,,
1656265727.174970,67.000000,0.000000,4261.538574,4246.666504,4100.512695,4048.718018,4221.538574,450.000000,4.000000,95.000000,,,,0.000000,4.000000,4.000000,4.000000,4.000000,4.000000,100.000000,,,,,,,,,,,,,,,,,,,,,,,,,,,,,,,,,,,,,,,,,,,,,,,,,,,,,,,,,,,,,,,
1656265727.182785,68.000000,0.000000,4300.512695,4283.077148,4096.922852,4051.794922,4267.179688,16156.000000,4.000000,95.000000,,,,0.000000,4.000000,4.000000,4.000000,4.000000,4.000000,100.000000,1.000000,83.333336,3.000000,4.000000,4.000000,4.000000,3.000000,,,,,,,,,,,,,,,,,,,,,,,,,,,,,,,,5.002307,1.879157,0.569247,12.655988,5.874413,4.425997,2.713792,2.419406,5.567343,3.002439,2.377722,6.530099,0.847330,3.611390,1.793169,3.773490,2.455597,1.950856,3.533379,1.935524,3.601820,1.787322,1.097268,6.363561,3.191729
1656265727.190699,69.000000,0.000000,4296.922852,4286.153809,4109.743652,4081.538574,4261.025879,450.000000,4.000000,95.000000,,,,0.000000,4.000000,4.000000,4.000000,4.000000,4.000000,100.000000,,,,,,,,,,,,,,,,,,,,,,,,,,,,,,,,,,,,,,,,,,,,,,,,,,,,,,,,,,,,,,,
1656265727.198513,70.000000,0.000000,4278.461426,4250.256348,4115.384766,4081.025635,4233.333496,16140.000000,4.000000,95.000000,,,,0.000000,4.000000,4.000000,4.000000,4.000000,4.000000,100.000000,,,,,,,,,,,,,,,,,,,,,,,,,,,,,,,,,,,,,,,,,,,,,,,,,,,,,,,,,,,,,,,
1656265727.206428,71.000000,0.000000,4241.025879,4199.487305,4101.025879,4027.179443,4194.871582,450.000000,4.000000,95.000000,,,,0.000000,4.000000,4.000000,4.000000,4.000000,4.000000,100.000000,,,,,,,,,,,,,,,,,,,,,,,,,,,,,,,,,,,,,,,,,,,,,,,,,,,,,,,,,,,,,,,
1656265727.214242,72.000000,0.000000,4258.461426,4226.153809,4104.615234,4029.743652,4215.897461,450.000000,4.000000,95.000000,,,,0.000000,4.000000,4.000000,4.000000,4.000000,4.000000,100.000000,,,,,,,,,,,,,,,,,,,,,,,,,,,,,,,,,,,,,,,,,,,,,,,,,,,,,,,,,,,,,,,
1656265727.222056,73.000000,0.000000,4317.948730,4296.410156,4110.256348,4086.153809,4272.307617,16162.000000,4.000000,95.000000,,,,0.000000,4.000000,4.000000,4.000000,4.000000,4.000000,100.000000,,,,,,,,,,,,,,,,,,,,,,,,,,,,,,,,,,,,,,,,,,,,,,,,,,,,,,,,,,,,,,,
1656265727.229971,74.000000,0.000000,4307.179688,4287.692383,4106.153809,4092.820557,4273.333496,450.000000,4.000000,95.000000,,,,0.000000,4.000000,4.000000,4.000000,4.000000,4.000000,100.000000,,,,,,,,,,,,,,,,,,,,,,,,,,,,,,,,,,,,,,,,,,,,,,,,,,,,,,,,,,,,,,,
1656265727.237785,75.000000,0.000000,4270.769043,4221.538574,4093.333252,4074.871826,4243.077148,16114.000000,4.000000,95.000000,,,,0.000000,4.000000,4.000000,4.000000,4.000000,4.000000,100.000000,,,,,,,,,,,,,,,,,,,,,,,,,,,,,,,,,,,,,,,,,,,,,,,,,,,,,,,,,,,,,,,
1656265727.245699,76.000000,0.000000,4270.769043,4183.077148,4069.230713,4074.358887,4222.563965,450.000000,4.000000,95.000000,,,,0.000000,4.000000,4.000000,4.000000,4.000000,4.000000,100.000000,,,,,,,,,,,,,,,,,,,,,,,,,,,,,,,,,,,,,,,,,,,,,,,,,,,,,,,,,,,,,,,
1656265727.253614,77.000000,0.000000,4279.487305,4220.000000,4095.384521,4095.897461,4230.769043,450.000000,4.000000,95.000000,,,,0.000000,4.000000,4.000000,4.000000,4.000000,4.000000,100.000000,,,,,,,,,,,,,,,,,,,,,,,,,,,,,,,,,,,,,,,,,,,,,,,,,,,,,,,,,,,,,,,
