title:david_g_Backwards, start timestamp:1656264699.828950, stop timestamp:1656264704.822056, headset type:INSIGHT, headset serial:A2D201AE, headset firmware:932, channels:84, sampling rate:eeg_128;pm_0.1;pow_8, samples:640       , version:2.1, 
Timestamp,EEG.Counter,EEG.Interpolated,EEG.AF3,EEG.T7,EEG.Pz,EEG.T8,EEG.AF4,EEG.RawCq,EEG.Battery,EEG.BatteryPercent,MarkerIndex,MarkerType,MarkerValueInt,EEG.MarkerHardware,CQ.AF3,CQ.T7,CQ.Pz,CQ.T8,CQ.AF4,CQ.Overall,EQ.SampleRateQuality,EQ.OVERALL,EQ.AF3,EQ.T7,EQ.Pz,EQ.T8,EQ.AF4,PM.Engagement.IsActive,PM.Engagement.Scaled,PM.Engagement.Raw,PM.Engagement.Min,PM.Engagement.Max,PM.Excitement.IsActive,PM.Excitement.Scaled,PM.Excitement.Raw,PM.Excitement.Min,PM.Excitement.Max,PM.LongTermExcitement,PM.Stress.IsActive,PM.Stress.Scaled,PM.Stress.Raw,PM.Stress.Min,PM.Stress.Max,PM.Relaxation.IsActive,PM.Relaxation.Scaled,PM.Relaxation.Raw,PM.Relaxation.Min,PM.Relaxation.Max,PM.Interest.IsActive,PM.Interest.Scaled,PM.Interest.Raw,PM.Interest.Min,PM.Interest.Max,PM.Focus.IsActive,PM.Focus.Scaled,PM.Focus.Raw,PM.Focus.Min,PM.Focus.Max,POW.AF3.Theta,POW.AF3.Alpha,POW.AF3.BetaL,POW.AF3.BetaH,POW.AF3.Gamma,POW.T7.Theta,POW.T7.Alpha,POW.T7.BetaL,POW.T7.BetaH,POW.T7.Gamma,POW.Pz.Theta,POW.Pz.Alpha,POW.Pz.BetaL,POW.Pz.BetaH,POW.Pz.Gamma,POW.T8.Theta,POW.T8.Alpha,POW.T8.BetaL,POW.T8.BetaH,POW.T8.Gamma,POW.AF4.Theta,POW.AF4.Alpha,POW.AF4.BetaL,POW.AF4.BetaH,POW.AF4.Gamma
1656264699.828950,12.000000,0.000000,4274.358887,4244.615234,4159.487305,4111.282227,4251.794922,450.000000,4.000000,86.000000,,,,0.000000,4.000000,4.000000,4.000000,4.000000,4.000000,100.000000,,,,,,,,,,,,,,,,,,,,,,,,,,,,,,,,,,,,,,,,,,,,,,,,,,,,,,,,,,,,,,,
1656264699.836664,13.000000,0.000000,4276.410156,4259.487305,4151.794922,4129.743652,4263.077148,450.000000,4.000000,86.000000,,,,0.000000,4.000000,4.000000,4.000000,4.000000,4.000000,100.000000,,,,,,,,,,,,,,,,,,,,,,,,,,,,,,,,,,,,,,,,,,,,,,,,,,,,,,,,,,,,,,,
1656264699.844479,14.000000,0.000000,4260.000000,4268.717773,4146.666504,4119.487305,4265.128418,450.000000,4.000000,86.000000,,,,0.000000,4.000000,4.000000,4.000000,4.000000,4.000000,100.000000,,,,,,,,,,,,,,,,,,,,,,,,,,,,,,,,,,,,,,,10.288658,3.619842,1.401077,1.430076,1.066704,4.200642,2.153548,1.466104,1.485318,1.660694,8.045380,2.294345,2.363685,1.118315,0.991423,3.739929,1.557105,1.728233,1.242054,0.903245,6.233617,3.317565,1.485920,1.887321,0.878055
1656264699.852193,15.000000,0.000000,4261.538574,4242.051270,4160.512695,4103.077148,4250.256348,16219.000000,4.000000,86.000000,,,,0.000000,4.000000,4.000000,4.000000,4.000000,4.000000,100.000000,,,,,,,,,,,,,,,,,,,,,,,,,,,,,,,,,,,,,,,,,,,,,,,,,,,,,,,,,,,,,,,
1656264699.860008,16.000000,0.000000,4285.128418,4242.563965,4149.230957,4134.358887,4261.538574,0.000000,4.000000,86.000000,,,,0.000000,4.000000,4.000000,4.000000,4.000000,4.000000,100.000000,,,,,,,,,,,,,,,,,,,,,,,,,,,,,,,,,,,,,,,,,,,,,,,,,,,,,,,,,,,,,,,
1656264699.867722,17.000000,0.000000,4283.589844,4258.461426,4120.000000,4150.256348,4280.512695,0.000000,4.000000,86.000000,,,,0.000000,4.000000,4.000000,4.000000,4.000000,4.000000,100.000000,,,,,,,,,,,,,,,,,,,,,,,,,,,,,,,,,,,,,,,,,,,,,,,,,,,,,,,,,,,,,,,
1656264699.875536,18.000000,0.000000,4271.794922,4265.128418,4141.538574,4130.256348,4273.846191,0.000000,4.000000,86.000000,,,,0.000000,4.000000,4.000000,4.000000,4.000000,4.000000,100.000000,,,,,,,,,,,,,,,,,,,,,,,,,,,,,,,,,,,,,,,,,,,,,,,,,,,,,,,,,,,,,,,
1656264699.883251,19.000000,0.000000,4275.897461,4253.846191,4157.948730,4112.820313,4255.384766,0.000000,4.000000,86.000000,,,,0.000000,4.000000,4.000000,4.000000,4.000000,4.000000,100.000000,,,,,,,,,,,,,,,,,,,,,,,,,,,,,,,,,,,,,,,,,,,,,,,,,,,,,,,,,,,,,,,
1656264699.891065,20.000000,0.000000,4290.769043,4251.282227,4133.846191,4121.538574,4258.461426,0.000000,4.000000,86.000000,,,,0.000000,4.000000,4.000000,4.000000,4.000000,4.000000,100.000000,,,,,,,,,,,,,,,,,,,,,,,,,,,,,,,,,,,,,,,,,,,,,,,,,,,,,,,,,,,,,,,
1656264699.898780,21.000000,0.000000,4284.615234,4271.282227,4108.717773,4134.871582,4263.589844,0.000000,4.000000,86.000000,,,,0.000000,4.000000,4.000000,4.000000,4.000000,4.000000,100.000000,,,,,,,,,,,,,,,,,,,,,,,,,,,,,,,,,,,,,,,,,,,,,,,,,,,,,,,,,,,,,,,
1656264699.906594,22.000000,0.000000,4252.820313,4264.615234,4088.205078,4121.025879,4249.743652,0.000000,4.000000,86.000000,,,,0.000000,4.000000,4.000000,4.000000,4.000000,4.000000,100.000000,,,,,,,,,,,,,,,,,,,,,,,,,,,,,,,,,,,,,,,,,,,,,,,,,,,,,,,,,,,,,,,
1656264699.914409,23.000000,0.000000,4266.666504,4261.538574,4086.153809,4128.205078,4262.051270,0.000000,4.000000,86.000000,,,,0.000000,4.000000,4.000000,4.000000,4.000000,4.000000,100.000000,,,,,,,,,,,,,,,,,,,,,,,,,,,,,,,,,,,,,,,,,,,,,,,,,,,,,,,,,,,,,,,
1656264699.922123,24.000000,0.000000,4284.615234,4261.538574,4091.281982,4136.922852,4260.512695,0.000000,4.000000,86.000000,,,,0.000000,4.000000,4.000000,4.000000,4.000000,4.000000,100.000000,,,,,,,,,,,,,,,,,,,,,,,,,,,,,,,,,,,,,,,,,,,,,,,,,,,,,,,,,,,,,,,
1656264699.929838,25.000000,0.000000,4273.846191,4246.153809,4102.563965,4107.179688,4233.333496,0.000000,4.000000,86.000000,,,,0.000000,4.000000,4.000000,4.000000,4.000000,4.000000,100.000000,,,,,,,,,,,,,,,,,,,,,,,,,,,,,,,,,,,,,,,,,,,,,,,,,,,,,,,,,,,,,,,
1656264699.937652,26.000000,0.000000,4292.820313,4243.077148,4121.538574,4117.948730,4246.666504,0.000000,4.000000,86.000000,,,,0.000000,4.000000,4.000000,4.000000,4.000000,4.000000,100.000000,,,,,,,,,,,,,,,,,,,,,,,,,,,,,,,,,,,,,,,,,,,,,,,,,,,,,,,,,,,,,,,
1656264699.945367,27.000000,0.000000,4289.743652,4245.641113,4100.512695,4149.743652,4256.410156,0.000000,4.000000,86.000000,,,,0.000000,4.000000,4.000000,4.000000,4.000000,4.000000,100.000000,,,,,,,,,,,,,,,,,,,,,,,,,,,,,,,,,,,,,,,,,,,,,,,,,,,,,,,,,,,,,,,
1656264699.953281,28.000000,0.000000,4278.974121,4258.974121,4088.718018,4127.692383,4241.025879,0.000000,4.000000,86.000000,,,,0.000000,4.000000,4.000000,4.000000,4.000000,4.000000,100.000000,,,,,,,,,,,,,,,,,,,,,,,,,,,,,,,,,,,,,,,,,,,,,,,,,,,,,,,,,,,,,,,
1656264699.961095,29.000000,0.000000,4303.589844,4271.282227,4101.538574,4100.000000,4242.051270,0.000000,4.000000,86.000000,,,,0.000000,4.000000,4.000000,4.000000,4.000000,4.000000,100.000000,,,,,,,,,,,,,,,,,,,,,,,,,,,,,,,,,,,,,,,,,,,,,,,,,,,,,,,,,,,,,,,
1656264699.968910,30.000000,0.000000,4298.461426,4266.666504,4091.281982,4113.333496,4244.615234,0.000000,4.000000,86.000000,,,,0.000000,4.000000,4.000000,4.000000,4.000000,4.000000,100.000000,,,,,,,,,,,,,,,,,,,,,,,,,,,,,,,,,,,,,,,8.029490,3.144986,1.324919,1.479775,1.125150,4.466376,2.262602,1.458078,1.446840,1.568150,9.987391,2.102941,2.450960,1.102145,0.941984,3.387236,1.512203,1.691616,1.287833,0.922901,5.451218,3.497948,1.476391,1.815390,0.864354
1656264699.976624,31.000000,0.000000,4285.128418,4269.230957,4102.051270,4130.769043,4243.077148,0.000000,4.000000,86.000000,,,,0.000000,4.000000,4.000000,4.000000,4.000000,4.000000,100.000000,,,,,,,,,,,,,,,,,,,,,,,,,,,,,,,,,,,,,,,,,,,,,,,,,,,,,,,,,,,,,,,
1656264699.984539,32.000000,0.000000,4285.128418,4254.871582,4123.589844,4111.282227,4229.230957,0.000000,4.000000,86.000000,,,,0.000000,4.000000,4.000000,4.000000,4.000000,4.000000,100.000000,,,,,,,,,,,,,,,,,,,,,,,,,,,,,,,,,,,,,,,,,,,,,,,,,,,,,,,,,,,,,,,
1656264699.992353,33.000000,0.000000,4281.025879,4243.077148,4115.384766,4103.077148,4226.666504,0.000000,4.000000,86.000000,,,,0.000000,4.000000,4.000000,4.000000,4.000000,4.000000,100.000000,,,,,,,,,,,,,,,,,,,,,,,,,,,,,,,,,,,,,,,,,,,,,,,,,,,,,,,,,,,,,,,
1656264700.000267,34.000000,0.000000,4268.205078,4262.563965,4094.871826,4111.282227,4239.487305,0.000000,4.000000,86.000000,,,,0.000000,4.000000,4.000000,4.000000,4.000000,4.000000,100.000000,,,,,,,,,,,,,,,,,,,,,,,,,,,,,,,,,,,,,,,,,,,,,,,,,,,,,,,,,,,,,,,
1656264700.008082,35.000000,0.000000,4252.820313,4261.538574,4088.718018,4091.281982,4224.102539,0.000000,4.000000,86.000000,,,,0.000000,4.000000,4.000000,4.000000,4.000000,4.000000,100.000000,,,,,,,,,,,,,,,,,,,,,,,,,,,,,,,,,,,,,,,,,,,,,,,,,,,,,,,,,,,,,,,
1656264700.015896,36.000000,0.000000,4269.743652,4245.128418,4088.205078,4100.000000,4221.025879,0.000000,4.000000,86.000000,,,,0.000000,4.000000,4.000000,4.000000,4.000000,4.000000,100.000000,,,,,,,,,,,,,,,,,,,,,,,,,,,,,,,,,,,,,,,,,,,,,,,,,,,,,,,,,,,,,,,
1656264700.023611,37.000000,0.000000,4281.538574,4234.358887,4071.794922,4122.563965,4231.794922,0.000000,4.000000,86.000000,,,,0.000000,4.000000,4.000000,4.000000,4.000000,4.000000,100.000000,,,,,,,,,,,,,,,,,,,,,,,,,,,,,,,,,,,,,,,,,,,,,,,,,,,,,,,,,,,,,,,
1656264700.031425,38.000000,0.000000,4271.282227,4242.051270,4076.410156,4112.307617,4231.794922,0.000000,4.000000,86.000000,,,,0.000000,4.000000,4.000000,4.000000,4.000000,4.000000,100.000000,,,,,,,,,,,,,,,,,,,,,,,,,,,,,,,,,,,,,,,,,,,,,,,,,,,,,,,,,,,,,,,
1656264700.039140,39.000000,0.000000,4267.692383,4254.871582,4078.974365,4095.897461,4233.846191,0.000000,4.000000,86.000000,,,,0.000000,4.000000,4.000000,4.000000,4.000000,4.000000,100.000000,,,,,,,,,,,,,,,,,,,,,,,,,,,,,,,,,,,,,,,,,,,,,,,,,,,,,,,,,,,,,,,
1656264700.046954,40.000000,0.000000,4264.102539,4226.666504,4063.076904,4087.179443,4229.743652,0.000000,4.000000,86.000000,,,,0.000000,4.000000,4.000000,4.000000,4.000000,4.000000,100.000000,,,,,,,,,,,,,,,,,,,,,,,,,,,,,,,,,,,,,,,,,,,,,,,,,,,,,,,,,,,,,,,
1656264700.054668,41.000000,0.000000,4267.179688,4218.461426,4071.794922,4090.256348,4227.179688,0.000000,4.000000,86.000000,,,,0.000000,4.000000,4.000000,4.000000,4.000000,4.000000,100.000000,,,,,,,,,,,,,,,,,,,,,,,,,,,,,,,,,,,,,,,,,,,,,,,,,,,,,,,,,,,,,,,
1656264700.062383,42.000000,0.000000,4259.487305,4243.077148,4072.307617,4084.615479,4215.897461,0.000000,4.000000,86.000000,,,,0.000000,4.000000,4.000000,4.000000,4.000000,4.000000,100.000000,,,,,,,,,,,,,,,,,,,,,,,,,,,,,,,,,,,,,,,,,,,,,,,,,,,,,,,,,,,,,,,
1656264700.070197,43.000000,0.000000,4259.487305,4244.615234,4062.051270,4092.307617,4218.974121,0.000000,4.000000,86.000000,,,,0.000000,4.000000,4.000000,4.000000,4.000000,4.000000,100.000000,,,,,,,,,,,,,,,,,,,,,,,,,,,,,,,,,,,,,,,,,,,,,,,,,,,,,,,,,,,,,,,
1656264700.077912,44.000000,0.000000,4268.717773,4223.589844,4060.000000,4104.102539,4217.436035,0.000000,4.000000,86.000000,,,,0.000000,4.000000,4.000000,4.000000,4.000000,4.000000,100.000000,,,,,,,,,,,,,,,,,,,,,,,,,,,,,,,,,,,,,,,,,,,,,,,,,,,,,,,,,,,,,,,
1656264700.085726,45.000000,0.000000,4249.743652,4217.948730,4046.153809,4074.871826,4182.563965,0.000000,4.000000,86.000000,,,,0.000000,4.000000,4.000000,4.000000,4.000000,4.000000,100.000000,,,,,,,,,,,,,,,,,,,,,,,,,,,,,,,,,,,,,,,,,,,,,,,,,,,,,,,,,,,,,,,
1656264700.093441,46.000000,0.000000,4245.128418,4249.743652,4043.589844,4078.974365,4192.307617,0.000000,4.000000,86.000000,,,,0.000000,4.000000,4.000000,4.000000,4.000000,4.000000,100.000000,,,,,,,,,,,,,,,,,,,,,,,,,,,,,,,,,,,,,,,6.223938,2.597682,1.375590,1.543937,1.162230,4.422481,2.434148,1.612432,1.495693,1.505020,11.649303,2.143791,2.528765,1.141897,0.918271,3.008978,1.501827,1.664636,1.313514,0.942852,4.400033,3.467613,1.642888,1.768665,0.883538
1656264700.101255,47.000000,0.000000,4247.692383,4250.769043,4055.897461,4100.512695,4200.512695,0.000000,4.000000,86.000000,,,,0.000000,4.000000,4.000000,4.000000,4.000000,4.000000,100.000000,,,,,,,,,,,,,,,,,,,,,,,,,,,,,,,,,,,,,,,,,,,,,,,,,,,,,,,,,,,,,,,
1656264700.109070,48.000000,0.000000,4233.333496,4223.077148,4072.307617,4086.666748,4169.230957,0.000000,4.000000,86.000000,,,,0.000000,4.000000,4.000000,4.000000,4.000000,4.000000,100.000000,,,,,,,,,,,,,,,,,,,,,,,,,,,,,,,,,,,,,,,,,,,,,,,,,,,,,,,,,,,,,,,
1656264700.116784,49.000000,0.000000,4237.436035,4225.128418,4078.461426,4094.358887,4182.563965,0.000000,4.000000,86.000000,,,,0.000000,4.000000,4.000000,4.000000,4.000000,4.000000,100.000000,,,,,,,,,,,,,,,,,,,,,,,,,,,,,,,,,,,,,,,,,,,,,,,,,,,,,,,,,,,,,,,
1656264700.124499,50.000000,0.000000,4243.077148,4231.794922,4071.281982,4103.589844,4208.717773,0.000000,4.000000,86.000000,,,,0.000000,4.000000,4.000000,4.000000,4.000000,4.000000,100.000000,,,,,,,,,,,,,,,,,,,,,,,,,,,,,,,,,,,,,,,,,,,,,,,,,,,,,,,,,,,,,,,
1656264700.132413,51.000000,0.000000,4254.871582,4243.077148,4089.230713,4104.615234,4222.051270,0.000000,4.000000,86.000000,,,,0.000000,4.000000,4.000000,4.000000,4.000000,4.000000,100.000000,,,,,,,,,,,,,,,,,,,,,,,,,,,,,,,,,,,,,,,,,,,,,,,,,,,,,,,,,,,,,,,
1656264700.140227,52.000000,0.000000,4265.641113,4257.948730,4095.384521,4108.205078,4232.307617,0.000000,4.000000,86.000000,,,,0.000000,4.000000,4.000000,4.000000,4.000000,4.000000,100.000000,,,,,,,,,,,,,,,,,,,,,,,,,,,,,,,,,,,,,,,,,,,,,,,,,,,,,,,,,,,,,,,
1656264700.148142,53.000000,0.000000,4254.871582,4249.743652,4085.641113,4095.897461,4221.538574,0.000000,4.000000,86.000000,,,,0.000000,4.000000,4.000000,4.000000,4.000000,4.000000,100.000000,,,,,,,,,,,,,,,,,,,,,,,,,,,,,,,,,,,,,,,,,,,,,,,,,,,,,,,,,,,,,,,
1656264700.155956,54.000000,0.000000,4255.384766,4225.641113,4098.461426,4096.922852,4206.153809,0.000000,4.000000,86.000000,,,,0.000000,4.000000,4.000000,4.000000,4.000000,4.000000,100.000000,,,,,,,,,,,,,,,,,,,,,,,,,,,,,,,,,,,,,,,,,,,,,,,,,,,,,,,,,,,,,,,
1656264700.163770,55.000000,0.000000,4257.948730,4195.897461,4104.615234,4106.666504,4196.922852,0.000000,4.000000,86.000000,,,,0.000000,4.000000,4.000000,4.000000,4.000000,4.000000,100.000000,,,,,,,,,,,,,,,,,,,,,,,,,,,,,,,,,,,,,,,,,,,,,,,,,,,,,,,,,,,,,,,
1656264700.171485,56.000000,0.000000,4262.563965,4215.897461,4111.282227,4113.846191,4208.205078,0.000000,4.000000,86.000000,,,,0.000000,4.000000,4.000000,4.000000,4.000000,4.000000,100.000000,,,,,,,,,,,,,,,,,,,,,,,,,,,,,,,,,,,,,,,,,,,,,,,,,,,,,,,,,,,,,,,
1656264700.179299,57.000000,0.000000,4257.948730,4248.717773,4114.871582,4106.666504,4217.948730,0.000000,4.000000,86.000000,,,,0.000000,4.000000,4.000000,4.000000,4.000000,4.000000,100.000000,,,,,,,,,,,,,,,,,,,,,,,,,,,,,,,,,,,,,,,,,,,,,,,,,,,,,,,,,,,,,,,
1656264700.187014,58.000000,0.000000,4240.512695,4238.461426,4117.436035,4093.333252,4210.769043,0.000000,4.000000,86.000000,,,,0.000000,4.000000,4.000000,4.000000,4.000000,4.000000,100.000000,,,,,,,,,,,,,,,,,,,,,,,,,,,,,,,,,,,,,,,,,,,,,,,,,,,,,,,,,,,,,,,
1656264700.194828,59.000000,0.000000,4252.820313,4239.487305,4130.769043,4096.410156,4213.846191,0.000000,4.000000,86.000000,,,,0.000000,4.000000,4.000000,4.000000,4.000000,4.000000,100.000000,,,,,,,,,,,,,,,,,,,,,,,,,,,,,,,,,,,,,,,,,,,,,,,,,,,,,,,,,,,,,,,
1656264700.202543,60.000000,0.000000,4263.077148,4228.717773,4114.358887,4084.102539,4209.230957,0.000000,4.000000,86.000000,,,,0.000000,4.000000,4.000000,4.000000,4.000000,4.000000,100.000000,,,,,,,,,,,,,,,,,,,,,,,,,,,,,,,,,,,,,,,,,,,,,,,,,,,,,,,,,,,,,,,
1656264700.210457,61.000000,0.000000,4266.666504,4212.820313,4116.410156,4082.051270,4209.230957,0.000000,4.000000,86.000000,,,,0.000000,4.000000,4.000000,4.000000,4.000000,4.000000,100.000000,,,,,,,,,,,,,,,,,,,,,,,,,,,,,,,,,,,,,,,,,,,,,,,,,,,,,,,,,,,,,,,
1656264700.218272,62.000000,0.000000,4282.051270,4227.179688,4147.692383,4092.820557,4213.333496,0.000000,4.000000,86.000000,,,,0.000000,4.000000,4.000000,4.000000,4.000000,4.000000,100.000000,1.000000,100.000000,4.000000,4.000000,4.000000,4.000000,4.000000,,,,,,,,,,,,,,,,,,,,,,,,,,,,,,,,5.201675,2.071518,1.546507,1.608112,1.190195,4.055855,2.541627,1.818512,1.571500,1.471510,12.427955,2.554819,2.552370,1.185808,0.934837,2.812313,1.466943,1.656040,1.304904,0.991194,3.390516,3.222513,1.892692,1.741626,0.915440
1656264700.225986,63.000000,0.000000,4271.282227,4227.179688,4144.615234,4086.153809,4202.051270,0.000000,4.000000,86.000000,,,,0.000000,4.000000,4.000000,4.000000,4.000000,4.000000,100.000000,,,,,,,,,,,,,,,,,,,,,,,,,,,,,,,,,,,,,,,,,,,,,,,,,,,,,,,,,,,,,,,
1656264700.233800,64.000000,0.000000,4264.102539,4236.410156,4135.384766,4105.641113,4225.128418,450.000000,4.000000,86.000000,,,,0.000000,4.000000,4.000000,4.000000,4.000000,4.000000,100.000000,,,,,,,,,,,,,,,,,,,,,,,,,,,,,,,,,,,,,,,,,,,,,,,,,,,,,,,,,,,,,,,
1656264700.241515,65.000000,0.000000,4267.179688,4253.846191,4134.358887,4109.743652,4237.948730,450.000000,4.000000,86.000000,,,,0.000000,4.000000,4.000000,4.000000,4.000000,4.000000,100.000000,,,,,,,,,,,,,,,,,,,,,,,,,,,,,,,,,,,,,,,,,,,,,,,,,,,,,,,,,,,,,,,
1656264700.249329,66.000000,0.000000,4262.051270,4253.846191,4128.717773,4081.025635,4204.102539,16183.000000,4.000000,86.000000,,,,0.000000,4.000000,4.000000,4.000000,4.000000,4.000000,100.000000,,,,,,,,,,,,,,,,,,,,,,,,,,,,,,,,,,,,,,,,,,,,,,,,,,,,,,,,,,,,,,,
1656264700.257044,67.000000,0.000000,4252.820313,4255.897461,4120.512695,4088.205078,4194.358887,450.000000,4.000000,86.000000,,,,0.000000,4.000000,4.000000,4.000000,4.000000,4.000000,100.000000,,,,,,,,,,,,,,,,,,,,,,,,,,,,,,,,,,,,,,,,,,,,,,,,,,,,,,,,,,,,,,,
1656264700.264858,68.000000,0.000000,4232.307617,4253.846191,4103.077148,4099.487305,4211.282227,16171.000000,4.000000,86.000000,,,,0.000000,4.000000,4.000000,4.000000,4.000000,4.000000,100.000000,,,,,,,,,,,,,,,,,,,,,,,,,,,,,,,,,,,,,,,,,,,,,,,,,,,,,,,,,,,,,,,
1656264700.272673,69.000000,0.000000,4241.025879,4245.641113,4109.743652,4086.153809,4215.897461,450.000000,4.000000,86.000000,,,,0.000000,4.000000,4.000000,4.000000,4.000000,4.000000,100.000000,,,,,,,,,,,,,,,,,,,,,,,,,,,,,,,,,,,,,,,,,,,,,,,,,,,,,,,,,,,,,,,
1656264700.280387,70.000000,0.000000,4264.615234,4229.743652,4127.692383,4083.076904,4205.128418,16232.000000,4.000000,86.000000,,,,0.000000,4.000000,4.000000,4.000000,4.000000,4.000000,100.000000,,,,,,,,,,,,,,,,,,,,,,,,,,,,,,,,,,,,,,,,,,,,,,,,,,,,,,,,,,,,,,,
1656264700.288302,71.000000,0.000000,4262.051270,4226.666504,4124.615234,4095.897461,4203.077148,450.000000,4.000000,86.000000,,,,0.000000,4.000000,4.000000,4.000000,4.000000,4.000000,100.000000,,,,,,,,,,,,,,,,,,,,,,,,,,,,,,,,,,,,,,,,,,,,,,,,,,,,,,,,,,,,,,,
1656264700.296116,72.000000,0.000000,4258.974121,4245.128418,4125.128418,4100.512695,4212.820313,450.000000,4.000000,86.000000,,,,0.000000,4.000000,4.000000,4.000000,4.000000,4.000000,100.000000,,,,,,,,,,,,,,,,,,,,,,,,,,,,,,,,,,,,,,,,,,,,,,,,,,,,,,,,,,,,,,,
1656264700.303930,73.000000,0.000000,4243.589844,4233.846191,4122.563965,4076.410156,4198.461426,16233.000000,4.000000,86.000000,,,,0.000000,4.000000,4.000000,4.000000,4.000000,4.000000,100.000000,,,,,,,,,,,,,,,,,,,,,,,,,,,,,,,,,,,,,,,,,,,,,,,,,,,,,,,,,,,,,,,
1656264700.311745,74.000000,0.000000,4238.461426,4215.384766,4112.820313,4074.871826,4204.102539,450.000000,4.000000,86.000000,,,,0.000000,4.000000,4.000000,4.000000,4.000000,4.000000,100.000000,,,,,,,,,,,,,,,,,,,,,,,,,,,,,,,,,,,,,,,,,,,,,,,,,,,,,,,,,,,,,,,
1656264700.319459,75.000000,0.000000,4254.871582,4223.589844,4107.179688,4099.487305,4224.102539,16172.000000,4.000000,86.000000,,,,0.000000,4.000000,4.000000,4.000000,4.000000,4.000000,100.000000,,,,,,,,,,,,,,,,,,,,,,,,,,,,,,,,,,,,,,,,,,,,,,,,,,,,,,,,,,,,,,,
1656264700.327274,76.000000,0.000000,4234.358887,4223.077148,4106.666504,4083.589844,4201.538574,450.000000,4.000000,86.000000,,,,0.000000,4.000000,4.000000,4.000000,4.000000,4.000000,100.000000,,,,,,,,,,,,,,,,,,,,,,,,,,,,,,,,,,,,,,,,,,,,,,,,,,,,,,,,,,,,,,,
1656264700.334988,77.000000,0.000000,4223.077148,4234.358887,4115.384766,4077.435791,4204.102539,450.000000,4.000000,86.000000,,,,0.000000,4.000000,4.000000,4.000000,4.000000,4.000000,100.000000,,,,,,,,,,,,,,,,,,,,,,,,,,,,,,,,,,,,,,,,,,,,,,,,,,,,,,,,,,,,,,,
1656264700.342803,78.000000,0.000000,4240.512695,4238.461426,4102.051270,4092.307617,4220.000000,450.000000,4.000000,86.000000,,,,0.000000,4.000000,4.000000,4.000000,4.000000,4.000000,100.000000,,,,,,,,,,,,,,,,,,,,,,,,,,,,,,,,,,,,,,,4.868611,1.658182,1.750756,1.642093,1.211113,3.438199,2.462970,1.969867,1.609145,1.448716,12.118447,3.267558,2.484254,1.226422,0.980745,2.895309,1.366016,1.628935,1.263257,1.088099,2.653234,2.845785,2.078029,1.718431,0.940011
1656264700.350517,79.000000,0.000000,4237.948730,4217.948730,4096.410156,4083.076904,4204.102539,16172.000000,4.000000,86.000000,,,,0.000000,4.000000,4.000000,4.000000,4.000000,4.000000,100.000000,,,,,,,,,,,,,,,,,,,,,,,,,,,,,,,,,,,,,,,,,,,,,,,,,,,,,,,,,,,,,,,
1656264700.358431,80.000000,0.000000,4233.333496,4230.256348,4120.512695,4084.615479,4210.256348,450.000000,4.000000,86.000000,,,,0.000000,4.000000,4.000000,4.000000,4.000000,4.000000,100.000000,,,,,,,,,,,,,,,,,,,,,,,,,,,,,,,,,,,,,,,,,,,,,,,,,,,,,,,,,,,,,,,
1656264700.366246,81.000000,0.000000,4231.282227,4233.333496,4124.102539,4080.512939,4215.384766,450.000000,4.000000,86.000000,,,,0.000000,4.000000,4.000000,4.000000,4.000000,4.000000,100.000000,,,,,,,,,,,,,,,,,,,,,,,,,,,,,,,,,,,,,,,,,,,,,,,,,,,,,,,,,,,,,,,
1656264700.374160,82.000000,0.000000,4255.384766,4218.974121,4129.743652,4079.487061,4218.461426,450.000000,4.000000,86.000000,,,,0.000000,4.000000,4.000000,4.000000,4.000000,4.000000,100.000000,,,,,,,,,,,,,,,,,,,,,,,,,,,,,,,,,,,,,,,,,,,,,,,,,,,,,,,,,,,,,,,
1656264700.381975,83.000000,0.000000,4260.512695,4228.205078,4130.769043,4092.307617,4224.102539,16172.000000,4.000000,86.000000,,,,0.000000,4.000000,4.000000,4.000000,4.000000,4.000000,100.000000,,,,,,,,,,,,,,,,,,,,,,,,,,,,,,,,,,,,,,,,,,,,,,,,,,,,,,,,,,,,,,,
1656264700.389789,84.000000,0.000000,4221.025879,4237.948730,4114.871582,4084.102539,4207.692383,450.000000,4.000000,86.000000,,,,0.000000,4.000000,4.000000,4.000000,4.000000,4.000000,100.000000,,,,,,,,,,,,,,,,,,,,,,,,,,,,,,,,,,,,,,,,,,,,,,,,,,,,,,,,,,,,,,,
1656264700.397503,85.000000,0.000000,4223.589844,4237.436035,4120.000000,4085.641113,4197.948730,450.000000,4.000000,86.000000,,,,0.000000,4.000000,4.000000,4.000000,4.000000,4.000000,100.000000,,,,,,,,,,,,,,,,,,,,,,,,,,,,,,,,,,,,,,,,,,,,,,,,,,,,,,,,,,,,,,,
1656264700.405418,86.000000,0.000000,4244.102539,4231.282227,4118.974121,4094.871826,4205.128418,450.000000,4.000000,86.000000,,,,0.000000,4.000000,4.000000,4.000000,4.000000,4.000000,100.000000,,,,,,,,,,,,,,,,,,,,,,,,,,,,,,,,,,,,,,,,,,,,,,,,,,,,,,,,,,,,,,,
1656264700.413232,87.000000,0.000000,4232.307617,4239.487305,4111.794922,4092.820557,4222.563965,16172.000000,4.000000,86.000000,,,,0.000000,4.000000,4.000000,4.000000,4.000000,4.000000,100.000000,,,,,,,,,,,,,,,,,,,,,,,,,,,,,,,,,,,,,,,,,,,,,,,,,,,,,,,,,,,,,,,
1656264700.421047,88.000000,0.000000,4221.538574,4236.922852,4113.846191,4075.384521,4223.589844,450.000000,4.000000,86.000000,,,,0.000000,4.000000,4.000000,4.000000,4.000000,4.000000,100.000000,,,,,,,,,,,,,,,,,,,,,,,,,,,,,,,,,,,,,,,,,,,,,,,,,,,,,,,,,,,,,,,
1656264700.428761,89.000000,0.000000,4233.846191,4221.538574,4132.307617,4066.153809,4209.230957,450.000000,4.000000,86.000000,,,,0.000000,4.000000,4.000000,4.000000,4.000000,4.000000,100.000000,,,,,,,,,,,,,,,,,,,,,,,,,,,,,,,,,,,,,,,,,,,,,,,,,,,,,,,,,,,,,,,
1656264700.436575,90.000000,0.000000,4246.153809,4226.666504,4135.384766,4091.281982,4214.358887,450.000000,4.000000,86.000000,,,,0.000000,4.000000,4.000000,4.000000,4.000000,4.000000,100.000000,,,,,,,,,,,,,,,,,,,,,,,,,,,,,,,,,,,,,,,,,,,,,,,,,,,,,,,,,,,,,,,
1656264700.444390,91.000000,0.000000,4240.512695,4217.948730,4101.538574,4100.000000,4218.461426,16172.000000,4.000000,86.000000,,,,0.000000,4.000000,4.000000,4.000000,4.000000,4.000000,100.000000,,,,,,,,,,,,,,,,,,,,,,,,,,,,,,,,,,,,,,,,,,,,,,,,,,,,,,,,,,,,,,,
1656264700.452104,92.000000,0.000000,4240.512695,4223.077148,4097.436035,4100.512695,4215.897461,450.000000,4.000000,86.000000,,,,0.000000,4.000000,4.000000,4.000000,4.000000,4.000000,100.000000,,,,,,,,,,,,,,,,,,,,,,,,,,,,,,,,,,,,,,,,,,,,,,,,,,,,,,,,,,,,,,,
1656264700.459919,93.000000,0.000000,4229.230957,4244.615234,4090.256348,4087.692383,4203.077148,450.000000,4.000000,86.000000,,,,0.000000,4.000000,4.000000,4.000000,4.000000,4.000000,100.000000,,,,,,,,,,,,,,,,,,,,,,,,,,,,,,,,,,,,,,,,,,,,,,,,,,,,,,,,,,,,,,,
1656264700.467633,94.000000,0.000000,4227.179688,4231.282227,4075.384521,4062.564209,4198.461426,450.000000,4.000000,86.000000,,,,0.000000,4.000000,4.000000,4.000000,4.000000,4.000000,100.000000,,,,,,,,,,,,,,,,,,,,,,,,,,,,,,,,,,,,,,,4.873200,1.444708,1.877537,1.614212,1.214080,2.721945,2.157369,1.990379,1.605102,1.421549,11.002651,4.047504,2.302754,1.288798,1.025109,3.183089,1.224794,1.545624,1.206155,1.225694,2.298724,2.476012,2.092217,1.689241,0.946214
1656264700.475448,95.000000,0.000000,4253.333496,4208.717773,4097.948730,4074.358887,4209.230957,16172.000000,4.000000,86.000000,,,,0.000000,4.000000,4.000000,4.000000,4.000000,4.000000,100.000000,,,,,,,,,,,,,,,,,,,,,,,,,,,,,,,,,,,,,,,,,,,,,,,,,,,,,,,,,,,,,,,
1656264700.483162,96.000000,0.000000,4238.974121,4197.436035,4093.846191,4077.435791,4196.410156,450.000000,4.000000,86.000000,,,,0.000000,4.000000,4.000000,4.000000,4.000000,4.000000,100.000000,,,,,,,,,,,,,,,,,,,,,,,,,,,,,,,,,,,,,,,,,,,,,,,,,,,,,,,,,,,,,,,
1656264700.490977,97.000000,0.000000,4234.358887,4212.307617,4077.948730,4077.948730,4195.384766,450.000000,4.000000,86.000000,,,,0.000000,4.000000,4.000000,4.000000,4.000000,4.000000,100.000000,,,,,,,,,,,,,,,,,,,,,,,,,,,,,,,,,,,,,,,,,,,,,,,,,,,,,,,,,,,,,,,
1656264700.498691,98.000000,0.000000,4270.256348,4220.512695,4079.487061,4101.025879,4214.358887,450.000000,4.000000,86.000000,,,,0.000000,4.000000,4.000000,4.000000,4.000000,4.000000,100.000000,,,,,,,,,,,,,,,,,,,,,,,,,,,,,,,,,,,,,,,,,,,,,,,,,,,,,,,,,,,,,,,
1656264700.506506,99.000000,0.000000,4258.974121,4207.179688,4069.743652,4103.077148,4218.461426,16172.000000,4.000000,86.000000,,,,0.000000,4.000000,4.000000,4.000000,4.000000,4.000000,100.000000,,,,,,,,,,,,,,,,,,,,,,,,,,,,,,,,,,,,,,,,,,,,,,,,,,,,,,,,,,,,,,,
1656264700.514220,100.000000,0.000000,4235.384766,4217.948730,4069.743652,4088.718018,4220.000000,450.000000,4.000000,86.000000,,,,0.000000,4.000000,4.000000,4.000000,4.000000,4.000000,100.000000,,,,,,,,,,,,,,,,,,,,,,,,,,,,,,,,,,,,,,,,,,,,,,,,,,,,,,,,,,,,,,,
1656264700.522034,101.000000,0.000000,4246.153809,4224.615234,4081.025635,4075.897461,4207.179688,450.000000,4.000000,86.000000,,,,0.000000,4.000000,4.000000,4.000000,4.000000,4.000000,100.000000,,,,,,,,,,,,,,,,,,,,,,,,,,,,,,,,,,,,,,,,,,,,,,,,,,,,,,,,,,,,,,,
1656264700.529749,102.000000,0.000000,4264.102539,4236.922852,4093.333252,4084.102539,4206.153809,450.000000,4.000000,86.000000,,,,0.000000,4.000000,4.000000,4.000000,4.000000,4.000000,100.000000,,,,,,,,,,,,,,,,,,,,,,,,,,,,,,,,,,,,,,,,,,,,,,,,,,,,,,,,,,,,,,,
1656264700.537563,103.000000,0.000000,4258.974121,4241.025879,4087.692383,4091.794922,4221.538574,16172.000000,4.000000,86.000000,,,,0.000000,4.000000,4.000000,4.000000,4.000000,4.000000,100.000000,,,,,,,,,,,,,,,,,,,,,,,,,,,,,,,,,,,,,,,,,,,,,,,,,,,,,,,,,,,,,,,
1656264700.545278,104.000000,0.000000,4242.563965,4204.102539,4068.205078,4075.384521,4211.282227,450.000000,4.000000,86.000000,,,,0.000000,4.000000,4.000000,4.000000,4.000000,4.000000,100.000000,,,,,,,,,,,,,,,,,,,,,,,,,,,,,,,,,,,,,,,,,,,,,,,,,,,,,,,,,,,,,,,
1656264700.553092,105.000000,0.000000,4249.743652,4209.743652,4064.615479,4089.743652,4217.948730,450.000000,4.000000,86.000000,,,,0.000000,4.000000,4.000000,4.000000,4.000000,4.000000,100.000000,,,,,,,,,,,,,,,,,,,,,,,,,,,,,,,,,,,,,,,,,,,,,,,,,,,,,,,,,,,,,,,
1656264700.560807,106.000000,0.000000,4246.666504,4242.051270,4065.641113,4110.769043,4233.846191,450.000000,4.000000,86.000000,,,,0.000000,4.000000,4.000000,4.000000,4.000000,4.000000,100.000000,,,,,,,,,,,,,,,,,,,,,,,,,,,,,,,,,,,,,,,,,,,,,,,,,,,,,,,,,,,,,,,
1656264700.568721,107.000000,0.000000,4238.974121,4237.948730,4083.076904,4106.153809,4226.666504,16172.000000,4.000000,86.000000,,,,0.000000,4.000000,4.000000,4.000000,4.000000,4.000000,100.000000,,,,,,,,,,,,,,,,,,,,,,,,,,,,,,,,,,,,,,,,,,,,,,,,,,,,,,,,,,,,,,,
1656264700.576536,108.000000,0.000000,4238.974121,4226.153809,4110.256348,4104.615234,4217.436035,450.000000,4.000000,86.000000,,,,0.000000,4.000000,4.000000,4.000000,4.000000,4.000000,100.000000,,,,,,,,,,,,,,,,,,,,,,,,,,,,,,,,,,,,,,,,,,,,,,,,,,,,,,,,,,,,,,,
1656264700.584450,109.000000,0.000000,4217.948730,4221.538574,4123.589844,4102.563965,4195.897461,450.000000,4.000000,86.000000,,,,0.000000,4.000000,4.000000,4.000000,4.000000,4.000000,100.000000,,,,,,,,,,,,,,,,,,,,,,,,,,,,,,,,,,,,,,,,,,,,,,,,,,,,,,,,,,,,,,,
1656264700.592264,110.000000,0.000000,4221.025879,4230.256348,4141.025879,4102.051270,4183.589844,450.000000,4.000000,86.000000,,,,0.000000,4.000000,4.000000,4.000000,4.000000,4.000000,100.000000,,,,,,,,,,,,,,,,,,,,,,,,,,,,,,,,,,,,,,,4.791374,1.474513,1.889093,1.505746,1.185364,2.098265,1.710006,1.870028,1.607614,1.385891,9.701702,4.565345,2.031578,1.393710,1.035117,3.479393,1.096031,1.405505,1.153341,1.366474,2.249800,2.232146,1.919709,1.646570,0.934007
1656264700.600179,111.000000,0.000000,4228.717773,4227.692383,4139.487305,4087.179443,4180.000000,16172.000000,4.000000,86.000000,,,,0.000000,4.000000,4.000000,4.000000,4.000000,4.000000,100.000000,,,,,,,,,,,,,,,,,,,,,,,,,,,,,,,,,,,,,,,,,,,,,,,,,,,,,,,,,,,,,,,
1656264700.607993,112.000000,0.000000,4218.974121,4213.333496,4125.641113,4066.666748,4183.589844,450.000000,4.000000,86.000000,,,,0.000000,4.000000,4.000000,4.000000,4.000000,4.000000,100.000000,,,,,,,,,,,,,,,,,,,,,,,,,,,,,,,,,,,,,,,,,,,,,,,,,,,,,,,,,,,,,,,
1656264700.615907,113.000000,0.000000,4235.384766,4232.820313,4114.871582,4084.102539,4211.282227,450.000000,4.000000,86.000000,,,,0.000000,4.000000,4.000000,4.000000,4.000000,4.000000,100.000000,,,,,,,,,,,,,,,,,,,,,,,,,,,,,,,,,,,,,,,,,,,,,,,,,,,,,,,,,,,,,,,
1656264700.623722,114.000000,0.000000,4239.487305,4241.538574,4089.230713,4098.974121,4207.179688,450.000000,4.000000,86.000000,,,,0.000000,4.000000,4.000000,4.000000,4.000000,4.000000,100.000000,,,,,,,,,,,,,,,,,,,,,,,,,,,,,,,,,,,,,,,,,,,,,,,,,,,,,,,,,,,,,,,
1656264700.631436,115.000000,0.000000,4229.743652,4228.205078,4083.589844,4091.794922,4189.230957,16172.000000,4.000000,86.000000,,,,0.000000,4.000000,4.000000,4.000000,4.000000,4.000000,100.000000,,,,,,,,,,,,,,,,,,,,,,,,,,,,,,,,,,,,,,,,,,,,,,,,,,,,,,,,,,,,,,,
1656264700.639251,116.000000,0.000000,4226.153809,4231.282227,4086.666748,4087.179443,4201.538574,450.000000,4.000000,86.000000,,,,0.000000,4.000000,4.000000,4.000000,4.000000,4.000000,100.000000,,,,,,,,,,,,,,,,,,,,,,,,,,,,,,,,,,,,,,,,,,,,,,,,,,,,,,,,,,,,,,,
1656264700.646965,117.000000,0.000000,4212.307617,4234.358887,4081.538574,4081.025635,4194.871582,450.000000,4.000000,86.000000,,,,0.000000,4.000000,4.000000,4.000000,4.000000,4.000000,100.000000,,,,,,,,,,,,,,,,,,,,,,,,,,,,,,,,,,,,,,,,,,,,,,,,,,,,,,,,,,,,,,,
1656264700.654779,118.000000,0.000000,4220.512695,4236.922852,4111.794922,4082.564209,4175.897461,450.000000,4.000000,86.000000,,,,0.000000,4.000000,4.000000,4.000000,4.000000,4.000000,100.000000,,,,,,,,,,,,,,,,,,,,,,,,,,,,,,,,,,,,,,,,,,,,,,,,,,,,,,,,,,,,,,,
1656264700.662494,119.000000,0.000000,4241.538574,4236.922852,4131.282227,4086.153809,4187.179688,16172.000000,4.000000,86.000000,,,,0.000000,4.000000,4.000000,4.000000,4.000000,4.000000,100.000000,,,,,,,,,,,,,,,,,,,,,,,,,,,,,,,,,,,,,,,,,,,,,,,,,,,,,,,,,,,,,,,
1656264700.670308,120.000000,0.000000,4250.769043,4245.128418,4119.487305,4096.922852,4216.922852,450.000000,4.000000,86.000000,,,,0.000000,4.000000,4.000000,4.000000,4.000000,4.000000,100.000000,,,,,,,,,,,,,,,,,,,,,,,,,,,,,,,,,,,,,,,,,,,,,,,,,,,,,,,,,,,,,,,
1656264700.678023,121.000000,0.000000,4249.230957,4248.717773,4118.461426,4106.666504,4215.384766,450.000000,4.000000,86.000000,,,,0.000000,4.000000,4.000000,4.000000,4.000000,4.000000,100.000000,,,,,,,,,,,,,,,,,,,,,,,,,,,,,,,,,,,,,,,,,,,,,,,,,,,,,,,,,,,,,,,
1656264700.685837,122.000000,0.000000,4232.307617,4222.563965,4115.897461,4091.281982,4191.282227,450.000000,4.000000,86.000000,,,,0.000000,4.000000,4.000000,4.000000,4.000000,4.000000,100.000000,,,,,,,,,,,,,,,,,,,,,,,,,,,,,,,,,,,,,,,,,,,,,,,,,,,,,,,,,,,,,,,
1656264700.693552,123.000000,0.000000,4245.641113,4208.205078,4102.563965,4105.128418,4202.051270,16172.000000,4.000000,86.000000,,,,0.000000,4.000000,4.000000,4.000000,4.000000,4.000000,100.000000,,,,,,,,,,,,,,,,,,,,,,,,,,,,,,,,,,,,,,,,,,,,,,,,,,,,,,,,,,,,,,,
1656264700.701366,124.000000,0.000000,4257.948730,4206.153809,4091.794922,4118.974121,4198.974121,450.000000,4.000000,86.000000,,,,0.000000,4.000000,4.000000,4.000000,4.000000,4.000000,100.000000,,,,,,,,,,,,,,,,,,,,,,,,,,,,,,,,,,,,,,,,,,,,,,,,,,,,,,,,,,,,,,,
1656264700.709081,125.000000,0.000000,4250.769043,4206.153809,4108.205078,4098.461426,4181.538574,450.000000,4.000000,86.000000,,,,0.000000,4.000000,4.000000,4.000000,4.000000,4.000000,100.000000,,,,,,,,,,,,,,,,,,,,,,,,,,,,,,,,,,,,,,,,,,,,,,,,,,,,,,,,,,,,,,,
1656264700.716895,126.000000,0.000000,4255.897461,4215.384766,4121.025879,4096.410156,4196.410156,450.000000,4.000000,86.000000,,,,0.000000,4.000000,4.000000,4.000000,4.000000,4.000000,100.000000,1.000000,100.000000,4.000000,4.000000,4.000000,4.000000,4.000000,,,,,,,,,,,,,,,,,,,,,,,,,,,,,,,,4.426498,1.663330,1.832731,1.325075,1.124577,1.703329,1.262570,1.653239,1.655467,1.346653,8.804536,4.600411,1.741868,1.533412,0.991979,3.579177,0.986307,1.219573,1.119485,1.461392,2.363644,2.157787,1.634305,1.589344,0.911487
1656264700.724610,127.000000,0.000000,4249.743652,4217.948730,4098.974121,4095.897461,4199.487305,241.000000,4.000000,86.000000,,,,0.000000,4.000000,4.000000,4.000000,4.000000,4.000000,100.000000,,,,,,,,,,,,,,,,,,,,,,,,,,,,,,,,,,,,,,,,,,,,,,,,,,,,,,,,,,,,,,,
1656264700.732424,0.000000,0.000000,4254.871582,4231.794922,4100.000000,4101.538574,4202.563965,450.000000,4.000000,86.000000,,,,0.000000,4.000000,4.000000,4.000000,4.000000,4.000000,100.000000,,,,,,,,,,,,,,,,,,,,,,,,,,,,,,,,,,,,,,,,,,,,,,,,,,,,,,,,,,,,,,,
1656264700.740139,1.000000,0.000000,4267.179688,4246.153809,4119.487305,4109.230957,4208.205078,450.000000,4.000000,86.000000,,,,0.000000,4.000000,4.000000,4.000000,4.000000,4.000000,100.000000,,,,,,,,,,,,,,,,,,,,,,,,,,,,,,,,,,,,,,,,,,,,,,,,,,,,,,,,,,,,,,,
1656264700.748053,2.000000,0.000000,4258.974121,4250.256348,4123.589844,4101.538574,4200.000000,16257.000000,4.000000,86.000000,,,,0.000000,4.000000,4.000000,4.000000,4.000000,4.000000,100.000000,,,,,,,,,,,,,,,,,,,,,,,,,,,,,,,,,,,,,,,,,,,,,,,,,,,,,,,,,,,,,,,
1656264700.755867,3.000000,0.000000,4240.512695,4256.922852,4121.025879,4095.384521,4196.922852,450.000000,4.000000,86.000000,,,,0.000000,4.000000,4.000000,4.000000,4.000000,4.000000,100.000000,,,,,,,,,,,,,,,,,,,,,,,,,,,,,,,,,,,,,,,,,,,,,,,,,,,,,,,,,,,,,,,
1656264700.763682,4.000000,0.000000,4224.615234,4245.128418,4114.871582,4088.718018,4192.820313,16180.000000,4.000000,86.000000,,,,0.000000,4.000000,4.000000,4.000000,4.000000,4.000000,100.000000,,,,,,,,,,,,,,,,,,,,,,,,,,,,,,,,,,,,,,,,,,,,,,,,,,,,,,,,,,,,,,,
1656264700.771396,5.000000,0.000000,4237.436035,4235.897461,4119.487305,4089.230713,4193.333496,450.000000,4.000000,86.000000,,,,0.000000,4.000000,4.000000,4.000000,4.000000,4.000000,100.000000,,,,,,,,,,,,,,,,,,,,,,,,,,,,,,,,,,,,,,,,,,,,,,,,,,,,,,,,,,,,,,,
1656264700.779311,6.000000,0.000000,4250.769043,4232.820313,4110.769043,4076.923096,4181.025879,16203.000000,4.000000,86.000000,,,,0.000000,4.000000,4.000000,4.000000,4.000000,4.000000,100.000000,,,,,,,,,,,,,,,,,,,,,,,,,,,,,,,,,,,,,,,,,,,,,,,,,,,,,,,,,,,,,,,
1656264700.787125,7.000000,0.000000,4251.282227,4226.153809,4101.538574,4074.358887,4171.282227,450.000000,4.000000,86.000000,,,,0.000000,4.000000,4.000000,4.000000,4.000000,4.000000,100.000000,,,,,,,,,,,,,,,,,,,,,,,,,,,,,,,,,,,,,,,,,,,,,,,,,,,,,,,,,,,,,,,
1656264700.795039,8.000000,0.000000,4256.410156,4241.025879,4102.563965,4109.743652,4198.974121,450.000000,4.000000,86.000000,,,,0.000000,4.000000,4.000000,4.000000,4.000000,4.000000,100.000000,,,,,,,,,,,,,,,,,,,,,,,,,,,,,,,,,,,,,,,,,,,,,,,,,,,,,,,,,,,,,,,
1656264700.802854,9.000000,0.000000,4252.307617,4246.666504,4081.538574,4114.871582,4219.487305,16181.000000,4.000000,86.000000,,,,0.000000,4.000000,4.000000,4.000000,4.000000,4.000000,100.000000,,,,,,,,,,,,,,,,,,,,,,,,,,,,,,,,,,,,,,,,,,,,,,,,,,,,,,,,,,,,,,,
1656264700.810768,10.000000,0.000000,4262.563965,4254.871582,4093.846191,4101.538574,4220.512695,450.000000,4.000000,86.000000,,,,0.000000,4.000000,4.000000,4.000000,4.000000,4.000000,100.000000,,,,,,,,,,,,,,,,,,,,,,,,,,,,,,,,,,,,,,,,,,,,,,,,,,,,,,,,,,,,,,,
1656264700.818582,11.000000,0.000000,4273.333496,4259.487305,4125.128418,4096.922852,4218.461426,16203.000000,4.000000,86.000000,,,,0.000000,4.000000,4.000000,4.000000,4.000000,4.000000,100.000000,,,,,,,,,,,,,,,,,,,,,,,,,,,,,,,,,,,,,,,,,,,,,,,,,,,,,,,,,,,,,,,
1656264700.826297,12.000000,0.000000,4269.230957,4237.436035,4123.589844,4084.615479,4218.461426,450.000000,4.000000,86.000000,,,,0.000000,4.000000,4.000000,4.000000,4.000000,4.000000,100.000000,,,,,,,,,,,,,,,,,,,,,,,,,,,,,,,,,,,,,,,,,,,,,,,,,,,,,,,,,,,,,,,
1656264700.834111,13.000000,0.000000,4286.153809,4234.871582,4118.974121,4091.281982,4227.179688,450.000000,4.000000,86.000000,,,,0.000000,4.000000,4.000000,4.000000,4.000000,4.000000,100.000000,,,,,,,,,,,,,,,,,,,,,,,,,,,,,,,,,,,,,,,,,,,,,,,,,,,,,,,,,,,,,,,
1656264700.841826,14.000000,0.000000,4283.589844,4236.410156,4115.897461,4094.871826,4211.282227,450.000000,4.000000,86.000000,,,,0.000000,4.000000,4.000000,4.000000,4.000000,4.000000,100.000000,,,,,,,,,,,,,,,,,,,,,,,,,,,,,,,,,,,,,,,3.873475,1.853231,1.785816,1.107442,1.048920,1.598829,0.927918,1.418258,1.741036,1.306766,8.566701,4.136324,1.547814,1.681857,0.898663,3.375491,0.881627,1.021001,1.112014,1.472220,2.436547,2.217580,1.325223,1.518922,0.887694
1656264700.849640,15.000000,0.000000,4264.615234,4238.461426,4117.436035,4087.692383,4205.128418,16203.000000,4.000000,86.000000,,,,0.000000,4.000000,4.000000,4.000000,4.000000,4.000000,100.000000,,,,,,,,,,,,,,,,,,,,,,,,,,,,,,,,,,,,,,,,,,,,,,,,,,,,,,,,,,,,,,,
1656264700.857355,16.000000,0.000000,4266.666504,4251.794922,4109.743652,4103.589844,4233.333496,0.000000,4.000000,86.000000,,,,0.000000,4.000000,4.000000,4.000000,4.000000,4.000000,100.000000,,,,,,,,,,,,,,,,,,,,,,,,,,,,,,,,,,,,,,,,,,,,,,,,,,,,,,,,,,,,,,,
1656264700.865169,17.000000,0.000000,4260.512695,4245.641113,4090.769287,4116.922852,4230.769043,0.000000,4.000000,86.000000,,,,0.000000,4.000000,4.000000,4.000000,4.000000,4.000000,100.000000,,,,,,,,,,,,,,,,,,,,,,,,,,,,,,,,,,,,,,,,,,,,,,,,,,,,,,,,,,,,,,,
1656264700.872884,18.000000,0.000000,4253.846191,4241.538574,4091.281982,4108.205078,4210.769043,0.000000,4.000000,86.000000,,,,0.000000,4.000000,4.000000,4.000000,4.000000,4.000000,100.000000,,,,,,,,,,,,,,,,,,,,,,,,,,,,,,,,,,,,,,,,,,,,,,,,,,,,,,,,,,,,,,,
1656264700.880698,19.000000,0.000000,4234.871582,4242.563965,4084.615479,4078.974365,4197.436035,0.000000,4.000000,86.000000,,,,0.000000,4.000000,4.000000,4.000000,4.000000,4.000000,100.000000,,,,,,,,,,,,,,,,,,,,,,,,,,,,,,,,,,,,,,,,,,,,,,,,,,,,,,,,,,,,,,,
1656264700.888413,20.000000,0.000000,4223.589844,4232.307617,4089.743652,4070.256348,4186.666504,0.000000,4.000000,86.000000,,,,0.000000,4.000000,4.000000,4.000000,4.000000,4.000000,100.000000,,,,,,,,,,,,,,,,,,,,,,,,,,,,,,,,,,,,,,,,,,,,,,,,,,,,,,,,,,,,,,,
1656264700.896227,21.000000,0.000000,4236.410156,4222.051270,4112.820313,4089.743652,4183.589844,0.000000,4.000000,86.000000,,,,0.000000,4.000000,4.000000,4.000000,4.000000,4.000000,100.000000,,,,,,,,,,,,,,,,,,,,,,,,,,,,,,,,,,,,,,,,,,,,,,,,,,,,,,,,,,,,,,,
1656264700.903941,22.000000,0.000000,4243.077148,4221.538574,4115.384766,4091.281982,4187.692383,0.000000,4.000000,86.000000,,,,0.000000,4.000000,4.000000,4.000000,4.000000,4.000000,100.000000,,,,,,,,,,,,,,,,,,,,,,,,,,,,,,,,,,,,,,,,,,,,,,,,,,,,,,,,,,,,,,,
1656264700.911756,23.000000,0.000000,4266.666504,4239.487305,4117.948730,4088.718018,4210.769043,0.000000,4.000000,86.000000,,,,0.000000,4.000000,4.000000,4.000000,4.000000,4.000000,100.000000,,,,,,,,,,,,,,,,,,,,,,,,,,,,,,,,,,,,,,,,,,,,,,,,,,,,,,,,,,,,,,,
1656264700.919470,24.000000,0.000000,4281.025879,4234.358887,4113.333496,4077.948730,4215.384766,0.000000,4.000000,86.000000,,,,0.000000,4.000000,4.000000,4.000000,4.000000,4.000000,100.000000,,,,,,,,,,,,,,,,,,,,,,,,,,,,,,,,,,,,,,,,,,,,,,,,,,,,,,,,,,,,,,,
1656264700.927385,25.000000,0.000000,4262.563965,4232.307617,4092.307617,4070.769287,4213.333496,0.000000,4.000000,86.000000,,,,0.000000,4.000000,4.000000,4.000000,4.000000,4.000000,100.000000,,,,,,,,,,,,,,,,,,,,,,,,,,,,,,,,,,,,,,,,,,,,,,,,,,,,,,,,,,,,,,,
1656264700.935199,26.000000,0.000000,4252.307617,4255.897461,4073.333252,4097.436035,4235.897461,0.000000,4.000000,86.000000,,,,0.000000,4.000000,4.000000,4.000000,4.000000,4.000000,100.000000,,,,,,,,,,,,,,,,,,,,,,,,,,,,,,,,,,,,,,,,,,,,,,,,,,,,,,,,,,,,,,,
1656264700.943113,27.000000,0.000000,4251.282227,4230.769043,4066.666748,4098.974121,4227.179688,0.000000,4.000000,86.000000,,,,0.000000,4.000000,4.000000,4.000000,4.000000,4.000000,100.000000,,,,,,,,,,,,,,,,,,,,,,,,,,,,,,,,,,,,,,,,,,,,,,,,,,,,,,,,,,,,,,,
1656264700.950928,28.000000,0.000000,4268.205078,4206.153809,4094.358887,4077.948730,4213.333496,0.000000,4.000000,86.000000,,,,0.000000,4.000000,4.000000,4.000000,4.000000,4.000000,100.000000,,,,,,,,,,,,,,,,,,,,,,,,,,,,,,,,,,,,,,,,,,,,,,,,,,,,,,,,,,,,,,,
1656264700.958842,29.000000,0.000000,4278.974121,4235.384766,4106.666504,4076.923096,4220.000000,0.000000,4.000000,86.000000,,,,0.000000,4.000000,4.000000,4.000000,4.000000,4.000000,100.000000,,,,,,,,,,,,,,,,,,,,,,,,,,,,,,,,,,,,,,,,,,,,,,,,,,,,,,,,,,,,,,,
1656264700.966656,30.000000,0.000000,4259.487305,4261.538574,4093.846191,4086.153809,4217.948730,0.000000,4.000000,86.000000,,,,0.000000,4.000000,4.000000,4.000000,4.000000,4.000000,100.000000,,,,,,,,,,,,,,,,,,,,,,,,,,,,,,,,,,,,,,,3.276619,1.893804,1.787089,0.903692,0.983986,1.723266,0.783058,1.245011,1.820775,1.262174,8.887305,3.401613,1.599301,1.797425,0.779454,2.901750,0.766238,0.861986,1.130927,1.389547,2.391900,2.289306,1.088632,1.451289,0.866281
1656264700.974471,31.000000,0.000000,4255.897461,4258.461426,4102.051270,4095.384521,4215.384766,0.000000,4.000000,86.000000,,,,0.000000,4.000000,4.000000,4.000000,4.000000,4.000000,100.000000,,,,,,,,,,,,,,,,,,,,,,,,,,,,,,,,,,,,,,,,,,,,,,,,,,,,,,,,,,,,,,,
1656264700.982185,32.000000,0.000000,4261.538574,4240.512695,4111.282227,4086.153809,4206.153809,0.000000,4.000000,86.000000,,,,0.000000,4.000000,4.000000,4.000000,4.000000,4.000000,100.000000,,,,,,,,,,,,,,,,,,,,,,,,,,,,,,,,,,,,,,,,,,,,,,,,,,,,,,,,,,,,,,,
1656264700.990100,33.000000,0.000000,4271.282227,4246.153809,4103.077148,4092.820557,4215.897461,0.000000,4.000000,86.000000,,,,0.000000,4.000000,4.000000,4.000000,4.000000,4.000000,100.000000,,,,,,,,,,,,,,,,,,,,,,,,,,,,,,,,,,,,,,,,,,,,,,,,,,,,,,,,,,,,,,,
1656264700.997914,34.000000,0.000000,4284.102539,4244.615234,4096.922852,4107.692383,4230.769043,0.000000,4.000000,86.000000,,,,0.000000,4.000000,4.000000,4.000000,4.000000,4.000000,100.000000,,,,,,,,,,,,,,,,,,,,,,,,,,,,,,,,,,,,,,,,,,,,,,,,,,,,,,,,,,,,,,,
1656264701.005828,35.000000,0.000000,4270.769043,4231.282227,4103.589844,4088.205078,4218.461426,0.000000,4.000000,86.000000,,,,0.000000,4.000000,4.000000,4.000000,4.000000,4.000000,100.000000,,,,,,,,,,,,,,,,,,,,,,,,,,,,,,,,,,,,,,,,,,,,,,,,,,,,,,,,,,,,,,,
1656264701.013643,36.000000,0.000000,4265.128418,4250.256348,4107.179688,4083.076904,4220.512695,0.000000,4.000000,86.000000,,,,0.000000,4.000000,4.000000,4.000000,4.000000,4.000000,100.000000,,,,,,,,,,,,,,,,,,,,,,,,,,,,,,,,,,,,,,,,,,,,,,,,,,,,,,,,,,,,,,,
1656264701.021457,37.000000,0.000000,4272.820313,4253.333496,4103.077148,4089.743652,4228.717773,0.000000,4.000000,86.000000,,,,0.000000,4.000000,4.000000,4.000000,4.000000,4.000000,100.000000,,,,,,,,,,,,,,,,,,,,,,,,,,,,,,,,,,,,,,,,,,,,,,,,,,,,,,,,,,,,,,,
1656264701.029172,38.000000,0.000000,4276.922852,4238.461426,4124.102539,4098.461426,4234.358887,0.000000,4.000000,86.000000,,,,0.000000,4.000000,4.000000,4.000000,4.000000,4.000000,100.000000,,,,,,,,,,,,,,,,,,,,,,,,,,,,,,,,,,,,,,,,,,,,,,,,,,,,,,,,,,,,,,,
1656264701.037086,39.000000,0.000000,4279.487305,4236.410156,4141.025879,4111.794922,4235.384766,0.000000,4.000000,86.000000,,,,0.000000,4.000000,4.000000,4.000000,4.000000,4.000000,100.000000,,,,,,,,,,,,,,,,,,,,,,,,,,,,,,,,,,,,,,,,,,,,,,,,,,,,,,,,,,,,,,,
1656264701.044900,40.000000,0.000000,4268.205078,4237.436035,4135.897461,4103.077148,4218.974121,0.000000,4.000000,86.000000,,,,0.000000,4.000000,4.000000,4.000000,4.000000,4.000000,100.000000,,,,,,,,,,,,,,,,,,,,,,,,,,,,,,,,,,,,,,,,,,,,,,,,,,,,,,,,,,,,,,,
1656264701.052715,41.000000,0.000000,4265.641113,4248.717773,4126.153809,4107.179688,4221.025879,0.000000,4.000000,86.000000,,,,0.000000,4.000000,4.000000,4.000000,4.000000,4.000000,100.000000,,,,,,,,,,,,,,,,,,,,,,,,,,,,,,,,,,,,,,,,,,,,,,,,,,,,,,,,,,,,,,,
1656264701.060529,42.000000,0.000000,4258.974121,4244.102539,4093.333252,4108.717773,4224.102539,0.000000,4.000000,86.000000,,,,0.000000,4.000000,4.000000,4.000000,4.000000,4.000000,100.000000,,,,,,,,,,,,,,,,,,,,,,,,,,,,,,,,,,,,,,,,,,,,,,,,,,,,,,,,,,,,,,,
1656264701.068244,43.000000,0.000000,4255.384766,4230.769043,4080.000000,4108.717773,4215.384766,0.000000,4.000000,86.000000,,,,0.000000,4.000000,4.000000,4.000000,4.000000,4.000000,100.000000,,,,,,,,,,,,,,,,,,,,,,,,,,,,,,,,,,,,,,,,,,,,,,,,,,,,,,,,,,,,,,,
1656264701.076158,44.000000,0.000000,4270.256348,4232.307617,4098.974121,4116.410156,4212.820313,0.000000,4.000000,86.000000,,,,0.000000,4.000000,4.000000,4.000000,4.000000,4.000000,100.000000,,,,,,,,,,,,,,,,,,,,,,,,,,,,,,,,,,,,,,,,,,,,,,,,,,,,,,,,,,,,,,,
1656264701.083973,45.000000,0.000000,4276.410156,4237.948730,4099.487305,4103.077148,4216.922852,0.000000,4.000000,86.000000,,,,0.000000,4.000000,4.000000,4.000000,4.000000,4.000000,100.000000,,,,,,,,,,,,,,,,,,,,,,,,,,,,,,,,,,,,,,,,,,,,,,,,,,,,,,,,,,,,,,,
1656264701.091887,46.000000,0.000000,4286.153809,4253.846191,4108.205078,4103.589844,4232.307617,0.000000,4.000000,86.000000,,,,0.000000,4.000000,4.000000,4.000000,4.000000,4.000000,100.000000,,,,,,,,,,,,,,,,,,,,,,,,,,,,,,,,,,,,,,,2.862058,1.749171,1.806147,0.766164,0.944248,1.970085,0.848294,1.178618,1.840630,1.203112,9.367592,2.711622,2.013848,1.857724,0.666739,2.308128,0.637595,0.780914,1.190335,1.238556,2.281122,2.254901,0.980346,1.415572,0.845143
1656264701.099701,47.000000,0.000000,4275.384766,4256.410156,4102.051270,4106.153809,4227.692383,0.000000,4.000000,86.000000,,,,0.000000,4.000000,4.000000,4.000000,4.000000,4.000000,100.000000,,,,,,,,,,,,,,,,,,,,,,,,,,,,,,,,,,,,,,,,,,,,,,,,,,,,,,,,,,,,,,,
1656264701.107516,48.000000,0.000000,4254.871582,4235.897461,4085.641113,4087.692383,4213.333496,0.000000,4.000000,86.000000,,,,0.000000,4.000000,4.000000,4.000000,4.000000,4.000000,100.000000,,,,,,,,,,,,,,,,,,,,,,,,,,,,,,,,,,,,,,,,,,,,,,,,,,,,,,,,,,,,,,,
1656264701.115230,49.000000,0.000000,4264.615234,4237.436035,4104.102539,4074.358887,4214.871582,0.000000,4.000000,86.000000,,,,0.000000,4.000000,4.000000,4.000000,4.000000,4.000000,100.000000,,,,,,,,,,,,,,,,,,,,,,,,,,,,,,,,,,,,,,,,,,,,,,,,,,,,,,,,,,,,,,,
1656264701.123144,50.000000,0.000000,4256.922852,4233.846191,4094.871826,4063.589844,4202.563965,0.000000,4.000000,86.000000,,,,0.000000,4.000000,4.000000,4.000000,4.000000,4.000000,100.000000,,,,,,,,,,,,,,,,,,,,,,,,,,,,,,,,,,,,,,,,,,,,,,,,,,,,,,,,,,,,,,,
1656264701.131059,51.000000,0.000000,4243.589844,4232.307617,4067.692383,4072.820557,4200.000000,0.000000,4.000000,86.000000,,,,0.000000,4.000000,4.000000,4.000000,4.000000,4.000000,100.000000,,,,,,,,,,,,,,,,,,,,,,,,,,,,,,,,,,,,,,,,,,,,,,,,,,,,,,,,,,,,,,,
1656264701.138873,52.000000,0.000000,4254.358887,4249.743652,4077.948730,4096.410156,4223.589844,0.000000,4.000000,86.000000,,,,0.000000,4.000000,4.000000,4.000000,4.000000,4.000000,100.000000,,,,,,,,,,,,,,,,,,,,,,,,,,,,,,,,,,,,,,,,,,,,,,,,,,,,,,,,,,,,,,,
1656264701.146688,53.000000,0.000000,4266.153809,4242.563965,4102.051270,4095.897461,4230.256348,0.000000,4.000000,86.000000,,,,0.000000,4.000000,4.000000,4.000000,4.000000,4.000000,100.000000,,,,,,,,,,,,,,,,,,,,,,,,,,,,,,,,,,,,,,,,,,,,,,,,,,,,,,,,,,,,,,,
1656264701.154602,54.000000,0.000000,4267.179688,4235.384766,4103.077148,4101.538574,4230.256348,0.000000,4.000000,86.000000,,,,0.000000,4.000000,4.000000,4.000000,4.000000,4.000000,100.000000,,,,,,,,,,,,,,,,,,,,,,,,,,,,,,,,,,,,,,,,,,,,,,,,,,,,,,,,,,,,,,,
1656264701.162516,55.000000,0.000000,4248.717773,4232.307617,4084.615479,4103.077148,4222.051270,0.000000,4.000000,86.000000,,,,0.000000,4.000000,4.000000,4.000000,4.000000,4.000000,100.000000,,,,,,,,,,,,,,,,,,,,,,,,,,,,,,,,,,,,,,,,,,,,,,,,,,,,,,,,,,,,,,,
1656264701.170331,56.000000,0.000000,4237.948730,4237.948730,4093.333252,4083.589844,4209.230957,0.000000,4.000000,86.000000,,,,0.000000,4.000000,4.000000,4.000000,4.000000,4.000000,100.000000,,,,,,,,,,,,,,,,,,,,,,,,,,,,,,,,,,,,,,,,,,,,,,,,,,,,,,,,,,,,,,,
1656264701.178245,57.000000,0.000000,4248.205078,4261.538574,4101.538574,4088.205078,4216.410156,0.000000,4.000000,86.000000,,,,0.000000,4.000000,4.000000,4.000000,4.000000,4.000000,100.000000,,,,,,,,,,,,,,,,,,,,,,,,,,,,,,,,,,,,,,,,,,,,,,,,,,,,,,,,,,,,,,,
1656264701.186159,58.000000,0.000000,4254.871582,4259.487305,4086.666748,4102.051270,4225.641113,0.000000,4.000000,86.000000,,,,0.000000,4.000000,4.000000,4.000000,4.000000,4.000000,100.000000,,,,,,,,,,,,,,,,,,,,,,,,,,,,,,,,,,,,,,,,,,,,,,,,,,,,,,,,,,,,,,,
1656264701.193974,59.000000,0.000000,4272.820313,4253.846191,4089.230713,4111.794922,4246.153809,0.000000,4.000000,86.000000,,,,0.000000,4.000000,4.000000,4.000000,4.000000,4.000000,100.000000,,,,,,,,,,,,,,,,,,,,,,,,,,,,,,,,,,,,,,,,,,,,,,,,,,,,,,,,,,,,,,,
1656264701.201788,60.000000,0.000000,4274.871582,4254.358887,4096.410156,4120.000000,4261.025879,0.000000,4.000000,86.000000,,,,0.000000,4.000000,4.000000,4.000000,4.000000,4.000000,100.000000,,,,,,,,,,,,,,,,,,,,,,,,,,,,,,,,,,,,,,,,,,,,,,,,,,,,,,,,,,,,,,,
1656264701.209702,61.000000,0.000000,4272.820313,4249.743652,4105.128418,4121.538574,4258.974121,0.000000,4.000000,86.000000,,,,0.000000,4.000000,4.000000,4.000000,4.000000,4.000000,100.000000,,,,,,,,,,,,,,,,,,,,,,,,,,,,,,,,,,,,,,,,,,,,,,,,,,,,,,,,,,,,,,,
1656264701.217617,62.000000,0.000000,4287.692383,4236.922852,4113.846191,4110.769043,4240.000000,0.000000,4.000000,86.000000,,,,0.000000,4.000000,4.000000,4.000000,4.000000,4.000000,100.000000,1.000000,100.000000,4.000000,4.000000,4.000000,4.000000,4.000000,,,,,,,,,,,,,,,,,,,,,,,,,,,,,,,,2.810442,1.548903,1.779391,0.734676,0.922934,2.227562,1.069595,1.225253,1.783466,1.126503,9.547865,2.299002,2.864682,1.876749,0.583516,1.790975,0.517134,0.781140,1.301558,1.066128,2.218249,2.119901,1.011058,1.439421,0.820407
1656264701.225431,63.000000,0.000000,4270.769043,4224.615234,4108.205078,4091.794922,4210.256348,0.000000,4.000000,86.000000,,,,0.000000,4.000000,4.000000,4.000000,4.000000,4.000000,100.000000,,,,,,,,,,,,,,,,,,,,,,,,,,,,,,,,,,,,,,,,,,,,,,,,,,,,,,,,,,,,,,,
1656264701.233245,64.000000,0.000000,4263.077148,4243.077148,4104.615234,4099.487305,4220.512695,450.000000,4.000000,86.000000,,,,0.000000,4.000000,4.000000,4.000000,4.000000,4.000000,100.000000,,,,,,,,,,,,,,,,,,,,,,,,,,,,,,,,,,,,,,,,,,,,,,,,,,,,,,,,,,,,,,,
1656264701.241060,65.000000,0.000000,4283.077148,4249.743652,4090.256348,4106.666504,4238.974121,450.000000,4.000000,86.000000,,,,0.000000,4.000000,4.000000,4.000000,4.000000,4.000000,100.000000,,,,,,,,,,,,,,,,,,,,,,,,,,,,,,,,,,,,,,,,,,,,,,,,,,,,,,,,,,,,,,,
1656264701.248974,66.000000,0.000000,4283.077148,4249.230957,4077.948730,4109.743652,4234.358887,16150.000000,4.000000,86.000000,,,,0.000000,4.000000,4.000000,4.000000,4.000000,4.000000,100.000000,,,,,,,,,,,,,,,,,,,,,,,,,,,,,,,,,,,,,,,,,,,,,,,,,,,,,,,,,,,,,,,
1656264701.256789,67.000000,0.000000,4248.717773,4263.077148,4082.051270,4113.333496,4224.102539,450.000000,4.000000,86.000000,,,,0.000000,4.000000,4.000000,4.000000,4.000000,4.000000,100.000000,,,,,,,,,,,,,,,,,,,,,,,,,,,,,,,,,,,,,,,,,,,,,,,,,,,,,,,,,,,,,,,
1656264701.264703,68.000000,0.000000,4236.410156,4245.128418,4084.615479,4094.358887,4216.410156,16135.000000,4.000000,86.000000,,,,0.000000,4.000000,4.000000,4.000000,4.000000,4.000000,100.000000,,,,,,,,,,,,,,,,,,,,,,,,,,,,,,,,,,,,,,,,,,,,,,,,,,,,,,,,,,,,,,,
1656264701.272517,69.000000,0.000000,4286.153809,4216.410156,4093.846191,4088.718018,4227.692383,450.000000,4.000000,86.000000,,,,0.000000,4.000000,4.000000,4.000000,4.000000,4.000000,100.000000,,,,,,,,,,,,,,,,,,,,,,,,,,,,,,,,,,,,,,,,,,,,,,,,,,,,,,,,,,,,,,,
1656264701.280432,70.000000,0.000000,4291.794922,4209.743652,4093.333252,4085.128174,4215.384766,16194.000000,4.000000,86.000000,,,,0.000000,4.000000,4.000000,4.000000,4.000000,4.000000,100.000000,,,,,,,,,,,,,,,,,,,,,,,,,,,,,,,,,,,,,,,,,,,,,,,,,,,,,,,,,,,,,,,
1656264701.288246,71.000000,0.000000,4250.256348,4220.512695,4086.666748,4084.615479,4207.179688,450.000000,4.000000,86.000000,,,,0.000000,4.000000,4.000000,4.000000,4.000000,4.000000,100.000000,,,,,,,,,,,,,,,,,,,,,,,,,,,,,,,,,,,,,,,,,,,,,,,,,,,,,,,,,,,,,,,
1656264701.296160,72.000000,0.000000,4262.563965,4230.256348,4087.692383,4100.512695,4227.179688,450.000000,4.000000,86.000000,,,,0.000000,4.000000,4.000000,4.000000,4.000000,4.000000,100.000000,,,,,,,,,,,,,,,,,,,,,,,,,,,,,,,,,,,,,,,,,,,,,,,,,,,,,,,,,,,,,,,
1656264701.303975,73.000000,0.000000,4280.512695,4222.563965,4084.615479,4093.846191,4216.922852,16155.000000,4.000000,86.000000,,,,0.000000,4.000000,4.000000,4.000000,4.000000,4.000000,100.000000,,,,,,,,,,,,,,,,,,,,,,,,,,,,,,,,,,,,,,,,,,,,,,,,,,,,,,,,,,,,,,,
1656264701.311889,74.000000,0.000000,4272.307617,4222.051270,4097.948730,4087.179443,4212.307617,450.000000,4.000000,86.000000,,,,0.000000,4.000000,4.000000,4.000000,4.000000,4.000000,100.000000,,,,,,,,,,,,,,,,,,,,,,,,,,,,,,,,,,,,,,,,,,,,,,,,,,,,,,,,,,,,,,,
1656264701.319803,75.000000,0.000000,4259.487305,4218.974121,4100.000000,4087.692383,4212.820313,16228.000000,4.000000,86.000000,,,,0.000000,4.000000,4.000000,4.000000,4.000000,4.000000,100.000000,,,,,,,,,,,,,,,,,,,,,,,,,,,,,,,,,,,,,,,,,,,,,,,,,,,,,,,,,,,,,,,
1656264701.327618,76.000000,0.000000,4250.256348,4212.307617,4080.512939,4084.615479,4202.051270,450.000000,4.000000,86.000000,,,,0.000000,4.000000,4.000000,4.000000,4.000000,4.000000,100.000000,,,,,,,,,,,,,,,,,,,,,,,,,,,,,,,,,,,,,,,,,,,,,,,,,,,,,,,,,,,,,,,
1656264701.335432,77.000000,0.000000,4268.717773,4221.025879,4076.923096,4098.974121,4214.871582,450.000000,4.000000,86.000000,,,,0.000000,4.000000,4.000000,4.000000,4.000000,4.000000,100.000000,,,,,,,,,,,,,,,,,,,,,,,,,,,,,,,,,,,,,,,,,,,,,,,,,,,,,,,,,,,,,,,
1656264701.343346,78.000000,0.000000,4272.820313,4223.077148,4066.153809,4096.922852,4214.358887,450.000000,4.000000,86.000000,,,,0.000000,4.000000,4.000000,4.000000,4.000000,4.000000,100.000000,,,,,,,,,,,,,,,,,,,,,,,,,,,,,,,,,,,,,,,3.167589,1.466124,1.658216,0.826008,0.897597,2.410325,1.368960,1.352171,1.682070,1.037910,9.175925,2.210570,4.107952,1.893745,0.537646,1.519088,0.452646,0.837597,1.449168,0.916022,2.280797,1.993624,1.142689,1.520899,0.789866
1656264701.351261,79.000000,0.000000,4257.436035,4226.153809,4054.871826,4091.794922,4205.128418,16228.000000,4.000000,86.000000,,,,0.000000,4.000000,4.000000,4.000000,4.000000,4.000000,100.000000,,,,,,,,,,,,,,,,,,,,,,,,,,,,,,,,,,,,,,,,,,,,,,,,,,,,,,,,,,,,,,,
1656264701.359075,80.000000,0.000000,4258.974121,4226.153809,4060.000000,4096.922852,4211.794922,450.000000,4.000000,86.000000,,,,0.000000,4.000000,4.000000,4.000000,4.000000,4.000000,100.000000,,,,,,,,,,,,,,,,,,,,,,,,,,,,,,,,,,,,,,,,,,,,,,,,,,,,,,,,,,,,,,,
1656264701.366989,81.000000,0.000000,4254.871582,4223.589844,4064.102539,4081.538574,4200.512695,450.000000,4.000000,86.000000,,,,0.000000,4.000000,4.000000,4.000000,4.000000,4.000000,100.000000,,,,,,,,,,,,,,,,,,,,,,,,,,,,,,,,,,,,,,,,,,,,,,,,,,,,,,,,,,,,,,,
1656264701.374804,82.000000,0.000000,4242.051270,4241.025879,4067.692383,4089.230713,4195.897461,450.000000,4.000000,86.000000,,,,0.000000,4.000000,4.000000,4.000000,4.000000,4.000000,100.000000,,,,,,,,,,,,,,,,,,,,,,,,,,,,,,,,,,,,,,,,,,,,,,,,,,,,,,,,,,,,,,,
1656264701.382718,83.000000,0.000000,4244.102539,4228.717773,4066.153809,4113.333496,4213.333496,16228.000000,4.000000,86.000000,,,,0.000000,4.000000,4.000000,4.000000,4.000000,4.000000,100.000000,,,,,,,,,,,,,,,,,,,,,,,,,,,,,,,,,,,,,,,,,,,,,,,,,,,,,,,,,,,,,,,
1656264701.390533,84.000000,0.000000,4263.077148,4209.230957,4088.205078,4111.282227,4217.436035,450.000000,4.000000,86.000000,,,,0.000000,4.000000,4.000000,4.000000,4.000000,4.000000,100.000000,,,,,,,,,,,,,,,,,,,,,,,,,,,,,,,,,,,,,,,,,,,,,,,,,,,,,,,,,,,,,,,
1656264701.398447,85.000000,0.000000,4265.128418,4234.358887,4102.563965,4098.974121,4207.692383,450.000000,4.000000,86.000000,,,,0.000000,4.000000,4.000000,4.000000,4.000000,4.000000,100.000000,,,,,,,,,,,,,,,,,,,,,,,,,,,,,,,,,,,,,,,,,,,,,,,,,,,,,,,,,,,,,,,
1656264701.406261,86.000000,0.000000,4240.000000,4240.000000,4075.897461,4086.153809,4202.563965,450.000000,4.000000,86.000000,,,,0.000000,4.000000,4.000000,4.000000,4.000000,4.000000,100.000000,,,,,,,,,,,,,,,,,,,,,,,,,,,,,,,,,,,,,,,,,,,,,,,,,,,,,,,,,,,,,,,
1656264701.414176,87.000000,0.000000,4249.743652,4225.641113,4070.769287,4093.846191,4216.410156,16228.000000,4.000000,86.000000,,,,0.000000,4.000000,4.000000,4.000000,4.000000,4.000000,100.000000,,,,,,,,,,,,,,,,,,,,,,,,,,,,,,,,,,,,,,,,,,,,,,,,,,,,,,,,,,,,,,,
1656264701.422090,88.000000,0.000000,4268.205078,4230.256348,4076.410156,4103.589844,4225.641113,450.000000,4.000000,86.000000,,,,0.000000,4.000000,4.000000,4.000000,4.000000,4.000000,100.000000,,,,,,,,,,,,,,,,,,,,,,,,,,,,,,,,,,,,,,,,,,,,,,,,,,,,,,,,,,,,,,,
1656264701.429904,89.000000,0.000000,4270.769043,4243.589844,4084.615479,4111.282227,4228.205078,450.000000,4.000000,86.000000,,,,0.000000,4.000000,4.000000,4.000000,4.000000,4.000000,100.000000,,,,,,,,,,,,,,,,,,,,,,,,,,,,,,,,,,,,,,,,,,,,,,,,,,,,,,,,,,,,,,,
1656264701.437719,90.000000,0.000000,4278.461426,4249.743652,4094.358887,4130.769043,4230.769043,450.000000,4.000000,86.000000,,,,0.000000,4.000000,4.000000,4.000000,4.000000,4.000000,100.000000,,,,,,,,,,,,,,,,,,,,,,,,,,,,,,,,,,,,,,,,,,,,,,,,,,,,,,,,,,,,,,,
1656264701.445633,91.000000,0.000000,4266.666504,4233.846191,4088.718018,4117.436035,4212.820313,16228.000000,4.000000,86.000000,,,,0.000000,4.000000,4.000000,4.000000,4.000000,4.000000,100.000000,,,,,,,,,,,,,,,,,,,,,,,,,,,,,,,,,,,,,,,,,,,,,,,,,,,,,,,,,,,,,,,
1656264701.453447,92.000000,0.000000,4261.025879,4236.922852,4100.512695,4092.307617,4205.641113,450.000000,4.000000,86.000000,,,,0.000000,4.000000,4.000000,4.000000,4.000000,4.000000,100.000000,,,,,,,,,,,,,,,,,,,,,,,,,,,,,,,,,,,,,,,,,,,,,,,,,,,,,,,,,,,,,,,
1656264701.461362,93.000000,0.000000,4263.077148,4251.794922,4100.000000,4089.743652,4213.846191,450.000000,4.000000,86.000000,,,,0.000000,4.000000,4.000000,4.000000,4.000000,4.000000,100.000000,,,,,,,,,,,,,,,,,,,,,,,,,,,,,,,,,,,,,,,,,,,,,,,,,,,,,,,,,,,,,,,
1656264701.469176,94.000000,0.000000,4264.102539,4234.871582,4091.281982,4089.230713,4215.384766,450.000000,4.000000,86.000000,,,,0.000000,4.000000,4.000000,4.000000,4.000000,4.000000,100.000000,,,,,,,,,,,,,,,,,,,,,,,,,,,,,,,,,,,,,,,3.738592,1.608477,1.440668,1.029464,0.850450,2.467496,1.675331,1.510664,1.596662,0.944913,8.287860,2.332207,5.536158,1.936975,0.525896,1.553756,0.480177,0.912515,1.604707,0.810614,2.494220,1.987102,1.301034,1.634967,0.753420
1656264701.476991,95.000000,0.000000,4281.538574,4220.512695,4111.282227,4092.307617,4220.000000,16228.000000,4.000000,86.000000,,,,0.000000,4.000000,4.000000,4.000000,4.000000,4.000000,100.000000,,,,,,,,,,,,,,,,,,,,,,,,,,,,,,,,,,,,,,,,,,,,,,,,,,,,,,,,,,,,,,,
1656264701.484905,96.000000,0.000000,4269.230957,4220.000000,4110.769043,4083.589844,4211.282227,450.000000,4.000000,86.000000,,,,0.000000,4.000000,4.000000,4.000000,4.000000,4.000000,100.000000,,,,,,,,,,,,,,,,,,,,,,,,,,,,,,,,,,,,,,,,,,,,,,,,,,,,,,,,,,,,,,,
1656264701.492819,97.000000,0.000000,4263.589844,4230.256348,4102.051270,4086.666748,4212.307617,450.000000,4.000000,86.000000,,,,0.000000,4.000000,4.000000,4.000000,4.000000,4.000000,100.000000,,,,,,,,,,,,,,,,,,,,,,,,,,,,,,,,,,,,,,,,,,,,,,,,,,,,,,,,,,,,,,,
1656264701.500634,98.000000,0.000000,4289.230957,4232.820313,4106.666504,4106.153809,4221.025879,450.000000,4.000000,86.000000,,,,0.000000,4.000000,4.000000,4.000000,4.000000,4.000000,100.000000,,,,,,,,,,,,,,,,,,,,,,,,,,,,,,,,,,,,,,,,,,,,,,,,,,,,,,,,,,,,,,,
1656264701.508548,99.000000,0.000000,4278.974121,4223.589844,4101.025879,4105.641113,4204.615234,16228.000000,4.000000,86.000000,,,,0.000000,4.000000,4.000000,4.000000,4.000000,4.000000,100.000000,,,,,,,,,,,,,,,,,,,,,,,,,,,,,,,,,,,,,,,,,,,,,,,,,,,,,,,,,,,,,,,
1656264701.516362,100.000000,0.000000,4259.487305,4232.820313,4095.897461,4102.051270,4199.487305,450.000000,4.000000,86.000000,,,,0.000000,4.000000,4.000000,4.000000,4.000000,4.000000,100.000000,,,,,,,,,,,,,,,,,,,,,,,,,,,,,,,,,,,,,,,,,,,,,,,,,,,,,,,,,,,,,,,
1656264701.524277,101.000000,0.000000,4265.641113,4235.384766,4091.281982,4097.436035,4204.615234,450.000000,4.000000,86.000000,,,,0.000000,4.000000,4.000000,4.000000,4.000000,4.000000,100.000000,,,,,,,,,,,,,,,,,,,,,,,,,,,,,,,,,,,,,,,,,,,,,,,,,,,,,,,,,,,,,,,
1656264701.532091,102.000000,0.000000,4285.128418,4236.410156,4103.589844,4108.205078,4210.256348,450.000000,4.000000,86.000000,,,,0.000000,4.000000,4.000000,4.000000,4.000000,4.000000,100.000000,,,,,,,,,,,,,,,,,,,,,,,,,,,,,,,,,,,,,,,,,,,,,,,,,,,,,,,,,,,,,,,
1656264701.540005,103.000000,0.000000,4286.153809,4240.000000,4113.333496,4121.025879,4211.794922,16228.000000,4.000000,86.000000,,,,0.000000,4.000000,4.000000,4.000000,4.000000,4.000000,100.000000,,,,,,,,,,,,,,,,,,,,,,,,,,,,,,,,,,,,,,,,,,,,,,,,,,,,,,,,,,,,,,,
1656264701.547820,104.000000,0.000000,4268.717773,4229.230957,4100.512695,4102.051270,4202.051270,450.000000,4.000000,86.000000,,,,0.000000,4.000000,4.000000,4.000000,4.000000,4.000000,100.000000,,,,,,,,,,,,,,,,,,,,,,,,,,,,,,,,,,,,,,,,,,,,,,,,,,,,,,,,,,,,,,,
1656264701.555734,105.000000,0.000000,4274.871582,4237.436035,4096.410156,4092.307617,4210.769043,450.000000,4.000000,86.000000,,,,0.000000,4.000000,4.000000,4.000000,4.000000,4.000000,100.000000,,,,,,,,,,,,,,,,,,,,,,,,,,,,,,,,,,,,,,,,,,,,,,,,,,,,,,,,,,,,,,,
1656264701.563548,106.000000,0.000000,4283.589844,4235.897461,4085.128174,4101.025879,4221.538574,450.000000,4.000000,86.000000,,,,0.000000,4.000000,4.000000,4.000000,4.000000,4.000000,100.000000,,,,,,,,,,,,,,,,,,,,,,,,,,,,,,,,,,,,,,,,,,,,,,,,,,,,,,,,,,,,,,,
1656264701.571463,107.000000,0.000000,4285.641113,4223.077148,4082.564209,4102.563965,4225.128418,16228.000000,4.000000,86.000000,,,,0.000000,4.000000,4.000000,4.000000,4.000000,4.000000,100.000000,,,,,,,,,,,,,,,,,,,,,,,,,,,,,,,,,,,,,,,,,,,,,,,,,,,,,,,,,,,,,,,
1656264701.579377,108.000000,0.000000,4285.128418,4230.256348,4091.794922,4092.307617,4227.179688,450.000000,4.000000,86.000000,,,,0.000000,4.000000,4.000000,4.000000,4.000000,4.000000,100.000000,,,,,,,,,,,,,,,,,,,,,,,,,,,,,,,,,,,,,,,,,,,,,,,,,,,,,,,,,,,,,,,
1656264701.587291,109.000000,1.000000,4287.521484,4230.712402,4095.441650,4095.612549,4228.034180,450.000000,4.000000,86.000000,,,,0.000000,4.000000,4.000000,4.000000,4.000000,4.000000,100.000000,,,,,,,,,,,,,,,,,,,,,,,,,,,,,,,,,,,,,,,,,,,,,,,,,,,,,,,,,,,,,,,
1656264701.595106,110.000000,1.000000,4289.914551,4231.167969,4099.088379,4098.917480,4228.888672,450.000000,4.000000,86.000000,,,,0.000000,4.000000,4.000000,4.000000,4.000000,4.000000,100.000000,,,,,,,,,,,,,,,,,,,,,,,,,,,,,,,,,,,,,,,4.319605,1.956531,1.172993,1.294398,0.793378,2.399229,1.894629,1.648216,1.577151,0.856319,7.101498,2.454212,6.764685,2.003169,0.540158,1.866981,0.605875,0.966538,1.743295,0.746509,2.820776,2.148562,1.426361,1.752675,0.711315
1656264701.602920,111.000000,1.000000,4292.307617,4231.624023,4102.734863,4102.222168,4229.743652,450.000000,4.000000,86.000000,,,,0.000000,4.000000,4.000000,4.000000,4.000000,4.000000,100.000000,,,,,,,,,,,,,,,,,,,,,,,,,,,,,,,,,,,,,,,,,,,,,,,,,,,,,,,,,,,,,,,
1656264701.610735,112.000000,1.000000,4294.700684,4232.079590,4106.381836,4105.526855,4230.598145,450.000000,4.000000,86.000000,,,,0.000000,4.000000,4.000000,4.000000,4.000000,4.000000,100.000000,,,,,,,,,,,,,,,,,,,,,,,,,,,,,,,,,,,,,,,,,,,,,,,,,,,,,,,,,,,,,,,
1656264701.618549,113.000000,1.000000,4297.094238,4232.535645,4110.028320,4108.832031,4231.453125,450.000000,4.000000,86.000000,,,,0.000000,4.000000,4.000000,4.000000,4.000000,4.000000,100.000000,,,,,,,,,,,,,,,,,,,,,,,,,,,,,,,,,,,,,,,,,,,,,,,,,,,,,,,,,,,,,,,
1656264701.626363,114.000000,1.000000,4299.487305,4232.991211,4113.675293,4112.136719,4232.307617,450.000000,4.000000,86.000000,,,,0.000000,4.000000,4.000000,4.000000,4.000000,4.000000,100.000000,,,,,,,,,,,,,,,,,,,,,,,,,,,,,,,,,,,,,,,,,,,,,,,,,,,,,,,,,,,,,,,
1656264701.634178,115.000000,1.000000,4301.880371,4233.447266,4117.321777,4115.441406,4233.162598,450.000000,4.000000,86.000000,,,,0.000000,4.000000,4.000000,4.000000,4.000000,4.000000,100.000000,,,,,,,,,,,,,,,,,,,,,,,,,,,,,,,,,,,,,,,,,,,,,,,,,,,,,,,,,,,,,,,
1656264701.641992,116.000000,1.000000,4304.273438,4233.903320,4120.968750,4118.746582,4234.017090,450.000000,4.000000,86.000000,,,,0.000000,4.000000,4.000000,4.000000,4.000000,4.000000,100.000000,,,,,,,,,,,,,,,,,,,,,,,,,,,,,,,,,,,,,,,,,,,,,,,,,,,,,,,,,,,,,,,
1656264701.649807,117.000000,0.000000,4306.666504,4234.358887,4124.615234,4122.051270,4234.871582,450.000000,4.000000,86.000000,,,,0.000000,4.000000,4.000000,4.000000,4.000000,4.000000,100.000000,,,,,,,,,,,,,,,,,,,,,,,,,,,,,,,,,,,,,,,,,,,,,,,,,,,,,,,,,,,,,,,
1656264701.657621,118.000000,0.000000,4292.820313,4237.436035,4137.948730,4108.205078,4208.717773,450.000000,4.000000,86.000000,,,,0.000000,4.000000,4.000000,4.000000,4.000000,4.000000,100.000000,,,,,,,,,,,,,,,,,,,,,,,,,,,,,,,,,,,,,,,,,,,,,,,,,,,,,,,,,,,,,,,
1656264701.665435,119.000000,0.000000,4273.333496,4230.256348,4094.358887,4104.615234,4210.256348,16228.000000,4.000000,86.000000,,,,0.000000,4.000000,4.000000,4.000000,4.000000,4.000000,100.000000,,,,,,,,,,,,,,,,,,,,,,,,,,,,,,,,,,,,,,,,,,,,,,,,,,,,,,,,,,,,,,,
1656264701.673150,120.000000,0.000000,4283.077148,4232.820313,4076.410156,4101.538574,4234.358887,450.000000,4.000000,86.000000,,,,0.000000,4.000000,4.000000,4.000000,4.000000,4.000000,100.000000,,,,,,,,,,,,,,,,,,,,,,,,,,,,,,,,,,,,,,,,,,,,,,,,,,,,,,,,,,,,,,,
1656264701.680964,121.000000,0.000000,4295.897461,4244.102539,4095.384521,4099.487305,4239.487305,450.000000,4.000000,86.000000,,,,0.000000,4.000000,4.000000,4.000000,4.000000,4.000000,100.000000,,,,,,,,,,,,,,,,,,,,,,,,,,,,,,,,,,,,,,,,,,,,,,,,,,,,,,,,,,,,,,,
1656264701.688679,122.000000,0.000000,4283.077148,4236.410156,4088.718018,4093.846191,4223.589844,450.000000,4.000000,86.000000,,,,0.000000,4.000000,4.000000,4.000000,4.000000,4.000000,100.000000,,,,,,,,,,,,,,,,,,,,,,,,,,,,,,,,,,,,,,,,,,,,,,,,,,,,,,,,,,,,,,,
1656264701.696493,123.000000,0.000000,4289.743652,4239.487305,4084.615479,4105.641113,4226.666504,16228.000000,4.000000,86.000000,,,,0.000000,4.000000,4.000000,4.000000,4.000000,4.000000,100.000000,,,,,,,,,,,,,,,,,,,,,,,,,,,,,,,,,,,,,,,,,,,,,,,,,,,,,,,,,,,,,,,
1656264701.704208,124.000000,0.000000,4298.461426,4237.436035,4096.410156,4095.384521,4223.077148,450.000000,4.000000,86.000000,,,,0.000000,4.000000,4.000000,4.000000,4.000000,4.000000,100.000000,,,,,,,,,,,,,,,,,,,,,,,,,,,,,,,,,,,,,,,,,,,,,,,,,,,,,,,,,,,,,,,
1656264701.712022,125.000000,0.000000,4294.358887,4233.846191,4104.615234,4083.589844,4227.179688,450.000000,4.000000,86.000000,,,,0.000000,4.000000,4.000000,4.000000,4.000000,4.000000,100.000000,,,,,,,,,,,,,,,,,,,,,,,,,,,,,,,,,,,,,,,,,,,,,,,,,,,,,,,,,,,,,,,
1656264701.719737,126.000000,0.000000,4296.922852,4233.846191,4094.358887,4102.051270,4238.974121,450.000000,4.000000,86.000000,,,,0.000000,4.000000,4.000000,4.000000,4.000000,4.000000,100.000000,0.968750,100.000000,4.000000,4.000000,4.000000,4.000000,4.000000,,,,,,,,,,,,,,,,,,,,,,,,,,,,,,,,4.670737,2.375682,0.940980,1.538332,0.763116,2.261965,1.960637,1.714877,1.630078,0.781253,5.921002,2.417302,7.422102,2.059625,0.568660,2.352179,0.801583,0.971440,1.851328,0.702253,3.151424,2.407542,1.486948,1.849387,0.663846
1656264701.727551,127.000000,0.000000,4283.077148,4205.641113,4072.307617,4089.743652,4208.205078,241.000000,4.000000,86.000000,,,,0.000000,4.000000,4.000000,4.000000,4.000000,4.000000,100.000000,,,,,,,,,,,,,,,,,,,,,,,,,,,,,,,,,,,,,,,,,,,,,,,,,,,,,,,,,,,,,,,
1656264701.735266,0.000000,0.000000,4278.974121,4207.692383,4076.923096,4082.564209,4205.128418,450.000000,4.000000,86.000000,,,,0.000000,4.000000,4.000000,4.000000,4.000000,4.000000,100.000000,,,,,,,,,,,,,,,,,,,,,,,,,,,,,,,,,,,,,,,,,,,,,,,,,,,,,,,,,,,,,,,
1656264701.742980,1.000000,0.000000,4295.897461,4227.692383,4095.897461,4103.077148,4225.641113,450.000000,4.000000,86.000000,,,,0.000000,4.000000,4.000000,4.000000,4.000000,4.000000,100.000000,,,,,,,,,,,,,,,,,,,,,,,,,,,,,,,,,,,,,,,,,,,,,,,,,,,,,,,,,,,,,,,
1656264701.750794,2.000000,0.000000,4307.179688,4239.487305,4120.512695,4114.358887,4224.102539,16226.000000,4.000000,86.000000,,,,0.000000,4.000000,4.000000,4.000000,4.000000,4.000000,100.000000,,,,,,,,,,,,,,,,,,,,,,,,,,,,,,,,,,,,,,,,,,,,,,,,,,,,,,,,,,,,,,,
1656264701.758509,3.000000,0.000000,4302.051270,4252.307617,4124.102539,4113.846191,4236.922852,450.000000,4.000000,86.000000,,,,0.000000,4.000000,4.000000,4.000000,4.000000,4.000000,100.000000,,,,,,,,,,,,,,,,,,,,,,,,,,,,,,,,,,,,,,,,,,,,,,,,,,,,,,,,,,,,,,,
1656264701.766323,4.000000,0.000000,4289.743652,4237.948730,4097.436035,4106.666504,4253.333496,16206.000000,4.000000,86.000000,,,,0.000000,4.000000,4.000000,4.000000,4.000000,4.000000,100.000000,,,,,,,,,,,,,,,,,,,,,,,,,,,,,,,,,,,,,,,,,,,,,,,,,,,,,,,,,,,,,,,
1656264701.774038,5.000000,0.000000,4298.461426,4241.025879,4104.615234,4109.743652,4248.717773,450.000000,4.000000,86.000000,,,,0.000000,4.000000,4.000000,4.000000,4.000000,4.000000,100.000000,,,,,,,,,,,,,,,,,,,,,,,,,,,,,,,,,,,,,,,,,,,,,,,,,,,,,,,,,,,,,,,
1656264701.781752,6.000000,0.000000,4308.205078,4246.666504,4119.487305,4109.230957,4230.769043,16222.000000,4.000000,86.000000,,,,0.000000,4.000000,4.000000,4.000000,4.000000,4.000000,100.000000,,,,,,,,,,,,,,,,,,,,,,,,,,,,,,,,,,,,,,,,,,,,,,,,,,,,,,,,,,,,,,,
1656264701.789467,7.000000,0.000000,4311.794922,4227.692383,4108.205078,4110.256348,4236.922852,450.000000,4.000000,86.000000,,,,0.000000,4.000000,4.000000,4.000000,4.000000,4.000000,100.000000,,,,,,,,,,,,,,,,,,,,,,,,,,,,,,,,,,,,,,,,,,,,,,,,,,,,,,,,,,,,,,,
1656264701.797281,8.000000,0.000000,4307.692383,4228.717773,4100.000000,4117.948730,4252.820313,450.000000,4.000000,86.000000,,,,0.000000,4.000000,4.000000,4.000000,4.000000,4.000000,100.000000,,,,,,,,,,,,,,,,,,,,,,,,,,,,,,,,,,,,,,,,,,,,,,,,,,,,,,,,,,,,,,,
1656264701.805096,9.000000,0.000000,4275.897461,4243.589844,4091.281982,4100.000000,4240.000000,16225.000000,4.000000,86.000000,,,,0.000000,4.000000,4.000000,4.000000,4.000000,4.000000,100.000000,,,,,,,,,,,,,,,,,,,,,,,,,,,,,,,,,,,,,,,,,,,,,,,,,,,,,,,,,,,,,,,
1656264701.812910,10.000000,0.000000,4284.615234,4238.461426,4102.563965,4088.718018,4223.077148,450.000000,4.000000,86.000000,,,,0.000000,4.000000,4.000000,4.000000,4.000000,4.000000,100.000000,,,,,,,,,,,,,,,,,,,,,,,,,,,,,,,,,,,,,,,,,,,,,,,,,,,,,,,,,,,,,,,
1656264701.820625,11.000000,0.000000,4307.179688,4223.589844,4108.717773,4094.358887,4220.512695,16152.000000,4.000000,86.000000,,,,0.000000,4.000000,4.000000,4.000000,4.000000,4.000000,100.000000,,,,,,,,,,,,,,,,,,,,,,,,,,,,,,,,,,,,,,,,,,,,,,,,,,,,,,,,,,,,,,,
1656264701.828439,12.000000,0.000000,4295.384766,4232.307617,4103.589844,4095.897461,4235.384766,450.000000,4.000000,86.000000,,,,0.000000,4.000000,4.000000,4.000000,4.000000,4.000000,100.000000,,,,,,,,,,,,,,,,,,,,,,,,,,,,,,,,,,,,,,,,,,,,,,,,,,,,,,,,,,,,,,,
1656264701.836154,13.000000,0.000000,4308.717773,4246.666504,4115.897461,4103.589844,4252.307617,450.000000,4.000000,86.000000,,,,0.000000,4.000000,4.000000,4.000000,4.000000,4.000000,100.000000,,,,,,,,,,,,,,,,,,,,,,,,,,,,,,,,,,,,,,,,,,,,,,,,,,,,,,,,,,,,,,,
1656264701.843968,14.000000,0.000000,4314.871582,4241.538574,4120.000000,4101.538574,4242.051270,450.000000,4.000000,86.000000,,,,0.000000,4.000000,4.000000,4.000000,4.000000,4.000000,100.000000,,,,,,,,,,,,,,,,,,,,,,,,,,,,,,,,,,,,,,,4.669480,2.678726,0.802481,1.681380,0.793471,2.130875,1.862767,1.684861,1.706687,0.721609,4.992471,2.203638,7.290865,2.063154,0.596196,2.869673,1.020037,0.921354,1.922301,0.655461,3.418637,2.605586,1.458302,1.901889,0.612961
1656264701.851682,15.000000,0.000000,4309.743652,4251.282227,4124.615234,4104.615234,4242.563965,16152.000000,4.000000,86.000000,,,,0.000000,4.000000,4.000000,4.000000,4.000000,4.000000,100.000000,,,,,,,,,,,,,,,,,,,,,,,,,,,,,,,,,,,,,,,,,,,,,,,,,,,,,,,,,,,,,,,
1656264701.859397,16.000000,0.000000,4322.051270,4252.307617,4131.282227,4123.077148,4249.230957,0.000000,4.000000,86.000000,,,,0.000000,4.000000,4.000000,4.000000,4.000000,4.000000,100.000000,,,,,,,,,,,,,,,,,,,,,,,,,,,,,,,,,,,,,,,,,,,,,,,,,,,,,,,,,,,,,,,
1656264701.867211,17.000000,0.000000,4311.794922,4226.666504,4127.179688,4118.461426,4227.692383,0.000000,4.000000,86.000000,,,,0.000000,4.000000,4.000000,4.000000,4.000000,4.000000,100.000000,,,,,,,,,,,,,,,,,,,,,,,,,,,,,,,,,,,,,,,,,,,,,,,,,,,,,,,,,,,,,,,
1656264701.875026,18.000000,0.000000,4293.333496,4231.282227,4121.025879,4096.922852,4230.769043,0.000000,4.000000,86.000000,,,,0.000000,4.000000,4.000000,4.000000,4.000000,4.000000,100.000000,,,,,,,,,,,,,,,,,,,,,,,,,,,,,,,,,,,,,,,,,,,,,,,,,,,,,,,,,,,,,,,
1656264701.882740,19.000000,0.000000,4290.256348,4240.512695,4105.641113,4089.743652,4233.846191,0.000000,4.000000,86.000000,,,,0.000000,4.000000,4.000000,4.000000,4.000000,4.000000,100.000000,,,,,,,,,,,,,,,,,,,,,,,,,,,,,,,,,,,,,,,,,,,,,,,,,,,,,,,,,,,,,,,
1656264701.890555,20.000000,0.000000,4294.358887,4241.538574,4093.846191,4103.077148,4220.512695,0.000000,4.000000,86.000000,,,,0.000000,4.000000,4.000000,4.000000,4.000000,4.000000,100.000000,,,,,,,,,,,,,,,,,,,,,,,,,,,,,,,,,,,,,,,,,,,,,,,,,,,,,,,,,,,,,,,
1656264701.898269,21.000000,0.000000,4285.641113,4256.410156,4077.435791,4105.641113,4230.769043,0.000000,4.000000,86.000000,,,,0.000000,4.000000,4.000000,4.000000,4.000000,4.000000,100.000000,,,,,,,,,,,,,,,,,,,,,,,,,,,,,,,,,,,,,,,,,,,,,,,,,,,,,,,,,,,,,,,
1656264701.905984,22.000000,0.000000,4275.897461,4249.743652,4061.538574,4092.307617,4234.871582,0.000000,4.000000,86.000000,,,,0.000000,4.000000,4.000000,4.000000,4.000000,4.000000,100.000000,,,,,,,,,,,,,,,,,,,,,,,,,,,,,,,,,,,,,,,,,,,,,,,,,,,,,,,,,,,,,,,
1656264701.913798,23.000000,0.000000,4289.743652,4239.487305,4070.256348,4097.436035,4238.461426,0.000000,4.000000,86.000000,,,,0.000000,4.000000,4.000000,4.000000,4.000000,4.000000,100.000000,,,,,,,,,,,,,,,,,,,,,,,,,,,,,,,,,,,,,,,,,,,,,,,,,,,,,,,,,,,,,,,
1656264701.921513,24.000000,0.000000,4273.846191,4244.615234,4074.358887,4089.743652,4237.948730,0.000000,4.000000,86.000000,,,,0.000000,4.000000,4.000000,4.000000,4.000000,4.000000,100.000000,,,,,,,,,,,,,,,,,,,,,,,,,,,,,,,,,,,,,,,,,,,,,,,,,,,,,,,,,,,,,,,
1656264701.929327,25.000000,0.000000,4248.717773,4249.743652,4076.410156,4085.128174,4227.692383,0.000000,4.000000,86.000000,,,,0.000000,4.000000,4.000000,4.000000,4.000000,4.000000,100.000000,,,,,,,,,,,,,,,,,,,,,,,,,,,,,,,,,,,,,,,,,,,,,,,,,,,,,,,,,,,,,,,
1656264701.937042,26.000000,0.000000,4275.384766,4248.205078,4089.743652,4118.974121,4231.794922,0.000000,4.000000,86.000000,,,,0.000000,4.000000,4.000000,4.000000,4.000000,4.000000,100.000000,,,,,,,,,,,,,,,,,,,,,,,,,,,,,,,,,,,,,,,,,,,,,,,,,,,,,,,,,,,,,,,
1656264701.944856,27.000000,0.000000,4278.461426,4237.436035,4097.948730,4116.922852,4226.153809,0.000000,4.000000,86.000000,,,,0.000000,4.000000,4.000000,4.000000,4.000000,4.000000,100.000000,,,,,,,,,,,,,,,,,,,,,,,,,,,,,,,,,,,,,,,,,,,,,,,,,,,,,,,,,,,,,,,
1656264701.952670,28.000000,0.000000,4257.948730,4235.897461,4114.358887,4086.153809,4216.922852,0.000000,4.000000,86.000000,,,,0.000000,4.000000,4.000000,4.000000,4.000000,4.000000,100.000000,,,,,,,,,,,,,,,,,,,,,,,,,,,,,,,,,,,,,,,,,,,,,,,,,,,,,,,,,,,,,,,
1656264701.960385,29.000000,0.000000,4267.692383,4238.974121,4116.922852,4082.564209,4222.051270,0.000000,4.000000,86.000000,,,,0.000000,4.000000,4.000000,4.000000,4.000000,4.000000,100.000000,,,,,,,,,,,,,,,,,,,,,,,,,,,,,,,,,,,,,,,,,,,,,,,,,,,,,,,,,,,,,,,
1656264701.968099,30.000000,0.000000,4273.846191,4235.384766,4111.794922,4099.487305,4226.666504,0.000000,4.000000,86.000000,,,,0.000000,4.000000,4.000000,4.000000,4.000000,4.000000,100.000000,,,,,,,,,,,,,,,,,,,,,,,,,,,,,,,,,,,,,,,4.352483,2.718799,0.763561,1.678526,0.890676,2.045841,1.648065,1.574532,1.731986,0.674770,4.426483,1.920493,6.429668,1.997881,0.613091,3.257612,1.234257,0.833690,1.950142,0.596166,3.565478,2.595291,1.347220,1.894984,0.563483
1656264701.975914,31.000000,0.000000,4272.307617,4239.487305,4123.589844,4119.487305,4225.641113,0.000000,4.000000,86.000000,,,,0.000000,4.000000,4.000000,4.000000,4.000000,4.000000,100.000000,,,,,,,,,,,,,,,,,,,,,,,,,,,,,,,,,,,,,,,,,,,,,,,,,,,,,,,,,,,,,,,
1656264701.983628,32.000000,0.000000,4264.102539,4225.641113,4114.871582,4093.333252,4209.230957,0.000000,4.000000,86.000000,,,,0.000000,4.000000,4.000000,4.000000,4.000000,4.000000,100.000000,,,,,,,,,,,,,,,,,,,,,,,,,,,,,,,,,,,,,,,,,,,,,,,,,,,,,,,,,,,,,,,
1656264701.991443,33.000000,0.000000,4246.153809,4225.641113,4108.205078,4063.589844,4211.794922,0.000000,4.000000,86.000000,,,,0.000000,4.000000,4.000000,4.000000,4.000000,4.000000,100.000000,,,,,,,,,,,,,,,,,,,,,,,,,,,,,,,,,,,,,,,,,,,,,,,,,,,,,,,,,,,,,,,
1656264701.999157,34.000000,0.000000,4238.974121,4258.974121,4110.256348,4080.512939,4227.692383,0.000000,4.000000,86.000000,,,,0.000000,4.000000,4.000000,4.000000,4.000000,4.000000,100.000000,,,,,,,,,,,,,,,,,,,,,,,,,,,,,,,,,,,,,,,,,,,,,,,,,,,,,,,,,,,,,,,
1656264702.006972,35.000000,0.000000,4245.128418,4250.769043,4091.794922,4088.718018,4221.538574,0.000000,4.000000,86.000000,,,,0.000000,4.000000,4.000000,4.000000,4.000000,4.000000,100.000000,,,,,,,,,,,,,,,,,,,,,,,,,,,,,,,,,,,,,,,,,,,,,,,,,,,,,,,,,,,,,,,
1656264702.014686,36.000000,0.000000,4257.948730,4230.769043,4084.615479,4096.410156,4233.333496,0.000000,4.000000,86.000000,,,,0.000000,4.000000,4.000000,4.000000,4.000000,4.000000,100.000000,,,,,,,,,,,,,,,,,,,,,,,,,,,,,,,,,,,,,,,,,,,,,,,,,,,,,,,,,,,,,,,
1656264702.022501,37.000000,0.000000,4254.358887,4229.230957,4085.641113,4102.051270,4237.436035,0.000000,4.000000,86.000000,,,,0.000000,4.000000,4.000000,4.000000,4.000000,4.000000,100.000000,,,,,,,,,,,,,,,,,,,,,,,,,,,,,,,,,,,,,,,,,,,,,,,,,,,,,,,,,,,,,,,
1656264702.030215,38.000000,0.000000,4254.871582,4229.743652,4099.487305,4088.205078,4220.512695,0.000000,4.000000,86.000000,,,,0.000000,4.000000,4.000000,4.000000,4.000000,4.000000,100.000000,,,,,,,,,,,,,,,,,,,,,,,,,,,,,,,,,,,,,,,,,,,,,,,,,,,,,,,,,,,,,,,
1656264702.037930,39.000000,0.000000,4256.410156,4244.102539,4112.307617,4082.564209,4234.871582,0.000000,4.000000,86.000000,,,,0.000000,4.000000,4.000000,4.000000,4.000000,4.000000,100.000000,,,,,,,,,,,,,,,,,,,,,,,,,,,,,,,,,,,,,,,,,,,,,,,,,,,,,,,,,,,,,,,
1656264702.045744,40.000000,0.000000,4243.077148,4252.307617,4106.153809,4090.256348,4251.282227,0.000000,4.000000,86.000000,,,,0.000000,4.000000,4.000000,4.000000,4.000000,4.000000,100.000000,,,,,,,,,,,,,,,,,,,,,,,,,,,,,,,,,,,,,,,,,,,,,,,,,,,,,,,,,,,,,,,
1656264702.053459,41.000000,0.000000,4254.871582,4241.025879,4116.410156,4100.512695,4229.230957,0.000000,4.000000,86.000000,,,,0.000000,4.000000,4.000000,4.000000,4.000000,4.000000,100.000000,,,,,,,,,,,,,,,,,,,,,,,,,,,,,,,,,,,,,,,,,,,,,,,,,,,,,,,,,,,,,,,
1656264702.061273,42.000000,0.000000,4263.077148,4230.256348,4121.538574,4093.846191,4207.692383,0.000000,4.000000,86.000000,,,,0.000000,4.000000,4.000000,4.000000,4.000000,4.000000,100.000000,,,,,,,,,,,,,,,,,,,,,,,,,,,,,,,,,,,,,,,,,,,,,,,,,,,,,,,,,,,,,,,
1656264702.068987,43.000000,0.000000,4262.563965,4243.589844,4121.025879,4104.102539,4233.333496,0.000000,4.000000,86.000000,,,,0.000000,4.000000,4.000000,4.000000,4.000000,4.000000,100.000000,,,,,,,,,,,,,,,,,,,,,,,,,,,,,,,,,,,,,,,,,,,,,,,,,,,,,,,,,,,,,,,
1656264702.076802,44.000000,0.000000,4267.692383,4223.589844,4114.871582,4116.410156,4239.487305,0.000000,4.000000,86.000000,,,,0.000000,4.000000,4.000000,4.000000,4.000000,4.000000,100.000000,,,,,,,,,,,,,,,,,,,,,,,,,,,,,,,,,,,,,,,,,,,,,,,,,,,,,,,,,,,,,,,
1656264702.084616,45.000000,0.000000,4263.077148,4206.153809,4094.871826,4103.589844,4223.589844,0.000000,4.000000,86.000000,,,,0.000000,4.000000,4.000000,4.000000,4.000000,4.000000,100.000000,,,,,,,,,,,,,,,,,,,,,,,,,,,,,,,,,,,,,,,,,,,,,,,,,,,,,,,,,,,,,,,
1656264702.092331,46.000000,0.000000,4271.282227,4265.128418,4077.435791,4113.846191,4250.769043,0.000000,4.000000,86.000000,,,,0.000000,4.000000,4.000000,4.000000,4.000000,4.000000,100.000000,,,,,,,,,,,,,,,,,,,,,,,,,,,,,,,,,,,,,,,3.780522,2.464664,0.799722,1.531920,1.026657,1.986623,1.404184,1.447087,1.653119,0.637212,4.234642,1.750572,5.127884,1.884351,0.618314,3.407751,1.451556,0.736461,1.919337,0.532262,3.576579,2.334826,1.201597,1.816093,0.524795
1656264702.100045,47.000000,0.000000,4277.948730,4261.538574,4064.615479,4104.615234,4249.230957,0.000000,4.000000,86.000000,,,,0.000000,4.000000,4.000000,4.000000,4.000000,4.000000,100.000000,,,,,,,,,,,,,,,,,,,,,,,,,,,,,,,,,,,,,,,,,,,,,,,,,,,,,,,,,,,,,,,
1656264702.107860,48.000000,0.000000,4286.666504,4219.487305,4078.461426,4091.794922,4236.922852,0.000000,4.000000,86.000000,,,,0.000000,4.000000,4.000000,4.000000,4.000000,4.000000,100.000000,,,,,,,,,,,,,,,,,,,,,,,,,,,,,,,,,,,,,,,,,,,,,,,,,,,,,,,,,,,,,,,
1656264702.115574,49.000000,0.000000,4281.025879,4245.128418,4078.974365,4102.563965,4250.769043,0.000000,4.000000,86.000000,,,,0.000000,4.000000,4.000000,4.000000,4.000000,4.000000,100.000000,,,,,,,,,,,,,,,,,,,,,,,,,,,,,,,,,,,,,,,,,,,,,,,,,,,,,,,,,,,,,,,
1656264702.123389,50.000000,0.000000,4260.000000,4258.461426,4073.333252,4098.461426,4245.128418,0.000000,4.000000,86.000000,,,,0.000000,4.000000,4.000000,4.000000,4.000000,4.000000,100.000000,,,,,,,,,,,,,,,,,,,,,,,,,,,,,,,,,,,,,,,,,,,,,,,,,,,,,,,,,,,,,,,
1656264702.131203,51.000000,0.000000,4272.820313,4256.410156,4091.281982,4104.102539,4242.563965,0.000000,4.000000,86.000000,,,,0.000000,4.000000,4.000000,4.000000,4.000000,4.000000,100.000000,,,,,,,,,,,,,,,,,,,,,,,,,,,,,,,,,,,,,,,,,,,,,,,,,,,,,,,,,,,,,,,
1656264702.138917,52.000000,0.000000,4283.077148,4251.794922,4081.538574,4112.820313,4246.666504,0.000000,4.000000,86.000000,,,,0.000000,4.000000,4.000000,4.000000,4.000000,4.000000,100.000000,,,,,,,,,,,,,,,,,,,,,,,,,,,,,,,,,,,,,,,,,,,,,,,,,,,,,,,,,,,,,,,
1656264702.146632,53.000000,0.000000,4295.384766,4245.128418,4079.487061,4118.974121,4258.461426,0.000000,4.000000,86.000000,,,,0.000000,4.000000,4.000000,4.000000,4.000000,4.000000,100.000000,,,,,,,,,,,,,,,,,,,,,,,,,,,,,,,,,,,,,,,,,,,,,,,,,,,,,,,,,,,,,,,
1656264702.154446,54.000000,0.000000,4297.948730,4240.512695,4092.307617,4117.436035,4267.179688,0.000000,4.000000,86.000000,,,,0.000000,4.000000,4.000000,4.000000,4.000000,4.000000,100.000000,,,,,,,,,,,,,,,,,,,,,,,,,,,,,,,,,,,,,,,,,,,,,,,,,,,,,,,,,,,,,,,
1656264702.162161,55.000000,0.000000,4260.512695,4231.794922,4077.948730,4100.000000,4245.641113,0.000000,4.000000,86.000000,,,,0.000000,4.000000,4.000000,4.000000,4.000000,4.000000,100.000000,,,,,,,,,,,,,,,,,,,,,,,,,,,,,,,,,,,,,,,,,,,,,,,,,,,,,,,,,,,,,,,
1656264702.169975,56.000000,0.000000,4270.769043,4234.358887,4070.769287,4112.820313,4245.641113,0.000000,4.000000,86.000000,,,,0.000000,4.000000,4.000000,4.000000,4.000000,4.000000,100.000000,,,,,,,,,,,,,,,,,,,,,,,,,,,,,,,,,,,,,,,,,,,,,,,,,,,,,,,,,,,,,,,
1656264702.177790,57.000000,0.000000,4292.307617,4229.743652,4075.384521,4116.922852,4248.205078,0.000000,4.000000,86.000000,,,,0.000000,4.000000,4.000000,4.000000,4.000000,4.000000,100.000000,,,,,,,,,,,,,,,,,,,,,,,,,,,,,,,,,,,,,,,,,,,,,,,,,,,,,,,,,,,,,,,
1656264702.185504,58.000000,0.000000,4268.205078,4230.769043,4101.538574,4091.281982,4227.692383,0.000000,4.000000,86.000000,,,,0.000000,4.000000,4.000000,4.000000,4.000000,4.000000,100.000000,,,,,,,,,,,,,,,,,,,,,,,,,,,,,,,,,,,,,,,,,,,,,,,,,,,,,,,,,,,,,,,
1656264702.193219,59.000000,0.000000,4265.128418,4242.051270,4122.051270,4087.179443,4219.487305,0.000000,4.000000,86.000000,,,,0.000000,4.000000,4.000000,4.000000,4.000000,4.000000,100.000000,,,,,,,,,,,,,,,,,,,,,,,,,,,,,,,,,,,,,,,,,,,,,,,,,,,,,,,,,,,,,,,
1656264702.200933,60.000000,0.000000,4265.128418,4236.922852,4087.179443,4087.692383,4217.948730,0.000000,4.000000,86.000000,,,,0.000000,4.000000,4.000000,4.000000,4.000000,4.000000,100.000000,,,,,,,,,,,,,,,,,,,,,,,,,,,,,,,,,,,,,,,,,,,,,,,,,,,,,,,,,,,,,,,
1656264702.208748,61.000000,0.000000,4261.025879,4231.794922,4078.461426,4075.897461,4224.615234,0.000000,4.000000,86.000000,,,,0.000000,4.000000,4.000000,4.000000,4.000000,4.000000,100.000000,,,,,,,,,,,,,,,,,,,,,,,,,,,,,,,,,,,,,,,,,,,,,,,,,,,,,,,,,,,,,,,
1656264702.216562,62.000000,0.000000,4269.743652,4221.538574,4104.102539,4078.974365,4225.641113,0.000000,4.000000,86.000000,,,,0.000000,4.000000,4.000000,4.000000,4.000000,4.000000,100.000000,0.968750,100.000000,4.000000,4.000000,4.000000,4.000000,4.000000,,,,,,,,,,,,,,,,,,,,,,,,,,,,,,,,3.102367,2.032940,0.867469,1.287553,1.149666,1.898662,1.212671,1.362075,1.471344,0.606486,4.314757,1.945296,3.751276,1.748455,0.614968,3.291113,1.686421,0.658507,1.813943,0.485706,3.441280,1.905454,1.091933,1.663432,0.506142
1656264702.224277,63.000000,0.000000,4274.871582,4224.102539,4101.538574,4104.615234,4225.128418,0.000000,4.000000,86.000000,,,,0.000000,4.000000,4.000000,4.000000,4.000000,4.000000,100.000000,,,,,,,,,,,,,,,,,,,,,,,,,,,,,,,,,,,,,,,,,,,,,,,,,,,,,,,,,,,,,,,
1656264702.232091,64.000000,0.000000,4272.820313,4244.102539,4089.743652,4109.230957,4239.487305,450.000000,4.000000,86.000000,,,,0.000000,4.000000,4.000000,4.000000,4.000000,4.000000,100.000000,,,,,,,,,,,,,,,,,,,,,,,,,,,,,,,,,,,,,,,,,,,,,,,,,,,,,,,,,,,,,,,
1656264702.239806,65.000000,0.000000,4262.563965,4241.025879,4086.153809,4080.000000,4234.358887,450.000000,4.000000,86.000000,,,,0.000000,4.000000,4.000000,4.000000,4.000000,4.000000,100.000000,,,,,,,,,,,,,,,,,,,,,,,,,,,,,,,,,,,,,,,,,,,,,,,,,,,,,,,,,,,,,,,
1656264702.247620,66.000000,0.000000,4275.897461,4236.922852,4095.384521,4100.000000,4231.794922,16245.000000,4.000000,86.000000,,,,0.000000,4.000000,4.000000,4.000000,4.000000,4.000000,100.000000,,,,,,,,,,,,,,,,,,,,,,,,,,,,,,,,,,,,,,,,,,,,,,,,,,,,,,,,,,,,,,,
1656264702.255334,67.000000,0.000000,4286.666504,4230.256348,4088.718018,4125.128418,4231.794922,450.000000,4.000000,86.000000,,,,0.000000,4.000000,4.000000,4.000000,4.000000,4.000000,100.000000,,,,,,,,,,,,,,,,,,,,,,,,,,,,,,,,,,,,,,,,,,,,,,,,,,,,,,,,,,,,,,,
1656264702.263149,68.000000,0.000000,4265.641113,4219.487305,4076.923096,4089.743652,4225.641113,16218.000000,4.000000,86.000000,,,,0.000000,4.000000,4.000000,4.000000,4.000000,4.000000,100.000000,,,,,,,,,,,,,,,,,,,,,,,,,,,,,,,,,,,,,,,,,,,,,,,,,,,,,,,,,,,,,,,
1656264702.270863,69.000000,0.000000,4263.077148,4255.897461,4074.358887,4094.871826,4248.717773,450.000000,4.000000,86.000000,,,,0.000000,4.000000,4.000000,4.000000,4.000000,4.000000,100.000000,,,,,,,,,,,,,,,,,,,,,,,,,,,,,,,,,,,,,,,,,,,,,,,,,,,,,,,,,,,,,,,
1656264702.278678,70.000000,0.000000,4277.436035,4263.589844,4063.589844,4127.692383,4255.897461,16183.000000,4.000000,86.000000,,,,0.000000,4.000000,4.000000,4.000000,4.000000,4.000000,100.000000,,,,,,,,,,,,,,,,,,,,,,,,,,,,,,,,,,,,,,,,,,,,,,,,,,,,,,,,,,,,,,,
1656264702.286392,71.000000,0.000000,4282.563965,4242.563965,4084.615479,4116.922852,4239.487305,450.000000,4.000000,86.000000,,,,0.000000,4.000000,4.000000,4.000000,4.000000,4.000000,100.000000,,,,,,,,,,,,,,,,,,,,,,,,,,,,,,,,,,,,,,,,,,,,,,,,,,,,,,,,,,,,,,,
1656264702.294207,72.000000,0.000000,4271.794922,4263.589844,4109.230957,4098.974121,4236.410156,450.000000,4.000000,86.000000,,,,0.000000,4.000000,4.000000,4.000000,4.000000,4.000000,100.000000,,,,,,,,,,,,,,,,,,,,,,,,,,,,,,,,,,,,,,,,,,,,,,,,,,,,,,,,,,,,,,,
1656264702.301921,73.000000,0.000000,4262.563965,4265.128418,4099.487305,4097.436035,4227.692383,16198.000000,4.000000,86.000000,,,,0.000000,4.000000,4.000000,4.000000,4.000000,4.000000,100.000000,,,,,,,,,,,,,,,,,,,,,,,,,,,,,,,,,,,,,,,,,,,,,,,,,,,,,,,,,,,,,,,
1656264702.309636,74.000000,0.000000,4280.512695,4253.333496,4103.077148,4121.538574,4234.358887,450.000000,4.000000,86.000000,,,,0.000000,4.000000,4.000000,4.000000,4.000000,4.000000,100.000000,,,,,,,,,,,,,,,,,,,,,,,,,,,,,,,,,,,,,,,,,,,,,,,,,,,,,,,,,,,,,,,
1656264702.317350,75.000000,0.000000,4286.153809,4263.589844,4102.051270,4126.666504,4241.538574,16183.000000,4.000000,86.000000,,,,0.000000,4.000000,4.000000,4.000000,4.000000,4.000000,100.000000,,,,,,,,,,,,,,,,,,,,,,,,,,,,,,,,,,,,,,,,,,,,,,,,,,,,,,,,,,,,,,,
1656264702.325165,76.000000,0.000000,4280.512695,4268.717773,4102.563965,4113.333496,4238.974121,450.000000,4.000000,86.000000,,,,0.000000,4.000000,4.000000,4.000000,4.000000,4.000000,100.000000,,,,,,,,,,,,,,,,,,,,,,,,,,,,,,,,,,,,,,,,,,,,,,,,,,,,,,,,,,,,,,,
1656264702.332979,77.000000,0.000000,4284.102539,4262.563965,4115.384766,4118.974121,4250.769043,450.000000,4.000000,86.000000,,,,0.000000,4.000000,4.000000,4.000000,4.000000,4.000000,100.000000,,,,,,,,,,,,,,,,,,,,,,,,,,,,,,,,,,,,,,,,,,,,,,,,,,,,,,,,,,,,,,,
1656264702.340694,78.000000,0.000000,4278.461426,4247.692383,4104.615234,4117.948730,4255.384766,450.000000,4.000000,86.000000,,,,0.000000,4.000000,4.000000,4.000000,4.000000,4.000000,100.000000,,,,,,,,,,,,,,,,,,,,,,,,,,,,,,,,,,,,,,,2.460723,1.590945,0.938211,1.020280,1.211873,1.734989,1.118729,1.337761,1.240209,0.587140,4.554278,2.722084,2.612850,1.605198,0.607377,2.958823,1.920542,0.620344,1.633466,0.482389,3.168522,1.452080,1.076178,1.452583,0.514782
1656264702.348508,79.000000,0.000000,4298.974121,4242.563965,4111.794922,4120.000000,4255.897461,16183.000000,4.000000,86.000000,,,,0.000000,4.000000,4.000000,4.000000,4.000000,4.000000,100.000000,,,,,,,,,,,,,,,,,,,,,,,,,,,,,,,,,,,,,,,,,,,,,,,,,,,,,,,,,,,,,,,
1656264702.356222,80.000000,0.000000,4313.333496,4234.358887,4120.000000,4109.743652,4240.000000,450.000000,4.000000,86.000000,,,,0.000000,4.000000,4.000000,4.000000,4.000000,4.000000,100.000000,,,,,,,,,,,,,,,,,,,,,,,,,,,,,,,,,,,,,,,,,,,,,,,,,,,,,,,,,,,,,,,
1656264702.364037,81.000000,0.000000,4295.897461,4249.230957,4112.307617,4100.000000,4236.922852,450.000000,4.000000,86.000000,,,,0.000000,4.000000,4.000000,4.000000,4.000000,4.000000,100.000000,,,,,,,,,,,,,,,,,,,,,,,,,,,,,,,,,,,,,,,,,,,,,,,,,,,,,,,,,,,,,,,
1656264702.371751,82.000000,0.000000,4281.025879,4275.897461,4110.769043,4114.871582,4250.256348,450.000000,4.000000,86.000000,,,,0.000000,4.000000,4.000000,4.000000,4.000000,4.000000,100.000000,,,,,,,,,,,,,,,,,,,,,,,,,,,,,,,,,,,,,,,,,,,,,,,,,,,,,,,,,,,,,,,
1656264702.379566,83.000000,0.000000,4271.282227,4256.922852,4106.153809,4106.666504,4235.897461,16183.000000,4.000000,86.000000,,,,0.000000,4.000000,4.000000,4.000000,4.000000,4.000000,100.000000,,,,,,,,,,,,,,,,,,,,,,,,,,,,,,,,,,,,,,,,,,,,,,,,,,,,,,,,,,,,,,,
1656264702.387280,84.000000,0.000000,4294.358887,4262.563965,4116.410156,4105.641113,4245.128418,450.000000,4.000000,86.000000,,,,0.000000,4.000000,4.000000,4.000000,4.000000,4.000000,100.000000,,,,,,,,,,,,,,,,,,,,,,,,,,,,,,,,,,,,,,,,,,,,,,,,,,,,,,,,,,,,,,,
1656264702.395095,85.000000,0.000000,4279.487305,4270.769043,4101.025879,4100.000000,4246.666504,450.000000,4.000000,86.000000,,,,0.000000,4.000000,4.000000,4.000000,4.000000,4.000000,100.000000,,,,,,,,,,,,,,,,,,,,,,,,,,,,,,,,,,,,,,,,,,,,,,,,,,,,,,,,,,,,,,,
1656264702.402809,86.000000,0.000000,4254.871582,4253.846191,4097.948730,4104.102539,4236.410156,450.000000,4.000000,86.000000,,,,0.000000,4.000000,4.000000,4.000000,4.000000,4.000000,100.000000,,,,,,,,,,,,,,,,,,,,,,,,,,,,,,,,,,,,,,,,,,,,,,,,,,,,,,,,,,,,,,,
1656264702.410624,87.000000,0.000000,4298.461426,4246.666504,4126.153809,4140.512695,4243.077148,16183.000000,4.000000,86.000000,,,,0.000000,4.000000,4.000000,4.000000,4.000000,4.000000,100.000000,,,,,,,,,,,,,,,,,,,,,,,,,,,,,,,,,,,,,,,,,,,,,,,,,,,,,,,,,,,,,,,
1656264702.418338,88.000000,0.000000,4290.769043,4231.282227,4110.769043,4112.307617,4222.051270,450.000000,4.000000,86.000000,,,,0.000000,4.000000,4.000000,4.000000,4.000000,4.000000,100.000000,,,,,,,,,,,,,,,,,,,,,,,,,,,,,,,,,,,,,,,,,,,,,,,,,,,,,,,,,,,,,,,
1656264702.426153,89.000000,0.000000,4269.743652,4251.282227,4097.436035,4093.846191,4230.769043,450.000000,4.000000,86.000000,,,,0.000000,4.000000,4.000000,4.000000,4.000000,4.000000,100.000000,,,,,,,,,,,,,,,,,,,,,,,,,,,,,,,,,,,,,,,,,,,,,,,,,,,,,,,,,,,,,,,
1656264702.433867,90.000000,0.000000,4278.974121,4254.358887,4096.410156,4110.769043,4233.846191,450.000000,4.000000,86.000000,,,,0.000000,4.000000,4.000000,4.000000,4.000000,4.000000,100.000000,,,,,,,,,,,,,,,,,,,,,,,,,,,,,,,,,,,,,,,,,,,,,,,,,,,,,,,,,,,,,,,
1656264702.441681,91.000000,0.000000,4282.563965,4241.538574,4115.384766,4100.000000,4221.025879,16183.000000,4.000000,86.000000,,,,0.000000,4.000000,4.000000,4.000000,4.000000,4.000000,100.000000,,,,,,,,,,,,,,,,,,,,,,,,,,,,,,,,,,,,,,,,,,,,,,,,,,,,,,,,,,,,,,,
1656264702.449396,92.000000,0.000000,4309.743652,4283.077148,4129.743652,4107.179688,4264.102539,450.000000,4.000000,86.000000,,,,0.000000,4.000000,4.000000,4.000000,4.000000,4.000000,100.000000,,,,,,,,,,,,,,,,,,,,,,,,,,,,,,,,,,,,,,,,,,,,,,,,,,,,,,,,,,,,,,,
1656264702.457210,93.000000,0.000000,4297.948730,4265.641113,4086.666748,4106.153809,4256.922852,450.000000,4.000000,86.000000,,,,0.000000,4.000000,4.000000,4.000000,4.000000,4.000000,100.000000,,,,,,,,,,,,,,,,,,,,,,,,,,,,,,,,,,,,,,,,,,,,,,,,,,,,,,,,,,,,,,,
1656264702.464925,94.000000,0.000000,4283.589844,4227.692383,4081.025635,4107.692383,4224.615234,450.000000,4.000000,86.000000,,,,0.000000,4.000000,4.000000,4.000000,4.000000,4.000000,100.000000,,,,,,,,,,,,,,,,,,,,,,,,,,,,,,,,,,,,,,,2.043826,1.279839,0.999120,0.799427,1.195140,1.506982,1.107306,1.340343,1.033050,0.593958,4.813404,4.094545,1.862388,1.463653,0.601764,2.541866,2.113990,0.632756,1.401279,0.538773,2.830313,1.118378,1.163464,1.216057,0.550465
1656264702.472739,95.000000,0.000000,4301.025879,4246.153809,4094.358887,4118.461426,4241.025879,16183.000000,4.000000,86.000000,,,,0.000000,4.000000,4.000000,4.000000,4.000000,4.000000,100.000000,,,,,,,,,,,,,,,,,,,,,,,,,,,,,,,,,,,,,,,,,,,,,,,,,,,,,,,,,,,,,,,
1656264702.480454,96.000000,0.000000,4303.077148,4246.153809,4087.692383,4109.743652,4247.692383,450.000000,4.000000,86.000000,,,,0.000000,4.000000,4.000000,4.000000,4.000000,4.000000,100.000000,,,,,,,,,,,,,,,,,,,,,,,,,,,,,,,,,,,,,,,,,,,,,,,,,,,,,,,,,,,,,,,
1656264702.488168,97.000000,0.000000,4311.794922,4242.563965,4114.358887,4109.230957,4249.230957,450.000000,4.000000,86.000000,,,,0.000000,4.000000,4.000000,4.000000,4.000000,4.000000,100.000000,,,,,,,,,,,,,,,,,,,,,,,,,,,,,,,,,,,,,,,,,,,,,,,,,,,,,,,,,,,,,,,
1656264702.495983,98.000000,0.000000,4301.025879,4261.538574,4112.820313,4103.589844,4255.384766,450.000000,4.000000,86.000000,,,,0.000000,4.000000,4.000000,4.000000,4.000000,4.000000,100.000000,,,,,,,,,,,,,,,,,,,,,,,,,,,,,,,,,,,,,,,,,,,,,,,,,,,,,,,,,,,,,,,
1656264702.503697,99.000000,0.000000,4285.128418,4269.743652,4095.384521,4101.025879,4246.153809,16183.000000,4.000000,86.000000,,,,0.000000,4.000000,4.000000,4.000000,4.000000,4.000000,100.000000,,,,,,,,,,,,,,,,,,,,,,,,,,,,,,,,,,,,,,,,,,,,,,,,,,,,,,,,,,,,,,,
1656264702.511512,100.000000,0.000000,4295.897461,4254.871582,4123.589844,4091.281982,4231.282227,450.000000,4.000000,86.000000,,,,0.000000,4.000000,4.000000,4.000000,4.000000,4.000000,100.000000,,,,,,,,,,,,,,,,,,,,,,,,,,,,,,,,,,,,,,,,,,,,,,,,,,,,,,,,,,,,,,,
1656264702.519226,101.000000,0.000000,4285.641113,4242.563965,4126.666504,4063.589844,4223.077148,450.000000,4.000000,86.000000,,,,0.000000,4.000000,4.000000,4.000000,4.000000,4.000000,100.000000,,,,,,,,,,,,,,,,,,,,,,,,,,,,,,,,,,,,,,,,,,,,,,,,,,,,,,,,,,,,,,,
1656264702.527041,102.000000,0.000000,4269.230957,4252.307617,4101.538574,4080.000000,4224.102539,450.000000,4.000000,86.000000,,,,0.000000,4.000000,4.000000,4.000000,4.000000,4.000000,100.000000,,,,,,,,,,,,,,,,,,,,,,,,,,,,,,,,,,,,,,,,,,,,,,,,,,,,,,,,,,,,,,,
1656264702.534755,103.000000,0.000000,4268.717773,4246.666504,4105.128418,4095.384521,4208.205078,16183.000000,4.000000,86.000000,,,,0.000000,4.000000,4.000000,4.000000,4.000000,4.000000,100.000000,,,,,,,,,,,,,,,,,,,,,,,,,,,,,,,,,,,,,,,,,,,,,,,,,,,,,,,,,,,,,,,
1656264702.542569,104.000000,0.000000,4273.333496,4233.846191,4116.922852,4070.769287,4198.974121,450.000000,4.000000,86.000000,,,,0.000000,4.000000,4.000000,4.000000,4.000000,4.000000,100.000000,,,,,,,,,,,,,,,,,,,,,,,,,,,,,,,,,,,,,,,,,,,,,,,,,,,,,,,,,,,,,,,
1656264702.550284,105.000000,0.000000,4286.666504,4242.051270,4116.922852,4076.410156,4224.615234,450.000000,4.000000,86.000000,,,,0.000000,4.000000,4.000000,4.000000,4.000000,4.000000,100.000000,,,,,,,,,,,,,,,,,,,,,,,,,,,,,,,,,,,,,,,,,,,,,,,,,,,,,,,,,,,,,,,
1656264702.558098,106.000000,0.000000,4277.948730,4238.461426,4116.922852,4091.794922,4220.512695,450.000000,4.000000,86.000000,,,,0.000000,4.000000,4.000000,4.000000,4.000000,4.000000,100.000000,,,,,,,,,,,,,,,,,,,,,,,,,,,,,,,,,,,,,,,,,,,,,,,,,,,,,,,,,,,,,,,
1656264702.565813,107.000000,0.000000,4260.000000,4245.128418,4114.358887,4091.281982,4210.256348,16183.000000,4.000000,86.000000,,,,0.000000,4.000000,4.000000,4.000000,4.000000,4.000000,100.000000,,,,,,,,,,,,,,,,,,,,,,,,,,,,,,,,,,,,,,,,,,,,,,,,,,,,,,,,,,,,,,,
1656264702.573627,108.000000,0.000000,4273.333496,4260.000000,4087.179443,4106.666504,4231.282227,450.000000,4.000000,86.000000,,,,0.000000,4.000000,4.000000,4.000000,4.000000,4.000000,100.000000,,,,,,,,,,,,,,,,,,,,,,,,,,,,,,,,,,,,,,,,,,,,,,,,,,,,,,,,,,,,,,,
1656264702.581342,109.000000,0.000000,4290.256348,4243.589844,4069.230713,4108.717773,4231.794922,450.000000,4.000000,86.000000,,,,0.000000,4.000000,4.000000,4.000000,4.000000,4.000000,100.000000,,,,,,,,,,,,,,,,,,,,,,,,,,,,,,,,,,,,,,,,,,,,,,,,,,,,,,,,,,,,,,,
1656264702.589156,110.000000,0.000000,4293.846191,4242.051270,4083.589844,4097.436035,4233.846191,450.000000,4.000000,86.000000,,,,0.000000,4.000000,4.000000,4.000000,4.000000,4.000000,100.000000,,,,,,,,,,,,,,,,,,,,,,,,,,,,,,,,,,,,,,,1.914925,1.158425,1.040596,0.664206,1.120320,1.301233,1.132336,1.331824,0.914555,0.644073,5.036491,5.803924,1.469856,1.329128,0.605825,2.190091,2.213758,0.688135,1.161136,0.655211,2.521812,0.978578,1.306710,0.994701,0.602012
1656264702.596871,111.000000,0.000000,4283.077148,4237.436035,4086.153809,4092.820557,4233.846191,16183.000000,4.000000,86.000000,,,,0.000000,4.000000,4.000000,4.000000,4.000000,4.000000,100.000000,,,,,,,,,,,,,,,,,,,,,,,,,,,,,,,,,,,,,,,,,,,,,,,,,,,,,,,,,,,,,,,
1656264702.604585,112.000000,0.000000,4273.333496,4221.025879,4088.205078,4093.333252,4216.922852,450.000000,4.000000,86.000000,,,,0.000000,4.000000,4.000000,4.000000,4.000000,4.000000,100.000000,,,,,,,,,,,,,,,,,,,,,,,,,,,,,,,,,,,,,,,,,,,,,,,,,,,,,,,,,,,,,,,
1656264702.612400,113.000000,0.000000,4278.461426,4254.358887,4098.461426,4106.666504,4229.743652,450.000000,4.000000,86.000000,,,,0.000000,4.000000,4.000000,4.000000,4.000000,4.000000,100.000000,,,,,,,,,,,,,,,,,,,,,,,,,,,,,,,,,,,,,,,,,,,,,,,,,,,,,,,,,,,,,,,
1656264702.620214,114.000000,0.000000,4277.436035,4276.922852,4087.179443,4109.230957,4242.051270,450.000000,4.000000,86.000000,,,,0.000000,4.000000,4.000000,4.000000,4.000000,4.000000,100.000000,,,,,,,,,,,,,,,,,,,,,,,,,,,,,,,,,,,,,,,,,,,,,,,,,,,,,,,,,,,,,,,
1656264702.627929,115.000000,0.000000,4285.128418,4267.692383,4086.153809,4114.871582,4239.487305,16183.000000,4.000000,86.000000,,,,0.000000,4.000000,4.000000,4.000000,4.000000,4.000000,100.000000,,,,,,,,,,,,,,,,,,,,,,,,,,,,,,,,,,,,,,,,,,,,,,,,,,,,,,,,,,,,,,,
1656264702.635643,116.000000,0.000000,4288.205078,4280.512695,4087.179443,4118.461426,4244.615234,450.000000,4.000000,86.000000,,,,0.000000,4.000000,4.000000,4.000000,4.000000,4.000000,100.000000,,,,,,,,,,,,,,,,,,,,,,,,,,,,,,,,,,,,,,,,,,,,,,,,,,,,,,,,,,,,,,,
1656264702.643457,117.000000,0.000000,4271.282227,4274.358887,4077.435791,4089.743652,4241.025879,450.000000,4.000000,86.000000,,,,0.000000,4.000000,4.000000,4.000000,4.000000,4.000000,100.000000,,,,,,,,,,,,,,,,,,,,,,,,,,,,,,,,,,,,,,,,,,,,,,,,,,,,,,,,,,,,,,,
1656264702.651172,118.000000,0.000000,4295.897461,4253.846191,4102.051270,4093.846191,4238.461426,450.000000,4.000000,86.000000,,,,0.000000,4.000000,4.000000,4.000000,4.000000,4.000000,100.000000,,,,,,,,,,,,,,,,,,,,,,,,,,,,,,,,,,,,,,,,,,,,,,,,,,,,,,,,,,,,,,,
1656264702.658986,119.000000,0.000000,4313.846191,4248.717773,4115.384766,4108.205078,4238.461426,16183.000000,4.000000,86.000000,,,,0.000000,4.000000,4.000000,4.000000,4.000000,4.000000,100.000000,,,,,,,,,,,,,,,,,,,,,,,,,,,,,,,,,,,,,,,,,,,,,,,,,,,,,,,,,,,,,,,
1656264702.666801,120.000000,0.000000,4293.333496,4258.461426,4107.692383,4104.102539,4243.589844,450.000000,4.000000,86.000000,,,,0.000000,4.000000,4.000000,4.000000,4.000000,4.000000,100.000000,,,,,,,,,,,,,,,,,,,,,,,,,,,,,,,,,,,,,,,,,,,,,,,,,,,,,,,,,,,,,,,
1656264702.674515,121.000000,0.000000,4303.589844,4272.307617,4102.563965,4121.538574,4264.615234,450.000000,4.000000,86.000000,,,,0.000000,4.000000,4.000000,4.000000,4.000000,4.000000,100.000000,,,,,,,,,,,,,,,,,,,,,,,,,,,,,,,,,,,,,,,,,,,,,,,,,,,,,,,,,,,,,,,
1656264702.682230,122.000000,0.000000,4304.102539,4250.256348,4070.769287,4116.410156,4250.769043,450.000000,4.000000,86.000000,,,,0.000000,4.000000,4.000000,4.000000,4.000000,4.000000,100.000000,,,,,,,,,,,,,,,,,,,,,,,,,,,,,,,,,,,,,,,,,,,,,,,,,,,,,,,,,,,,,,,
1656264702.690044,123.000000,0.000000,4298.461426,4245.128418,4074.871826,4109.743652,4240.512695,16183.000000,4.000000,86.000000,,,,0.000000,4.000000,4.000000,4.000000,4.000000,4.000000,100.000000,,,,,,,,,,,,,,,,,,,,,,,,,,,,,,,,,,,,,,,,,,,,,,,,,,,,,,,,,,,,,,,
1656264702.697759,124.000000,0.000000,4294.358887,4251.282227,4089.743652,4109.743652,4245.641113,450.000000,4.000000,86.000000,,,,0.000000,4.000000,4.000000,4.000000,4.000000,4.000000,100.000000,,,,,,,,,,,,,,,,,,,,,,,,,,,,,,,,,,,,,,,,,,,,,,,,,,,,,,,,,,,,,,,
1656264702.705573,125.000000,0.000000,4258.461426,4248.205078,4075.384521,4091.281982,4231.794922,450.000000,4.000000,86.000000,,,,0.000000,4.000000,4.000000,4.000000,4.000000,4.000000,100.000000,,,,,,,,,,,,,,,,,,,,,,,,,,,,,,,,,,,,,,,,,,,,,,,,,,,,,,,,,,,,,,,
1656264702.713288,126.000000,0.000000,4263.077148,4264.102539,4089.743652,4104.102539,4241.538574,450.000000,4.000000,86.000000,,,,0.000000,4.000000,4.000000,4.000000,4.000000,4.000000,100.000000,0.968750,100.000000,4.000000,4.000000,4.000000,4.000000,4.000000,,,,,,,,,,,,,,,,,,,,,,,,,,,,,,,,2.018233,1.195813,1.044382,0.616410,1.033284,1.214051,1.160870,1.298366,0.907787,0.743433,5.234121,7.403407,1.301197,1.207145,0.628452,1.991635,2.177737,0.773142,0.960105,0.812734,2.304515,1.026450,1.435231,0.831100,0.652491
1656264702.721102,127.000000,0.000000,4278.461426,4238.461426,4097.436035,4104.102539,4233.846191,241.000000,4.000000,86.000000,,,,0.000000,4.000000,4.000000,4.000000,4.000000,4.000000,100.000000,,,,,,,,,,,,,,,,,,,,,,,,,,,,,,,,,,,,,,,,,,,,,,,,,,,,,,,,,,,,,,,
1656264702.728817,0.000000,0.000000,4281.025879,4226.153809,4091.281982,4086.666748,4226.666504,450.000000,4.000000,86.000000,,,,0.000000,4.000000,4.000000,4.000000,4.000000,4.000000,100.000000,,,,,,,,,,,,,,,,,,,,,,,,,,,,,,,,,,,,,,,,,,,,,,,,,,,,,,,,,,,,,,,
1656264702.736631,1.000000,0.000000,4292.820313,4257.948730,4090.769287,4106.666504,4249.743652,450.000000,4.000000,86.000000,,,,0.000000,4.000000,4.000000,4.000000,4.000000,4.000000,100.000000,,,,,,,,,,,,,,,,,,,,,,,,,,,,,,,,,,,,,,,,,,,,,,,,,,,,,,,,,,,,,,,
1656264702.744345,2.000000,0.000000,4274.871582,4249.743652,4085.641113,4113.333496,4234.358887,16239.000000,4.000000,86.000000,,,,0.000000,4.000000,4.000000,4.000000,4.000000,4.000000,100.000000,,,,,,,,,,,,,,,,,,,,,,,,,,,,,,,,,,,,,,,,,,,,,,,,,,,,,,,,,,,,,,,
1656264702.752160,3.000000,0.000000,4262.563965,4244.615234,4098.461426,4105.128418,4219.487305,450.000000,4.000000,86.000000,,,,0.000000,4.000000,4.000000,4.000000,4.000000,4.000000,100.000000,,,,,,,,,,,,,,,,,,,,,,,,,,,,,,,,,,,,,,,,,,,,,,,,,,,,,,,,,,,,,,,
1656264702.759874,4.000000,0.000000,4256.410156,4251.794922,4091.794922,4098.461426,4218.974121,16222.000000,4.000000,86.000000,,,,0.000000,4.000000,4.000000,4.000000,4.000000,4.000000,100.000000,,,,,,,,,,,,,,,,,,,,,,,,,,,,,,,,,,,,,,,,,,,,,,,,,,,,,,,,,,,,,,,
1656264702.767689,5.000000,0.000000,4258.974121,4245.128418,4085.128174,4098.974121,4206.153809,450.000000,4.000000,86.000000,,,,0.000000,4.000000,4.000000,4.000000,4.000000,4.000000,100.000000,,,,,,,,,,,,,,,,,,,,,,,,,,,,,,,,,,,,,,,,,,,,,,,,,,,,,,,,,,,,,,,
1656264702.775403,6.000000,0.000000,4272.820313,4243.589844,4080.000000,4109.230957,4205.641113,16189.000000,4.000000,86.000000,,,,0.000000,4.000000,4.000000,4.000000,4.000000,4.000000,100.000000,,,,,,,,,,,,,,,,,,,,,,,,,,,,,,,,,,,,,,,,,,,,,,,,,,,,,,,,,,,,,,,
1656264702.783218,7.000000,0.000000,4258.461426,4233.846191,4054.871826,4102.563965,4216.922852,450.000000,4.000000,86.000000,,,,0.000000,4.000000,4.000000,4.000000,4.000000,4.000000,100.000000,,,,,,,,,,,,,,,,,,,,,,,,,,,,,,,,,,,,,,,,,,,,,,,,,,,,,,,,,,,,,,,
1656264702.790932,8.000000,0.000000,4265.128418,4237.948730,4076.410156,4110.256348,4228.717773,450.000000,4.000000,86.000000,,,,0.000000,4.000000,4.000000,4.000000,4.000000,4.000000,100.000000,,,,,,,,,,,,,,,,,,,,,,,,,,,,,,,,,,,,,,,,,,,,,,,,,,,,,,,,,,,,,,,
1656264702.798647,9.000000,0.000000,4266.153809,4242.051270,4097.436035,4105.128418,4210.769043,16224.000000,4.000000,86.000000,,,,0.000000,4.000000,4.000000,4.000000,4.000000,4.000000,100.000000,,,,,,,,,,,,,,,,,,,,,,,,,,,,,,,,,,,,,,,,,,,,,,,,,,,,,,,,,,,,,,,
1656264702.806461,10.000000,0.000000,4260.512695,4238.974121,4082.564209,4099.487305,4207.179688,450.000000,4.000000,86.000000,,,,0.000000,4.000000,4.000000,4.000000,4.000000,4.000000,100.000000,,,,,,,,,,,,,,,,,,,,,,,,,,,,,,,,,,,,,,,,,,,,,,,,,,,,,,,,,,,,,,,
1656264702.814276,11.000000,0.000000,4276.922852,4248.717773,4091.281982,4123.077148,4233.846191,16205.000000,4.000000,86.000000,,,,0.000000,4.000000,4.000000,4.000000,4.000000,4.000000,100.000000,,,,,,,,,,,,,,,,,,,,,,,,,,,,,,,,,,,,,,,,,,,,,,,,,,,,,,,,,,,,,,,
1656264702.821990,12.000000,0.000000,4268.717773,4234.358887,4105.128418,4103.077148,4224.102539,450.000000,4.000000,86.000000,,,,0.000000,4.000000,4.000000,4.000000,4.000000,4.000000,100.000000,,,,,,,,,,,,,,,,,,,,,,,,,,,,,,,,,,,,,,,,,,,,,,,,,,,,,,,,,,,,,,,
1656264702.829705,13.000000,0.000000,4283.589844,4231.282227,4118.461426,4095.897461,4233.333496,450.000000,4.000000,86.000000,,,,0.000000,4.000000,4.000000,4.000000,4.000000,4.000000,100.000000,,,,,,,,,,,,,,,,,,,,,,,,,,,,,,,,,,,,,,,,,,,,,,,,,,,,,,,,,,,,,,,
1656264702.837519,14.000000,0.000000,4298.461426,4240.512695,4118.461426,4112.307617,4247.692383,450.000000,4.000000,86.000000,,,,0.000000,4.000000,4.000000,4.000000,4.000000,4.000000,100.000000,,,,,,,,,,,,,,,,,,,,,,,,,,,,,,,,,,,,,,,2.289670,1.299685,1.003241,0.622965,0.976379,1.295799,1.183826,1.269076,1.001399,0.875445,5.347398,8.418149,1.239838,1.107661,0.676985,1.988737,2.019966,0.877936,0.825742,0.976004,2.222273,1.196749,1.482300,0.754200,0.688757
1656264702.845233,15.000000,0.000000,4262.051270,4233.846191,4118.461426,4087.692383,4230.769043,16205.000000,4.000000,86.000000,,,,0.000000,4.000000,4.000000,4.000000,4.000000,4.000000,100.000000,,,,,,,,,,,,,,,,,,,,,,,,,,,,,,,,,,,,,,,,,,,,,,,,,,,,,,,,,,,,,,,
1656264702.853048,16.000000,0.000000,4252.820313,4240.512695,4125.128418,4087.179443,4232.820313,0.000000,4.000000,86.000000,,,,0.000000,4.000000,4.000000,4.000000,4.000000,4.000000,100.000000,,,,,,,,,,,,,,,,,,,,,,,,,,,,,,,,,,,,,,,,,,,,,,,,,,,,,,,,,,,,,,,
1656264702.860762,17.000000,0.000000,4271.282227,4231.794922,4110.256348,4100.512695,4223.589844,0.000000,4.000000,86.000000,,,,0.000000,4.000000,4.000000,4.000000,4.000000,4.000000,100.000000,,,,,,,,,,,,,,,,,,,,,,,,,,,,,,,,,,,,,,,,,,,,,,,,,,,,,,,,,,,,,,,
1656264702.868577,18.000000,0.000000,4272.307617,4233.333496,4110.769043,4090.256348,4224.615234,0.000000,4.000000,86.000000,,,,0.000000,4.000000,4.000000,4.000000,4.000000,4.000000,100.000000,,,,,,,,,,,,,,,,,,,,,,,,,,,,,,,,,,,,,,,,,,,,,,,,,,,,,,,,,,,,,,,
1656264702.876291,19.000000,0.000000,4250.769043,4262.051270,4109.743652,4092.307617,4249.230957,0.000000,4.000000,86.000000,,,,0.000000,4.000000,4.000000,4.000000,4.000000,4.000000,100.000000,,,,,,,,,,,,,,,,,,,,,,,,,,,,,,,,,,,,,,,,,,,,,,,,,,,,,,,,,,,,,,,
1656264702.884106,20.000000,0.000000,4249.743652,4265.128418,4109.230957,4112.820313,4241.025879,0.000000,4.000000,86.000000,,,,0.000000,4.000000,4.000000,4.000000,4.000000,4.000000,100.000000,,,,,,,,,,,,,,,,,,,,,,,,,,,,,,,,,,,,,,,,,,,,,,,,,,,,,,,,,,,,,,,
1656264702.891920,21.000000,0.000000,4267.179688,4253.333496,4130.256348,4117.436035,4221.538574,0.000000,4.000000,86.000000,,,,0.000000,4.000000,4.000000,4.000000,4.000000,4.000000,100.000000,,,,,,,,,,,,,,,,,,,,,,,,,,,,,,,,,,,,,,,,,,,,,,,,,,,,,,,,,,,,,,,
1656264702.899635,22.000000,0.000000,4254.358887,4250.256348,4124.615234,4106.153809,4223.077148,0.000000,4.000000,86.000000,,,,0.000000,4.000000,4.000000,4.000000,4.000000,4.000000,100.000000,,,,,,,,,,,,,,,,,,,,,,,,,,,,,,,,,,,,,,,,,,,,,,,,,,,,,,,,,,,,,,,
1656264702.907349,23.000000,0.000000,4247.692383,4253.333496,4110.769043,4111.794922,4225.128418,0.000000,4.000000,86.000000,,,,0.000000,4.000000,4.000000,4.000000,4.000000,4.000000,100.000000,,,,,,,,,,,,,,,,,,,,,,,,,,,,,,,,,,,,,,,,,,,,,,,,,,,,,,,,,,,,,,,
1656264702.915164,24.000000,0.000000,4251.282227,4243.077148,4129.743652,4101.025879,4205.128418,0.000000,4.000000,86.000000,,,,0.000000,4.000000,4.000000,4.000000,4.000000,4.000000,100.000000,,,,,,,,,,,,,,,,,,,,,,,,,,,,,,,,,,,,,,,,,,,,,,,,,,,,,,,,,,,,,,,
1656264702.922978,25.000000,0.000000,4252.307617,4249.743652,4148.205078,4092.307617,4220.000000,0.000000,4.000000,86.000000,,,,0.000000,4.000000,4.000000,4.000000,4.000000,4.000000,100.000000,,,,,,,,,,,,,,,,,,,,,,,,,,,,,,,,,,,,,,,,,,,,,,,,,,,,,,,,,,,,,,,
1656264702.930692,26.000000,0.000000,4265.128418,4263.077148,4125.641113,4115.897461,4252.820313,0.000000,4.000000,86.000000,,,,0.000000,4.000000,4.000000,4.000000,4.000000,4.000000,100.000000,,,,,,,,,,,,,,,,,,,,,,,,,,,,,,,,,,,,,,,,,,,,,,,,,,,,,,,,,,,,,,,
1656264702.938407,27.000000,0.000000,4272.307617,4242.051270,4115.897461,4114.358887,4233.846191,0.000000,4.000000,86.000000,,,,0.000000,4.000000,4.000000,4.000000,4.000000,4.000000,100.000000,,,,,,,,,,,,,,,,,,,,,,,,,,,,,,,,,,,,,,,,,,,,,,,,,,,,,,,,,,,,,,,
1656264702.946221,28.000000,0.000000,4261.538574,4238.974121,4128.717773,4103.589844,4220.000000,0.000000,4.000000,86.000000,,,,0.000000,4.000000,4.000000,4.000000,4.000000,4.000000,100.000000,,,,,,,,,,,,,,,,,,,,,,,,,,,,,,,,,,,,,,,,,,,,,,,,,,,,,,,,,,,,,,,
1656264702.953936,29.000000,0.000000,4235.897461,4261.025879,4105.641113,4095.897461,4226.153809,0.000000,4.000000,86.000000,,,,0.000000,4.000000,4.000000,4.000000,4.000000,4.000000,100.000000,,,,,,,,,,,,,,,,,,,,,,,,,,,,,,,,,,,,,,,,,,,,,,,,,,,,,,,,,,,,,,,
1656264702.961650,30.000000,0.000000,4241.025879,4271.282227,4107.692383,4098.974121,4224.615234,0.000000,4.000000,86.000000,,,,0.000000,4.000000,4.000000,4.000000,4.000000,4.000000,100.000000,,,,,,,,,,,,,,,,,,,,,,,,,,,,,,,,,,,,,,,2.586336,1.422606,0.935509,0.644113,0.967149,1.523836,1.210033,1.299543,1.161333,1.005618,5.263546,8.534439,1.176494,1.045502,0.750090,2.130286,1.802880,0.988103,0.765944,1.104908,2.267185,1.424998,1.411890,0.762083,0.703841
1656264702.969465,31.000000,0.000000,4256.922852,4248.205078,4128.205078,4094.871826,4211.282227,0.000000,4.000000,86.000000,,,,0.000000,4.000000,4.000000,4.000000,4.000000,4.000000,100.000000,,,,,,,,,,,,,,,,,,,,,,,,,,,,,,,,,,,,,,,,,,,,,,,,,,,,,,,,,,,,,,,
1656264702.977179,32.000000,0.000000,4245.641113,4229.743652,4116.922852,4074.871826,4195.897461,0.000000,4.000000,86.000000,,,,0.000000,4.000000,4.000000,4.000000,4.000000,4.000000,100.000000,,,,,,,,,,,,,,,,,,,,,,,,,,,,,,,,,,,,,,,,,,,,,,,,,,,,,,,,,,,,,,,
1656264702.984994,33.000000,0.000000,4251.794922,4260.512695,4113.333496,4100.512695,4211.282227,0.000000,4.000000,86.000000,,,,0.000000,4.000000,4.000000,4.000000,4.000000,4.000000,100.000000,,,,,,,,,,,,,,,,,,,,,,,,,,,,,,,,,,,,,,,,,,,,,,,,,,,,,,,,,,,,,,,
1656264702.992708,34.000000,0.000000,4253.333496,4262.563965,4089.230713,4119.487305,4215.897461,0.000000,4.000000,86.000000,,,,0.000000,4.000000,4.000000,4.000000,4.000000,4.000000,100.000000,,,,,,,,,,,,,,,,,,,,,,,,,,,,,,,,,,,,,,,,,,,,,,,,,,,,,,,,,,,,,,,
1656264703.000523,35.000000,0.000000,4250.769043,4237.948730,4074.358887,4107.692383,4217.948730,0.000000,4.000000,86.000000,,,,0.000000,4.000000,4.000000,4.000000,4.000000,4.000000,100.000000,,,,,,,,,,,,,,,,,,,,,,,,,,,,,,,,,,,,,,,,,,,,,,,,,,,,,,,,,,,,,,,
1656264703.008237,36.000000,0.000000,4263.077148,4234.358887,4096.922852,4100.000000,4219.487305,0.000000,4.000000,86.000000,,,,0.000000,4.000000,4.000000,4.000000,4.000000,4.000000,100.000000,,,,,,,,,,,,,,,,,,,,,,,,,,,,,,,,,,,,,,,,,,,,,,,,,,,,,,,,,,,,,,,
1656264703.016151,37.000000,0.000000,4260.000000,4224.102539,4102.051270,4083.076904,4193.333496,0.000000,4.000000,86.000000,,,,0.000000,4.000000,4.000000,4.000000,4.000000,4.000000,100.000000,,,,,,,,,,,,,,,,,,,,,,,,,,,,,,,,,,,,,,,,,,,,,,,,,,,,,,,,,,,,,,,
1656264703.023966,38.000000,0.000000,4261.538574,4230.256348,4102.563965,4082.564209,4198.461426,0.000000,4.000000,86.000000,,,,0.000000,4.000000,4.000000,4.000000,4.000000,4.000000,100.000000,,,,,,,,,,,,,,,,,,,,,,,,,,,,,,,,,,,,,,,,,,,,,,,,,,,,,,,,,,,,,,,
1656264703.031780,39.000000,0.000000,4253.333496,4241.538574,4102.051270,4089.743652,4222.563965,0.000000,4.000000,86.000000,,,,0.000000,4.000000,4.000000,4.000000,4.000000,4.000000,100.000000,,,,,,,,,,,,,,,,,,,,,,,,,,,,,,,,,,,,,,,,,,,,,,,,,,,,,,,,,,,,,,,
1656264703.039595,40.000000,0.000000,4245.641113,4240.000000,4108.205078,4089.230713,4223.589844,0.000000,4.000000,86.000000,,,,0.000000,4.000000,4.000000,4.000000,4.000000,4.000000,100.000000,,,,,,,,,,,,,,,,,,,,,,,,,,,,,,,,,,,,,,,,,,,,,,,,,,,,,,,,,,,,,,,
1656264703.047309,41.000000,0.000000,4271.794922,4240.512695,4114.871582,4104.102539,4218.461426,0.000000,4.000000,86.000000,,,,0.000000,4.000000,4.000000,4.000000,4.000000,4.000000,100.000000,,,,,,,,,,,,,,,,,,,,,,,,,,,,,,,,,,,,,,,,,,,,,,,,,,,,,,,,,,,,,,,
1656264703.055124,42.000000,0.000000,4269.230957,4231.282227,4097.436035,4109.230957,4210.256348,0.000000,4.000000,86.000000,,,,0.000000,4.000000,4.000000,4.000000,4.000000,4.000000,100.000000,,,,,,,,,,,,,,,,,,,,,,,,,,,,,,,,,,,,,,,,,,,,,,,,,,,,,,,,,,,,,,,
1656264703.062938,43.000000,0.000000,4250.769043,4233.846191,4093.333252,4097.436035,4212.820313,0.000000,4.000000,86.000000,,,,0.000000,4.000000,4.000000,4.000000,4.000000,4.000000,100.000000,,,,,,,,,,,,,,,,,,,,,,,,,,,,,,,,,,,,,,,,,,,,,,,,,,,,,,,,,,,,,,,
1656264703.070653,44.000000,0.000000,4264.102539,4231.794922,4094.871826,4085.128174,4212.820313,0.000000,4.000000,86.000000,,,,0.000000,4.000000,4.000000,4.000000,4.000000,4.000000,100.000000,,,,,,,,,,,,,,,,,,,,,,,,,,,,,,,,,,,,,,,,,,,,,,,,,,,,,,,,,,,,,,,
1656264703.078367,45.000000,0.000000,4271.794922,4213.846191,4086.153809,4076.923096,4210.769043,0.000000,4.000000,86.000000,,,,0.000000,4.000000,4.000000,4.000000,4.000000,4.000000,100.000000,,,,,,,,,,,,,,,,,,,,,,,,,,,,,,,,,,,,,,,,,,,,,,,,,,,,,,,,,,,,,,,
1656264703.086181,46.000000,0.000000,4275.897461,4225.641113,4097.948730,4096.922852,4237.948730,0.000000,4.000000,86.000000,,,,0.000000,4.000000,4.000000,4.000000,4.000000,4.000000,100.000000,,,,,,,,,,,,,,,,,,,,,,,,,,,,,,,,,,,,,,,2.886119,1.551563,0.875142,0.662241,0.994685,1.807791,1.245195,1.421569,1.344193,1.097415,4.929336,7.753773,1.076072,1.041652,0.834458,2.304287,1.603536,1.093458,0.758759,1.168244,2.480129,1.653757,1.230637,0.826071,0.698646
1656264703.093896,47.000000,0.000000,4270.256348,4231.282227,4103.589844,4112.820313,4247.692383,0.000000,4.000000,86.000000,,,,0.000000,4.000000,4.000000,4.000000,4.000000,4.000000,100.000000,,,,,,,,,,,,,,,,,,,,,,,,,,,,,,,,,,,,,,,,,,,,,,,,,,,,,,,,,,,,,,,
1656264703.101710,48.000000,0.000000,4249.743652,4220.000000,4095.897461,4106.666504,4219.487305,0.000000,4.000000,86.000000,,,,0.000000,4.000000,4.000000,4.000000,4.000000,4.000000,100.000000,,,,,,,,,,,,,,,,,,,,,,,,,,,,,,,,,,,,,,,,,,,,,,,,,,,,,,,,,,,,,,,
1656264703.109425,49.000000,0.000000,4247.692383,4226.666504,4108.205078,4097.948730,4204.615234,0.000000,4.000000,86.000000,,,,0.000000,4.000000,4.000000,4.000000,4.000000,4.000000,100.000000,,,,,,,,,,,,,,,,,,,,,,,,,,,,,,,,,,,,,,,,,,,,,,,,,,,,,,,,,,,,,,,
1656264703.117239,50.000000,0.000000,4246.666504,4218.461426,4116.410156,4072.820557,4194.358887,0.000000,4.000000,86.000000,,,,0.000000,4.000000,4.000000,4.000000,4.000000,4.000000,100.000000,,,,,,,,,,,,,,,,,,,,,,,,,,,,,,,,,,,,,,,,,,,,,,,,,,,,,,,,,,,,,,,
1656264703.124954,51.000000,0.000000,4240.512695,4221.025879,4111.794922,4067.692383,4196.410156,0.000000,4.000000,86.000000,,,,0.000000,4.000000,4.000000,4.000000,4.000000,4.000000,100.000000,,,,,,,,,,,,,,,,,,,,,,,,,,,,,,,,,,,,,,,,,,,,,,,,,,,,,,,,,,,,,,,
1656264703.132868,52.000000,0.000000,4244.102539,4247.179688,4101.538574,4094.358887,4218.974121,0.000000,4.000000,86.000000,,,,0.000000,4.000000,4.000000,4.000000,4.000000,4.000000,100.000000,,,,,,,,,,,,,,,,,,,,,,,,,,,,,,,,,,,,,,,,,,,,,,,,,,,,,,,,,,,,,,,
1656264703.140683,53.000000,0.000000,4260.512695,4243.589844,4102.563965,4094.871826,4222.051270,0.000000,4.000000,86.000000,,,,0.000000,4.000000,4.000000,4.000000,4.000000,4.000000,100.000000,,,,,,,,,,,,,,,,,,,,,,,,,,,,,,,,,,,,,,,,,,,,,,,,,,,,,,,,,,,,,,,
1656264703.148497,54.000000,0.000000,4269.743652,4245.128418,4129.230957,4086.666748,4214.871582,0.000000,4.000000,86.000000,,,,0.000000,4.000000,4.000000,4.000000,4.000000,4.000000,100.000000,,,,,,,,,,,,,,,,,,,,,,,,,,,,,,,,,,,,,,,,,,,,,,,,,,,,,,,,,,,,,,,
1656264703.156211,55.000000,0.000000,4244.102539,4251.282227,4111.794922,4084.102539,4207.179688,0.000000,4.000000,86.000000,,,,0.000000,4.000000,4.000000,4.000000,4.000000,4.000000,100.000000,,,,,,,,,,,,,,,,,,,,,,,,,,,,,,,,,,,,,,,,,,,,,,,,,,,,,,,,,,,,,,,
1656264703.164026,56.000000,0.000000,4248.205078,4234.871582,4068.205078,4076.923096,4214.871582,0.000000,4.000000,86.000000,,,,0.000000,4.000000,4.000000,4.000000,4.000000,4.000000,100.000000,,,,,,,,,,,,,,,,,,,,,,,,,,,,,,,,,,,,,,,,,,,,,,,,,,,,,,,,,,,,,,,
1656264703.171740,57.000000,0.000000,4281.025879,4215.384766,4075.384521,4076.410156,4216.410156,0.000000,4.000000,86.000000,,,,0.000000,4.000000,4.000000,4.000000,4.000000,4.000000,100.000000,,,,,,,,,,,,,,,,,,,,,,,,,,,,,,,,,,,,,,,,,,,,,,,,,,,,,,,,,,,,,,,
1656264703.179655,58.000000,0.000000,4263.589844,4209.743652,4099.487305,4082.564209,4186.153809,0.000000,4.000000,86.000000,,,,0.000000,4.000000,4.000000,4.000000,4.000000,4.000000,100.000000,,,,,,,,,,,,,,,,,,,,,,,,,,,,,,,,,,,,,,,,,,,,,,,,,,,,,,,,,,,,,,,
1656264703.187469,59.000000,0.000000,4244.615234,4242.051270,4096.922852,4100.000000,4200.512695,0.000000,4.000000,86.000000,,,,0.000000,4.000000,4.000000,4.000000,4.000000,4.000000,100.000000,,,,,,,,,,,,,,,,,,,,,,,,,,,,,,,,,,,,,,,,,,,,,,,,,,,,,,,,,,,,,,,
1656264703.195383,60.000000,0.000000,4257.948730,4263.077148,4076.410156,4114.871582,4237.436035,0.000000,4.000000,86.000000,,,,0.000000,4.000000,4.000000,4.000000,4.000000,4.000000,100.000000,,,,,,,,,,,,,,,,,,,,,,,,,,,,,,,,,,,,,,,,,,,,,,,,,,,,,,,,,,,,,,,
1656264703.203198,61.000000,0.000000,4269.743652,4256.410156,4089.230713,4121.025879,4229.230957,0.000000,4.000000,86.000000,,,,0.000000,4.000000,4.000000,4.000000,4.000000,4.000000,100.000000,,,,,,,,,,,,,,,,,,,,,,,,,,,,,,,,,,,,,,,,,,,,,,,,,,,,,,,,,,,,,,,
1656264703.211112,62.000000,0.000000,4272.307617,4253.333496,4105.128418,4116.922852,4209.743652,0.000000,4.000000,86.000000,,,,0.000000,4.000000,4.000000,4.000000,4.000000,4.000000,100.000000,0.968750,100.000000,4.000000,4.000000,4.000000,4.000000,4.000000,,,,,,,,,,,,,,,,,,,,,,,,,,,,,,,,3.166140,1.681480,0.853068,0.678470,1.032641,2.027290,1.277947,1.617629,1.505133,1.128907,4.423797,6.397851,0.962915,1.109596,0.910724,2.398619,1.471652,1.181683,0.774735,1.154586,2.859325,1.836930,0.993866,0.911432,0.682447
1656264703.218926,63.000000,0.000000,4266.666504,4239.487305,4088.718018,4100.512695,4214.871582,0.000000,4.000000,86.000000,,,,0.000000,4.000000,4.000000,4.000000,4.000000,4.000000,100.000000,,,,,,,,,,,,,,,,,,,,,,,,,,,,,,,,,,,,,,,,,,,,,,,,,,,,,,,,,,,,,,,
1656264703.226641,64.000000,0.000000,4274.871582,4240.000000,4101.538574,4102.563965,4232.307617,450.000000,4.000000,86.000000,,,,0.000000,4.000000,4.000000,4.000000,4.000000,4.000000,100.000000,,,,,,,,,,,,,,,,,,,,,,,,,,,,,,,,,,,,,,,,,,,,,,,,,,,,,,,,,,,,,,,
