title:david_g_Right, start timestamp:1656265903.317081, stop timestamp:1656265908.329445, headset type:INSIGHT, headset serial:A2D201AE, headset firmware:932, channels:84, sampling rate:eeg_128;pm_0.1;pow_8, samples:639       , version:2.1, 
Timestamp,EEG.Counter,EEG.Interpolated,EEG.AF3,EEG.T7,EEG.Pz,EEG.T8,EEG.AF4,EEG.RawCq,EEG.Battery,EEG.BatteryPercent,MarkerIndex,MarkerType,MarkerValueInt,EEG.MarkerHardware,CQ.AF3,CQ.T7,CQ.Pz,CQ.T8,CQ.AF4,CQ.Overall,EQ.SampleRateQuality,EQ.OVERALL,EQ.AF3,EQ.T7,EQ.Pz,EQ.T8,EQ.AF4,PM.Engagement.IsActive,PM.Engagement.Scaled,PM.Engagement.Raw,PM.Engagement.Min,PM.Engagement.Max,PM.Excitement.IsActive,PM.Excitement.Scaled,PM.Excitement.Raw,PM.Excitement.Min,PM.Excitement.Max,PM.LongTermExcitement,PM.Stress.IsActive,PM.Stress.Scaled,PM.Stress.Raw,PM.Stress.Min,PM.Stress.Max,PM.Relaxation.IsActive,PM.Relaxation.Scaled,PM.Relaxation.Raw,PM.Relaxation.Min,PM.Relaxation.Max,PM.Interest.IsActive,PM.Interest.Scaled,PM.Interest.Raw,PM.Interest.Min,PM.Interest.Max,PM.Focus.IsActive,PM.Focus.Scaled,PM.Focus.Raw,PM.Focus.Min,PM.Focus.Max,POW.AF3.Theta,POW.AF3.Alpha,POW.AF3.BetaL,POW.AF3.BetaH,POW.AF3.Gamma,POW.T7.Theta,POW.T7.Alpha,POW.T7.BetaL,POW.T7.BetaH,POW.T7.Gamma,POW.Pz.Theta,POW.Pz.Alpha,POW.Pz.BetaL,POW.Pz.BetaH,POW.Pz.Gamma,POW.T8.Theta,POW.T8.Alpha,POW.T8.BetaL,POW.T8.BetaH,POW.T8.Gamma,POW.AF4.Theta,POW.AF4.Alpha,POW.AF4.BetaL,POW.AF4.BetaH,POW.AF4.Gamma
1656265903.317081,82.000000,0.000000,4362.563965,4350.769043,4145.641113,4144.615234,4309.230957,450.000000,4.000000,95.000000,,,,0.000000,4.000000,4.000000,4.000000,4.000000,4.000000,100.000000,,,,,,,,,,,,,,,,,,,,,,,,,,,,,,,,,,,,,,,,,,,,,,,,,,,,,,,,,,,,,,,
1656265903.324995,83.000000,0.000000,4372.307617,4358.974121,4161.538574,4158.974121,4325.128418,16229.000000,4.000000,95.000000,,,,0.000000,4.000000,4.000000,4.000000,4.000000,4.000000,100.000000,,,,,,,,,,,,,,,,,,,,,,,,,,,,,,,,,,,,,,,,,,,,,,,,,,,,,,,,,,,,,,,
1656265903.332809,84.000000,0.000000,4376.410156,4372.820313,4174.358887,4168.205078,4341.025879,450.000000,4.000000,95.000000,,,,0.000000,4.000000,4.000000,4.000000,4.000000,4.000000,100.000000,,,,,,,,,,,,,,,,,,,,,,,,,,,,,,,,,,,,,,,,,,,,,,,,,,,,,,,,,,,,,,,
1656265903.340724,85.000000,0.000000,4379.487305,4360.000000,4201.538574,4161.025879,4322.563965,450.000000,4.000000,95.000000,,,,0.000000,4.000000,4.000000,4.000000,4.000000,4.000000,100.000000,,,,,,,,,,,,,,,,,,,,,,,,,,,,,,,,,,,,,,,,,,,,,,,,,,,,,,,,,,,,,,,
1656265903.348538,86.000000,0.000000,4393.846191,4326.666504,4222.563965,4149.743652,4289.230957,450.000000,4.000000,95.000000,,,,0.000000,4.000000,4.000000,4.000000,4.000000,4.000000,100.000000,,,,,,,,,,,,,,,,,,,,,,,,,,,,,,,,,,,,,,,,,,,,,,,,,,,,,,,,,,,,,,,
1656265903.356453,87.000000,0.000000,4404.102539,4340.512695,4214.871582,4165.641113,4312.307617,16229.000000,4.000000,95.000000,,,,0.000000,4.000000,4.000000,4.000000,4.000000,4.000000,100.000000,,,,,,,,,,,,,,,,,,,,,,,,,,,,,,,,,,,,,,,,,,,,,,,,,,,,,,,,,,,,,,,
1656265903.364267,88.000000,0.000000,4385.641113,4375.384766,4203.589844,4173.846191,4334.358887,450.000000,4.000000,95.000000,,,,0.000000,4.000000,4.000000,4.000000,4.000000,4.000000,100.000000,,,,,,,,,,,,,,,,,,,,,,,,,,,,,,,,,,,,,,,,,,,,,,,,,,,,,,,,,,,,,,,
1656265903.372181,89.000000,0.000000,4378.974121,4375.384766,4205.641113,4162.051270,4318.461426,450.000000,4.000000,95.000000,,,,0.000000,4.000000,4.000000,4.000000,4.000000,4.000000,100.000000,,,,,,,,,,,,,,,,,,,,,,,,,,,,,,,,,,,,,,,,,,,,,,,,,,,,,,,,,,,,,,,
1656265903.380096,90.000000,0.000000,4404.615234,4359.487305,4197.436035,4173.333496,4340.512695,450.000000,4.000000,95.000000,,,,0.000000,4.000000,4.000000,4.000000,4.000000,4.000000,100.000000,,,,,,,,,,,,,,,,,,,,,,,,,,,,,,,,,,,,,,,,,,,,,,,,,,,,,,,,,,,,,,,
1656265903.387910,91.000000,0.000000,4400.000000,4348.205078,4177.948730,4192.820313,4364.102539,16229.000000,4.000000,95.000000,,,,0.000000,4.000000,4.000000,4.000000,4.000000,4.000000,100.000000,,,,,,,,,,,,,,,,,,,,,,,,,,,,,,,,,,,,,,,,,,,,,,,,,,,,,,,,,,,,,,,
1656265903.395824,92.000000,0.000000,4383.077148,4352.307617,4179.487305,4186.666504,4337.436035,450.000000,4.000000,95.000000,,,,0.000000,4.000000,4.000000,4.000000,4.000000,4.000000,100.000000,,,,,,,,,,,,,,,,,,,,,,,,,,,,,,,,,,,,,,,,,,,,,,,,,,,,,,,,,,,,,,,
1656265903.403639,93.000000,0.000000,4389.230957,4362.051270,4173.846191,4166.666504,4323.589844,450.000000,4.000000,95.000000,,,,0.000000,4.000000,4.000000,4.000000,4.000000,4.000000,100.000000,,,,,,,,,,,,,,,,,,,,,,,,,,,,,,,,,,,,,,,,,,,,,,,,,,,,,,,,,,,,,,,
1656265903.411553,94.000000,0.000000,4373.333496,4373.333496,4145.641113,4158.974121,4329.743652,450.000000,4.000000,95.000000,,,,0.000000,4.000000,4.000000,4.000000,4.000000,4.000000,100.000000,,,,,,,,,,,,,,,,,,,,,,,,,,,,,,,,,,,,,,,,,,,,,,,,,,,,,,,,,,,,,,,
1656265903.419367,95.000000,0.000000,4368.205078,4353.333496,4158.461426,4163.077148,4310.769043,16229.000000,4.000000,95.000000,,,,0.000000,4.000000,4.000000,4.000000,4.000000,4.000000,100.000000,,,,,,,,,,,,,,,,,,,,,,,,,,,,,,,,,,,,,,,,,,,,,,,,,,,,,,,,,,,,,,,
1656265903.427282,96.000000,0.000000,4394.358887,4313.846191,4190.769043,4169.230957,4296.922852,450.000000,4.000000,95.000000,,,,0.000000,4.000000,4.000000,4.000000,4.000000,4.000000,100.000000,,,,,,,,,,,,,,,,,,,,,,,,,,,,,,,,,,,,,,,,,,,,,,,,,,,,,,,,,,,,,,,
1656265903.435096,97.000000,0.000000,4389.743652,4332.307617,4185.641113,4180.000000,4310.256348,450.000000,4.000000,95.000000,,,,0.000000,4.000000,4.000000,4.000000,4.000000,4.000000,100.000000,,,,,,,,,,,,,,,,,,,,,,,,,,,,,,,,,,,,,,,5.464534,3.620599,1.784571,1.062820,1.370489,2.401384,1.433519,1.623648,1.723595,2.388166,4.275739,5.536453,3.163408,1.389052,1.378217,4.116328,4.635686,3.545229,0.982857,0.895393,7.088512,4.698019,3.953104,1.376874,1.384494
1656265903.443010,98.000000,0.000000,4375.384766,4356.410156,4184.615234,4177.436035,4313.333496,450.000000,4.000000,95.000000,,,,0.000000,4.000000,4.000000,4.000000,4.000000,4.000000,100.000000,,,,,,,,,,,,,,,,,,,,,,,,,,,,,,,,,,,,,,,,,,,,,,,,,,,,,,,,,,,,,,,
1656265903.450825,99.000000,0.000000,4392.307617,4336.922852,4209.743652,4166.153809,4306.666504,16229.000000,4.000000,95.000000,,,,0.000000,4.000000,4.000000,4.000000,4.000000,4.000000,100.000000,,,,,,,,,,,,,,,,,,,,,,,,,,,,,,,,,,,,,,,,,,,,,,,,,,,,,,,,,,,,,,,
1656265903.458739,100.000000,0.000000,4403.589844,4343.077148,4203.077148,4186.666504,4327.692383,450.000000,4.000000,95.000000,,,,0.000000,4.000000,4.000000,4.000000,4.000000,4.000000,100.000000,,,,,,,,,,,,,,,,,,,,,,,,,,,,,,,,,,,,,,,,,,,,,,,,,,,,,,,,,,,,,,,
1656265903.466553,101.000000,0.000000,4386.153809,4370.256348,4169.743652,4200.512695,4346.153809,450.000000,4.000000,95.000000,,,,0.000000,4.000000,4.000000,4.000000,4.000000,4.000000,100.000000,,,,,,,,,,,,,,,,,,,,,,,,,,,,,,,,,,,,,,,,,,,,,,,,,,,,,,,,,,,,,,,
1656265903.474468,102.000000,0.000000,4377.436035,4377.948730,4175.897461,4184.615234,4330.769043,450.000000,4.000000,95.000000,,,,0.000000,4.000000,4.000000,4.000000,4.000000,4.000000,100.000000,,,,,,,,,,,,,,,,,,,,,,,,,,,,,,,,,,,,,,,,,,,,,,,,,,,,,,,,,,,,,,,
1656265903.482282,103.000000,0.000000,4386.666504,4373.333496,4200.000000,4185.128418,4323.077148,16229.000000,4.000000,95.000000,,,,0.000000,4.000000,4.000000,4.000000,4.000000,4.000000,100.000000,,,,,,,,,,,,,,,,,,,,,,,,,,,,,,,,,,,,,,,,,,,,,,,,,,,,,,,,,,,,,,,
1656265903.490197,104.000000,0.000000,4390.769043,4357.436035,4192.307617,4197.436035,4334.871582,450.000000,4.000000,95.000000,,,,0.000000,4.000000,4.000000,4.000000,4.000000,4.000000,100.000000,,,,,,,,,,,,,,,,,,,,,,,,,,,,,,,,,,,,,,,,,,,,,,,,,,,,,,,,,,,,,,,
1656265903.498011,105.000000,0.000000,4382.563965,4366.153809,4179.487305,4195.384766,4333.333496,450.000000,4.000000,95.000000,,,,0.000000,4.000000,4.000000,4.000000,4.000000,4.000000,100.000000,,,,,,,,,,,,,,,,,,,,,,,,,,,,,,,,,,,,,,,,,,,,,,,,,,,,,,,,,,,,,,,
1656265903.505925,106.000000,0.000000,4355.384766,4395.384766,4180.000000,4173.846191,4304.102539,450.000000,4.000000,95.000000,,,,0.000000,4.000000,4.000000,4.000000,4.000000,4.000000,100.000000,,,,,,,,,,,,,,,,,,,,,,,,,,,,,,,,,,,,,,,,,,,,,,,,,,,,,,,,,,,,,,,
1656265903.513740,107.000000,0.000000,4338.461426,4373.333496,4181.538574,4146.666504,4284.615234,16229.000000,4.000000,95.000000,,,,0.000000,4.000000,4.000000,4.000000,4.000000,4.000000,100.000000,,,,,,,,,,,,,,,,,,,,,,,,,,,,,,,,,,,,,,,,,,,,,,,,,,,,,,,,,,,,,,,
1656265903.521654,108.000000,0.000000,4352.820313,4338.974121,4180.000000,4157.948730,4294.358887,450.000000,4.000000,95.000000,,,,0.000000,4.000000,4.000000,4.000000,4.000000,4.000000,100.000000,,,,,,,,,,,,,,,,,,,,,,,,,,,,,,,,,,,,,,,,,,,,,,,,,,,,,,,,,,,,,,,
1656265903.529468,109.000000,0.000000,4369.743652,4338.461426,4183.589844,4188.717773,4296.410156,450.000000,4.000000,95.000000,,,,0.000000,4.000000,4.000000,4.000000,4.000000,4.000000,100.000000,,,,,,,,,,,,,,,,,,,,,,,,,,,,,,,,,,,,,,,,,,,,,,,,,,,,,,,,,,,,,,,
1656265903.537383,110.000000,0.000000,4378.461426,4350.256348,4199.487305,4189.230957,4302.563965,450.000000,4.000000,95.000000,,,,0.000000,4.000000,4.000000,4.000000,4.000000,4.000000,100.000000,,,,,,,,,,,,,,,,,,,,,,,,,,,,,,,,,,,,,,,,,,,,,,,,,,,,,,,,,,,,,,,
1656265903.545297,111.000000,0.000000,4374.358887,4360.512695,4208.717773,4171.794922,4323.077148,16229.000000,4.000000,95.000000,,,,0.000000,4.000000,4.000000,4.000000,4.000000,4.000000,100.000000,,,,,,,,,,,,,,,,,,,,,,,,,,,,,,,,,,,,,,,,,,,,,,,,,,,,,,,,,,,,,,,
1656265903.553111,112.000000,0.000000,4378.974121,4355.384766,4200.000000,4175.897461,4336.410156,450.000000,4.000000,95.000000,,,,0.000000,4.000000,4.000000,4.000000,4.000000,4.000000,100.000000,,,,,,,,,,,,,,,,,,,,,,,,,,,,,,,,,,,,,,,,,,,,,,,,,,,,,,,,,,,,,,,
1656265903.560926,113.000000,0.000000,4390.769043,4354.358887,4200.000000,4180.000000,4335.897461,450.000000,4.000000,95.000000,,,,0.000000,4.000000,4.000000,4.000000,4.000000,4.000000,100.000000,,,,,,,,,,,,,,,,,,,,,,,,,,,,,,,,,,,,,,,5.231103,3.346784,1.998211,0.978062,1.340579,2.575129,1.262053,1.655240,1.790457,2.606177,4.698481,6.896678,3.184387,1.547904,1.432268,3.985343,5.258236,3.571343,1.051857,0.929424,6.667260,5.438076,4.116631,1.596290,1.454790
1656265903.568840,114.000000,0.000000,4370.256348,4366.153809,4202.051270,4164.102539,4320.000000,450.000000,4.000000,95.000000,,,,0.000000,4.000000,4.000000,4.000000,4.000000,4.000000,100.000000,,,,,,,,,,,,,,,,,,,,,,,,,,,,,,,,,,,,,,,,,,,,,,,,,,,,,,,,,,,,,,,
1656265903.576754,115.000000,0.000000,4351.282227,4367.692383,4184.615234,4166.153809,4315.897461,16229.000000,4.000000,95.000000,,,,0.000000,4.000000,4.000000,4.000000,4.000000,4.000000,100.000000,,,,,,,,,,,,,,,,,,,,,,,,,,,,,,,,,,,,,,,,,,,,,,,,,,,,,,,,,,,,,,,
1656265903.584569,116.000000,0.000000,4355.897461,4366.666504,4173.846191,4173.846191,4319.487305,450.000000,4.000000,95.000000,,,,0.000000,4.000000,4.000000,4.000000,4.000000,4.000000,100.000000,,,,,,,,,,,,,,,,,,,,,,,,,,,,,,,,,,,,,,,,,,,,,,,,,,,,,,,,,,,,,,,
1656265903.592483,117.000000,0.000000,4364.615234,4369.230957,4194.871582,4161.538574,4318.461426,450.000000,4.000000,95.000000,,,,0.000000,4.000000,4.000000,4.000000,4.000000,4.000000,100.000000,,,,,,,,,,,,,,,,,,,,,,,,,,,,,,,,,,,,,,,,,,,,,,,,,,,,,,,,,,,,,,,
1656265903.600297,118.000000,0.000000,4384.615234,4366.666504,4204.102539,4161.025879,4326.153809,450.000000,4.000000,95.000000,,,,0.000000,4.000000,4.000000,4.000000,4.000000,4.000000,100.000000,,,,,,,,,,,,,,,,,,,,,,,,,,,,,,,,,,,,,,,,,,,,,,,,,,,,,,,,,,,,,,,
1656265903.608212,119.000000,0.000000,4388.717773,4363.589844,4170.769043,4177.436035,4327.179688,16229.000000,4.000000,95.000000,,,,0.000000,4.000000,4.000000,4.000000,4.000000,4.000000,100.000000,,,,,,,,,,,,,,,,,,,,,,,,,,,,,,,,,,,,,,,,,,,,,,,,,,,,,,,,,,,,,,,
1656265903.616026,120.000000,0.000000,4370.769043,4370.256348,4157.436035,4185.641113,4315.384766,450.000000,4.000000,95.000000,,,,0.000000,4.000000,4.000000,4.000000,4.000000,4.000000,100.000000,,,,,,,,,,,,,,,,,,,,,,,,,,,,,,,,,,,,,,,,,,,,,,,,,,,,,,,,,,,,,,,
1656265903.623841,121.000000,0.000000,4374.871582,4352.820313,4184.102539,4173.846191,4296.922852,450.000000,4.000000,95.000000,,,,0.000000,4.000000,4.000000,4.000000,4.000000,4.000000,100.000000,,,,,,,,,,,,,,,,,,,,,,,,,,,,,,,,,,,,,,,,,,,,,,,,,,,,,,,,,,,,,,,
1656265903.631555,122.000000,0.000000,4392.307617,4323.589844,4199.487305,4157.436035,4291.794922,450.000000,4.000000,95.000000,,,,0.000000,4.000000,4.000000,4.000000,4.000000,4.000000,100.000000,,,,,,,,,,,,,,,,,,,,,,,,,,,,,,,,,,,,,,,,,,,,,,,,,,,,,,,,,,,,,,,
1656265903.639469,123.000000,0.000000,4395.897461,4341.025879,4189.230957,4165.641113,4317.948730,16229.000000,4.000000,95.000000,,,,0.000000,4.000000,4.000000,4.000000,4.000000,4.000000,100.000000,,,,,,,,,,,,,,,,,,,,,,,,,,,,,,,,,,,,,,,,,,,,,,,,,,,,,,,,,,,,,,,
1656265903.647284,124.000000,0.000000,4390.256348,4369.743652,4166.666504,4182.563965,4341.025879,450.000000,4.000000,95.000000,,,,0.000000,4.000000,4.000000,4.000000,4.000000,4.000000,100.000000,,,,,,,,,,,,,,,,,,,,,,,,,,,,,,,,,,,,,,,,,,,,,,,,,,,,,,,,,,,,,,,
1656265903.655198,125.000000,0.000000,4381.025879,4369.230957,4170.256348,4183.589844,4336.922852,450.000000,4.000000,95.000000,,,,0.000000,4.000000,4.000000,4.000000,4.000000,4.000000,100.000000,,,,,,,,,,,,,,,,,,,,,,,,,,,,,,,,,,,,,,,,,,,,,,,,,,,,,,,,,,,,,,,
1656265903.663013,126.000000,0.000000,4378.974121,4347.179688,4200.512695,4169.743652,4312.820313,450.000000,4.000000,95.000000,,,,0.000000,4.000000,4.000000,4.000000,4.000000,4.000000,100.000000,,,,,,,,,,,,,,,,,,,,,,,,,,,,,,,,,,,,,,,,,,,,,,,,,,,,,,,,,,,,,,,
1656265903.670927,127.000000,0.000000,4394.871582,4321.538574,4202.563965,4164.615234,4301.538574,243.000000,4.000000,95.000000,,,,0.000000,4.000000,4.000000,4.000000,4.000000,4.000000,100.000000,,,,,,,,,,,,,,,,,,,,,,,,,,,,,,,,,,,,,,,,,,,,,,,,,,,,,,,,,,,,,,,
1656265903.678741,0.000000,0.000000,4395.384766,4326.666504,4178.461426,4172.307617,4321.538574,450.000000,4.000000,95.000000,,,,0.000000,4.000000,4.000000,4.000000,4.000000,4.000000,100.000000,,,,,,,,,,,,,,,,,,,,,,,,,,,,,,,,,,,,,,,,,,,,,,,,,,,,,,,,,,,,,,,
1656265903.686656,1.000000,0.000000,4352.307617,4348.205078,4168.205078,4149.743652,4316.922852,450.000000,4.000000,95.000000,,,,0.000000,4.000000,4.000000,4.000000,4.000000,4.000000,100.000000,1.000000,100.000000,4.000000,4.000000,4.000000,4.000000,4.000000,,,,,,,,,,,,,,,,,,,,,,,,,,,,,,,,4.913039,3.147351,2.164080,1.104352,1.349067,2.843165,1.341450,1.730897,1.955289,2.751519,5.417907,9.223228,3.212423,1.694444,1.409943,3.760899,5.670192,3.453879,1.131668,0.949627,5.827900,5.872497,4.054627,1.774569,1.533000
1656265903.694470,2.000000,0.000000,4337.436035,4346.153809,4172.307617,4130.256348,4285.128418,16188.000000,4.000000,95.000000,,,,0.000000,4.000000,4.000000,4.000000,4.000000,4.000000,100.000000,,,,,,,,,,,,,,,,,,,,,,,,,,,,,,,,,,,,,,,,,,,,,,,,,,,,,,,,,,,,,,,
1656265903.702384,3.000000,0.000000,4368.205078,4342.051270,4162.051270,4162.563965,4288.205078,450.000000,4.000000,95.000000,,,,0.000000,4.000000,4.000000,4.000000,4.000000,4.000000,100.000000,,,,,,,,,,,,,,,,,,,,,,,,,,,,,,,,,,,,,,,,,,,,,,,,,,,,,,,,,,,,,,,
1656265903.710299,4.000000,0.000000,4372.307617,4353.333496,4142.563965,4186.666504,4319.487305,16152.000000,4.000000,95.000000,,,,0.000000,4.000000,4.000000,4.000000,4.000000,4.000000,100.000000,,,,,,,,,,,,,,,,,,,,,,,,,,,,,,,,,,,,,,,,,,,,,,,,,,,,,,,,,,,,,,,
1656265903.718113,5.000000,0.000000,4369.230957,4352.820313,4164.615234,4170.256348,4326.666504,450.000000,4.000000,95.000000,,,,0.000000,4.000000,4.000000,4.000000,4.000000,4.000000,100.000000,,,,,,,,,,,,,,,,,,,,,,,,,,,,,,,,,,,,,,,,,,,,,,,,,,,,,,,,,,,,,,,
1656265903.726027,6.000000,0.000000,4400.512695,4325.641113,4205.641113,4155.384766,4306.153809,16136.000000,4.000000,95.000000,,,,0.000000,4.000000,4.000000,4.000000,4.000000,4.000000,100.000000,,,,,,,,,,,,,,,,,,,,,,,,,,,,,,,,,,,,,,,,,,,,,,,,,,,,,,,,,,,,,,,
1656265903.733842,7.000000,0.000000,4410.769043,4312.820313,4205.128418,4167.179688,4297.436035,450.000000,4.000000,95.000000,,,,0.000000,4.000000,4.000000,4.000000,4.000000,4.000000,100.000000,,,,,,,,,,,,,,,,,,,,,,,,,,,,,,,,,,,,,,,,,,,,,,,,,,,,,,,,,,,,,,,
1656265903.741756,8.000000,0.000000,4379.487305,4342.563965,4190.256348,4178.974121,4311.282227,450.000000,4.000000,95.000000,,,,0.000000,4.000000,4.000000,4.000000,4.000000,4.000000,100.000000,,,,,,,,,,,,,,,,,,,,,,,,,,,,,,,,,,,,,,,,,,,,,,,,,,,,,,,,,,,,,,,
1656265903.749570,9.000000,0.000000,4355.897461,4351.282227,4196.922852,4155.897461,4306.666504,16141.000000,4.000000,95.000000,,,,0.000000,4.000000,4.000000,4.000000,4.000000,4.000000,100.000000,,,,,,,,,,,,,,,,,,,,,,,,,,,,,,,,,,,,,,,,,,,,,,,,,,,,,,,,,,,,,,,
1656265903.757385,10.000000,0.000000,4378.461426,4334.871582,4210.256348,4142.051270,4300.512695,450.000000,4.000000,95.000000,,,,0.000000,4.000000,4.000000,4.000000,4.000000,4.000000,100.000000,,,,,,,,,,,,,,,,,,,,,,,,,,,,,,,,,,,,,,,,,,,,,,,,,,,,,,,,,,,,,,,
1656265903.765299,11.000000,0.000000,4411.282227,4347.179688,4194.358887,4179.487305,4328.717773,16208.000000,4.000000,95.000000,,,,0.000000,4.000000,4.000000,4.000000,4.000000,4.000000,100.000000,,,,,,,,,,,,,,,,,,,,,,,,,,,,,,,,,,,,,,,,,,,,,,,,,,,,,,,,,,,,,,,
1656265903.773213,12.000000,0.000000,4403.077148,4363.589844,4177.948730,4197.948730,4333.846191,450.000000,4.000000,95.000000,,,,0.000000,4.000000,4.000000,4.000000,4.000000,4.000000,100.000000,,,,,,,,,,,,,,,,,,,,,,,,,,,,,,,,,,,,,,,,,,,,,,,,,,,,,,,,,,,,,,,
1656265903.781028,13.000000,0.000000,4394.358887,4351.282227,4183.589844,4182.051270,4315.384766,450.000000,4.000000,95.000000,,,,0.000000,4.000000,4.000000,4.000000,4.000000,4.000000,100.000000,,,,,,,,,,,,,,,,,,,,,,,,,,,,,,,,,,,,,,,,,,,,,,,,,,,,,,,,,,,,,,,
1656265903.788942,14.000000,0.000000,4393.333496,4338.974121,4170.769043,4174.358887,4308.717773,450.000000,4.000000,95.000000,,,,0.000000,4.000000,4.000000,4.000000,4.000000,4.000000,100.000000,,,,,,,,,,,,,,,,,,,,,,,,,,,,,,,,,,,,,,,,,,,,,,,,,,,,,,,,,,,,,,,
1656265903.796757,15.000000,0.000000,4376.410156,4342.563965,4162.051270,4163.589844,4300.512695,16208.000000,4.000000,95.000000,,,,0.000000,4.000000,4.000000,4.000000,4.000000,4.000000,100.000000,,,,,,,,,,,,,,,,,,,,,,,,,,,,,,,,,,,,,,,,,,,,,,,,,,,,,,,,,,,,,,,
1656265903.804671,16.000000,0.000000,4363.077148,4340.000000,4166.153809,4147.692383,4300.000000,0.000000,4.000000,95.000000,,,,0.000000,4.000000,4.000000,4.000000,4.000000,4.000000,100.000000,,,,,,,,,,,,,,,,,,,,,,,,,,,,,,,,,,,,,,,,,,,,,,,,,,,,,,,,,,,,,,,
1656265903.812485,17.000000,0.000000,4362.563965,4346.666504,4153.846191,4153.333496,4313.846191,0.000000,4.000000,95.000000,,,,0.000000,4.000000,4.000000,4.000000,4.000000,4.000000,100.000000,,,,,,,,,,,,,,,,,,,,,,,,,,,,,,,,,,,,,,,4.573412,3.030645,2.171889,1.399972,1.394189,3.155546,1.605960,1.831789,2.150915,2.800916,6.164256,12.160474,3.244945,1.791427,1.315012,3.520849,5.701695,3.225430,1.221478,0.957520,4.760826,5.910610,3.753546,1.845994,1.606860
1656265903.820400,18.000000,0.000000,4372.820313,4352.820313,4163.589844,4160.512695,4306.153809,0.000000,4.000000,95.000000,,,,0.000000,4.000000,4.000000,4.000000,4.000000,4.000000,100.000000,,,,,,,,,,,,,,,,,,,,,,,,,,,,,,,,,,,,,,,,,,,,,,,,,,,,,,,,,,,,,,,
1656265903.828214,19.000000,0.000000,4374.871582,4321.025879,4189.743652,4137.948730,4273.846191,0.000000,4.000000,95.000000,,,,0.000000,4.000000,4.000000,4.000000,4.000000,4.000000,100.000000,,,,,,,,,,,,,,,,,,,,,,,,,,,,,,,,,,,,,,,,,,,,,,,,,,,,,,,,,,,,,,,
1656265903.836128,20.000000,0.000000,4366.153809,4317.948730,4181.538574,4140.000000,4274.358887,0.000000,4.000000,95.000000,,,,0.000000,4.000000,4.000000,4.000000,4.000000,4.000000,100.000000,,,,,,,,,,,,,,,,,,,,,,,,,,,,,,,,,,,,,,,,,,,,,,,,,,,,,,,,,,,,,,,
1656265903.843943,21.000000,0.000000,4377.436035,4347.179688,4173.846191,4174.871582,4298.461426,0.000000,4.000000,95.000000,,,,0.000000,4.000000,4.000000,4.000000,4.000000,4.000000,100.000000,,,,,,,,,,,,,,,,,,,,,,,,,,,,,,,,,,,,,,,,,,,,,,,,,,,,,,,,,,,,,,,
1656265903.851857,22.000000,0.000000,4389.743652,4342.051270,4181.025879,4172.307617,4300.000000,0.000000,4.000000,95.000000,,,,0.000000,4.000000,4.000000,4.000000,4.000000,4.000000,100.000000,,,,,,,,,,,,,,,,,,,,,,,,,,,,,,,,,,,,,,,,,,,,,,,,,,,,,,,,,,,,,,,
1656265903.859671,23.000000,0.000000,4377.436035,4332.820313,4177.436035,4156.922852,4289.230957,0.000000,4.000000,95.000000,,,,0.000000,4.000000,4.000000,4.000000,4.000000,4.000000,100.000000,,,,,,,,,,,,,,,,,,,,,,,,,,,,,,,,,,,,,,,,,,,,,,,,,,,,,,,,,,,,,,,
1656265903.867586,24.000000,0.000000,4368.717773,4334.871582,4169.743652,4166.153809,4277.948730,0.000000,4.000000,95.000000,,,,0.000000,4.000000,4.000000,4.000000,4.000000,4.000000,100.000000,,,,,,,,,,,,,,,,,,,,,,,,,,,,,,,,,,,,,,,,,,,,,,,,,,,,,,,,,,,,,,,
1656265903.875500,25.000000,0.000000,4373.333496,4336.922852,4170.769043,4178.461426,4278.974121,0.000000,4.000000,95.000000,,,,0.000000,4.000000,4.000000,4.000000,4.000000,4.000000,100.000000,,,,,,,,,,,,,,,,,,,,,,,,,,,,,,,,,,,,,,,,,,,,,,,,,,,,,,,,,,,,,,,
1656265903.883314,26.000000,0.000000,4367.179688,4347.692383,4178.974121,4170.256348,4287.179688,0.000000,4.000000,95.000000,,,,0.000000,4.000000,4.000000,4.000000,4.000000,4.000000,100.000000,,,,,,,,,,,,,,,,,,,,,,,,,,,,,,,,,,,,,,,,,,,,,,,,,,,,,,,,,,,,,,,
1656265903.891129,27.000000,0.000000,4367.179688,4326.153809,4186.666504,4155.384766,4278.974121,0.000000,4.000000,95.000000,,,,0.000000,4.000000,4.000000,4.000000,4.000000,4.000000,100.000000,,,,,,,,,,,,,,,,,,,,,,,,,,,,,,,,,,,,,,,,,,,,,,,,,,,,,,,,,,,,,,,
1656265903.899043,28.000000,0.000000,4387.179688,4314.358887,4182.563965,4156.410156,4280.512695,0.000000,4.000000,95.000000,,,,0.000000,4.000000,4.000000,4.000000,4.000000,4.000000,100.000000,,,,,,,,,,,,,,,,,,,,,,,,,,,,,,,,,,,,,,,,,,,,,,,,,,,,,,,,,,,,,,,
1656265903.906858,29.000000,0.000000,4386.666504,4374.358887,4155.384766,4166.153809,4315.384766,0.000000,4.000000,95.000000,,,,0.000000,4.000000,4.000000,4.000000,4.000000,4.000000,100.000000,,,,,,,,,,,,,,,,,,,,,,,,,,,,,,,,,,,,,,,,,,,,,,,,,,,,,,,,,,,,,,,
1656265903.914772,30.000000,0.000000,4380.000000,4399.487305,4152.820313,4172.820313,4330.256348,0.000000,4.000000,95.000000,,,,0.000000,4.000000,4.000000,4.000000,4.000000,4.000000,100.000000,,,,,,,,,,,,,,,,,,,,,,,,,,,,,,,,,,,,,,,,,,,,,,,,,,,,,,,,,,,,,,,
1656265903.922586,31.000000,0.000000,4397.436035,4368.205078,4175.897461,4167.179688,4319.487305,0.000000,4.000000,95.000000,,,,0.000000,4.000000,4.000000,4.000000,4.000000,4.000000,100.000000,,,,,,,,,,,,,,,,,,,,,,,,,,,,,,,,,,,,,,,,,,,,,,,,,,,,,,,,,,,,,,,
1656265903.930501,32.000000,0.000000,4382.563965,4365.641113,4178.461426,4146.153809,4309.743652,0.000000,4.000000,95.000000,,,,0.000000,4.000000,4.000000,4.000000,4.000000,4.000000,100.000000,,,,,,,,,,,,,,,,,,,,,,,,,,,,,,,,,,,,,,,,,,,,,,,,,,,,,,,,,,,,,,,
1656265903.938415,33.000000,0.000000,4358.461426,4370.769043,4181.538574,4145.128418,4305.641113,0.000000,4.000000,95.000000,,,,0.000000,4.000000,4.000000,4.000000,4.000000,4.000000,100.000000,,,,,,,,,,,,,,,,,,,,,,,,,,,,,,,,,,,,,,,4.218630,3.002409,2.002989,1.774004,1.458023,3.383947,1.969573,1.922091,2.303132,2.768087,6.625138,15.095028,3.211235,1.818540,1.184250,3.259736,5.342220,2.924744,1.326228,0.964618,3.654638,5.631887,3.336334,1.804379,1.665392
1656265903.946229,34.000000,0.000000,4379.487305,4345.641113,4184.102539,4169.743652,4310.256348,0.000000,4.000000,95.000000,,,,0.000000,4.000000,4.000000,4.000000,4.000000,4.000000,100.000000,,,,,,,,,,,,,,,,,,,,,,,,,,,,,,,,,,,,,,,,,,,,,,,,,,,,,,,,,,,,,,,
1656265903.954044,35.000000,0.000000,4387.692383,4338.461426,4170.256348,4183.077148,4313.333496,0.000000,4.000000,95.000000,,,,0.000000,4.000000,4.000000,4.000000,4.000000,4.000000,100.000000,,,,,,,,,,,,,,,,,,,,,,,,,,,,,,,,,,,,,,,,,,,,,,,,,,,,,,,,,,,,,,,
1656265903.961758,36.000000,0.000000,4366.153809,4354.358887,4172.820313,4175.897461,4306.153809,0.000000,4.000000,95.000000,,,,0.000000,4.000000,4.000000,4.000000,4.000000,4.000000,100.000000,,,,,,,,,,,,,,,,,,,,,,,,,,,,,,,,,,,,,,,,,,,,,,,,,,,,,,,,,,,,,,,
1656265903.969573,37.000000,0.000000,4355.897461,4343.077148,4188.205078,4156.922852,4284.102539,0.000000,4.000000,95.000000,,,,0.000000,4.000000,4.000000,4.000000,4.000000,4.000000,100.000000,,,,,,,,,,,,,,,,,,,,,,,,,,,,,,,,,,,,,,,,,,,,,,,,,,,,,,,,,,,,,,,
1656265903.977287,38.000000,0.000000,4367.179688,4339.487305,4187.179688,4149.230957,4277.948730,0.000000,4.000000,95.000000,,,,0.000000,4.000000,4.000000,4.000000,4.000000,4.000000,100.000000,,,,,,,,,,,,,,,,,,,,,,,,,,,,,,,,,,,,,,,,,,,,,,,,,,,,,,,,,,,,,,,
1656265903.985102,39.000000,0.000000,4379.487305,4343.589844,4174.358887,4163.589844,4297.948730,0.000000,4.000000,95.000000,,,,0.000000,4.000000,4.000000,4.000000,4.000000,4.000000,100.000000,,,,,,,,,,,,,,,,,,,,,,,,,,,,,,,,,,,,,,,,,,,,,,,,,,,,,,,,,,,,,,,
1656265903.992816,40.000000,0.000000,4372.307617,4331.282227,4168.205078,4160.000000,4310.256348,0.000000,4.000000,95.000000,,,,0.000000,4.000000,4.000000,4.000000,4.000000,4.000000,100.000000,,,,,,,,,,,,,,,,,,,,,,,,,,,,,,,,,,,,,,,,,,,,,,,,,,,,,,,,,,,,,,,
1656265904.000730,41.000000,0.000000,4376.410156,4341.025879,4181.538574,4157.948730,4307.692383,0.000000,4.000000,95.000000,,,,0.000000,4.000000,4.000000,4.000000,4.000000,4.000000,100.000000,,,,,,,,,,,,,,,,,,,,,,,,,,,,,,,,,,,,,,,,,,,,,,,,,,,,,,,,,,,,,,,
1656265904.008545,42.000000,0.000000,4397.948730,4357.436035,4196.410156,4185.128418,4305.128418,0.000000,4.000000,95.000000,,,,0.000000,4.000000,4.000000,4.000000,4.000000,4.000000,100.000000,,,,,,,,,,,,,,,,,,,,,,,,,,,,,,,,,,,,,,,,,,,,,,,,,,,,,,,,,,,,,,,
1656265904.016459,43.000000,0.000000,4397.948730,4350.256348,4192.820313,4197.436035,4315.384766,0.000000,4.000000,95.000000,,,,0.000000,4.000000,4.000000,4.000000,4.000000,4.000000,100.000000,,,,,,,,,,,,,,,,,,,,,,,,,,,,,,,,,,,,,,,,,,,,,,,,,,,,,,,,,,,,,,,
1656265904.024273,44.000000,0.000000,4368.205078,4355.384766,4187.692383,4173.846191,4318.974121,0.000000,4.000000,95.000000,,,,0.000000,4.000000,4.000000,4.000000,4.000000,4.000000,100.000000,,,,,,,,,,,,,,,,,,,,,,,,,,,,,,,,,,,,,,,,,,,,,,,,,,,,,,,,,,,,,,,
1656265904.032188,45.000000,0.000000,4353.333496,4373.846191,4187.179688,4152.820313,4310.256348,0.000000,4.000000,95.000000,,,,0.000000,4.000000,4.000000,4.000000,4.000000,4.000000,100.000000,,,,,,,,,,,,,,,,,,,,,,,,,,,,,,,,,,,,,,,,,,,,,,,,,,,,,,,,,,,,,,,
1656265904.040002,46.000000,0.000000,4377.436035,4366.666504,4191.794922,4156.410156,4316.922852,0.000000,4.000000,95.000000,,,,0.000000,4.000000,4.000000,4.000000,4.000000,4.000000,100.000000,,,,,,,,,,,,,,,,,,,,,,,,,,,,,,,,,,,,,,,,,,,,,,,,,,,,,,,,,,,,,,,
1656265904.047916,47.000000,0.000000,4386.666504,4339.487305,4189.230957,4157.436035,4308.717773,0.000000,4.000000,95.000000,,,,0.000000,4.000000,4.000000,4.000000,4.000000,4.000000,100.000000,,,,,,,,,,,,,,,,,,,,,,,,,,,,,,,,,,,,,,,,,,,,,,,,,,,,,,,,,,,,,,,
1656265904.055731,48.000000,0.000000,4373.846191,4327.692383,4179.487305,4144.102539,4293.333496,0.000000,4.000000,95.000000,,,,0.000000,4.000000,4.000000,4.000000,4.000000,4.000000,100.000000,,,,,,,,,,,,,,,,,,,,,,,,,,,,,,,,,,,,,,,,,,,,,,,,,,,,,,,,,,,,,,,
1656265904.063645,49.000000,0.000000,4376.410156,4326.666504,4182.051270,4132.820313,4294.871582,0.000000,4.000000,95.000000,,,,0.000000,4.000000,4.000000,4.000000,4.000000,4.000000,100.000000,,,,,,,,,,,,,,,,,,,,,,,,,,,,,,,,,,,,,,,3.847543,3.030869,1.716016,2.141483,1.523802,3.411172,2.366848,1.978312,2.371900,2.685962,6.631427,17.260702,3.039864,1.789219,1.074547,2.941058,4.709768,2.587493,1.443535,0.990595,2.666687,5.213653,2.935602,1.693609,1.701126
1656265904.071460,50.000000,0.000000,4379.487305,4315.897461,4189.743652,4136.410156,4275.384766,0.000000,4.000000,95.000000,,,,0.000000,4.000000,4.000000,4.000000,4.000000,4.000000,100.000000,,,,,,,,,,,,,,,,,,,,,,,,,,,,,,,,,,,,,,,,,,,,,,,,,,,,,,,,,,,,,,,
1656265904.079374,51.000000,0.000000,4371.794922,4331.282227,4183.589844,4162.051270,4277.436035,0.000000,4.000000,95.000000,,,,0.000000,4.000000,4.000000,4.000000,4.000000,4.000000,100.000000,,,,,,,,,,,,,,,,,,,,,,,,,,,,,,,,,,,,,,,,,,,,,,,,,,,,,,,,,,,,,,,
1656265904.087188,52.000000,0.000000,4349.743652,4367.179688,4161.025879,4161.538574,4307.692383,0.000000,4.000000,95.000000,,,,0.000000,4.000000,4.000000,4.000000,4.000000,4.000000,100.000000,,,,,,,,,,,,,,,,,,,,,,,,,,,,,,,,,,,,,,,,,,,,,,,,,,,,,,,,,,,,,,,
1656265904.095103,53.000000,0.000000,4332.820313,4362.051270,4157.948730,4140.512695,4291.794922,0.000000,4.000000,95.000000,,,,0.000000,4.000000,4.000000,4.000000,4.000000,4.000000,100.000000,,,,,,,,,,,,,,,,,,,,,,,,,,,,,,,,,,,,,,,,,,,,,,,,,,,,,,,,,,,,,,,
1656265904.102917,54.000000,0.000000,4354.871582,4333.333496,4174.871582,4157.948730,4276.922852,0.000000,4.000000,95.000000,,,,0.000000,4.000000,4.000000,4.000000,4.000000,4.000000,100.000000,,,,,,,,,,,,,,,,,,,,,,,,,,,,,,,,,,,,,,,,,,,,,,,,,,,,,,,,,,,,,,,
1656265904.110831,55.000000,0.000000,4377.436035,4326.153809,4165.641113,4180.512695,4308.717773,0.000000,4.000000,95.000000,,,,0.000000,4.000000,4.000000,4.000000,4.000000,4.000000,100.000000,,,,,,,,,,,,,,,,,,,,,,,,,,,,,,,,,,,,,,,,,,,,,,,,,,,,,,,,,,,,,,,
1656265904.118646,56.000000,0.000000,4369.230957,4345.641113,4151.282227,4170.256348,4320.000000,0.000000,4.000000,95.000000,,,,0.000000,4.000000,4.000000,4.000000,4.000000,4.000000,100.000000,,,,,,,,,,,,,,,,,,,,,,,,,,,,,,,,,,,,,,,,,,,,,,,,,,,,,,,,,,,,,,,
1656265904.126360,57.000000,0.000000,4350.769043,4368.717773,4153.846191,4149.230957,4293.333496,0.000000,4.000000,95.000000,,,,0.000000,4.000000,4.000000,4.000000,4.000000,4.000000,100.000000,,,,,,,,,,,,,,,,,,,,,,,,,,,,,,,,,,,,,,,,,,,,,,,,,,,,,,,,,,,,,,,
1656265904.134175,58.000000,0.000000,4337.948730,4361.025879,4161.025879,4137.948730,4272.307617,0.000000,4.000000,95.000000,,,,0.000000,4.000000,4.000000,4.000000,4.000000,4.000000,100.000000,,,,,,,,,,,,,,,,,,,,,,,,,,,,,,,,,,,,,,,,,,,,,,,,,,,,,,,,,,,,,,,
1656265904.141889,59.000000,0.000000,4348.717773,4340.512695,4164.102539,4152.307617,4284.615234,0.000000,4.000000,95.000000,,,,0.000000,4.000000,4.000000,4.000000,4.000000,4.000000,100.000000,,,,,,,,,,,,,,,,,,,,,,,,,,,,,,,,,,,,,,,,,,,,,,,,,,,,,,,,,,,,,,,
1656265904.149704,60.000000,0.000000,4356.410156,4351.794922,4160.000000,4169.743652,4312.820313,0.000000,4.000000,95.000000,,,,0.000000,4.000000,4.000000,4.000000,4.000000,4.000000,100.000000,,,,,,,,,,,,,,,,,,,,,,,,,,,,,,,,,,,,,,,,,,,,,,,,,,,,,,,,,,,,,,,
1656265904.157418,61.000000,0.000000,4347.179688,4366.153809,4161.025879,4175.384766,4315.897461,0.000000,4.000000,95.000000,,,,0.000000,4.000000,4.000000,4.000000,4.000000,4.000000,100.000000,,,,,,,,,,,,,,,,,,,,,,,,,,,,,,,,,,,,,,,,,,,,,,,,,,,,,,,,,,,,,,,
1656265904.165332,62.000000,0.000000,4358.974121,4343.589844,4171.282227,4187.179688,4290.256348,0.000000,4.000000,95.000000,,,,0.000000,4.000000,4.000000,4.000000,4.000000,4.000000,100.000000,,,,,,,,,,,,,,,,,,,,,,,,,,,,,,,,,,,,,,,,,,,,,,,,,,,,,,,,,,,,,,,
1656265904.173147,63.000000,0.000000,4381.025879,4316.410156,4183.077148,4185.641113,4274.871582,0.000000,4.000000,95.000000,,,,0.000000,4.000000,4.000000,4.000000,4.000000,4.000000,100.000000,,,,,,,,,,,,,,,,,,,,,,,,,,,,,,,,,,,,,,,,,,,,,,,,,,,,,,,,,,,,,,,
1656265904.181061,64.000000,0.000000,4379.487305,4310.769043,4181.538574,4164.615234,4296.922852,450.000000,4.000000,95.000000,,,,0.000000,4.000000,4.000000,4.000000,4.000000,4.000000,100.000000,,,,,,,,,,,,,,,,,,,,,,,,,,,,,,,,,,,,,,,,,,,,,,,,,,,,,,,,,,,,,,,
1656265904.188875,65.000000,0.000000,4358.461426,4306.666504,4156.410156,4152.307617,4304.102539,450.000000,4.000000,95.000000,,,,0.000000,4.000000,4.000000,4.000000,4.000000,4.000000,100.000000,1.000000,100.000000,4.000000,4.000000,4.000000,4.000000,4.000000,,,,,,,,,,,,,,,,,,,,,,,,,,,,,,,,3.440029,3.059458,1.412974,2.432795,1.576551,3.227144,2.738283,1.964470,2.360913,2.585472,6.226348,18.042465,2.712178,1.725565,1.034042,2.547605,3.982879,2.257609,1.563172,1.052467,1.923259,4.865180,2.640734,1.585873,1.706856
1656265904.196790,66.000000,0.000000,4347.179688,4312.820313,4150.256348,4155.897461,4280.512695,16226.000000,4.000000,95.000000,,,,0.000000,4.000000,4.000000,4.000000,4.000000,4.000000,100.000000,,,,,,,,,,,,,,,,,,,,,,,,,,,,,,,,,,,,,,,,,,,,,,,,,,,,,,,,,,,,,,,
1656265904.204604,67.000000,0.000000,4350.256348,4338.974121,4164.615234,4162.563965,4284.615234,450.000000,4.000000,95.000000,,,,0.000000,4.000000,4.000000,4.000000,4.000000,4.000000,100.000000,,,,,,,,,,,,,,,,,,,,,,,,,,,,,,,,,,,,,,,,,,,,,,,,,,,,,,,,,,,,,,,
1656265904.212519,68.000000,0.000000,4341.025879,4337.436035,4153.333496,4151.282227,4295.897461,16143.000000,4.000000,95.000000,,,,0.000000,4.000000,4.000000,4.000000,4.000000,4.000000,100.000000,,,,,,,,,,,,,,,,,,,,,,,,,,,,,,,,,,,,,,,,,,,,,,,,,,,,,,,,,,,,,,,
1656265904.220333,69.000000,0.000000,4335.384766,4315.384766,4150.256348,4145.128418,4277.948730,450.000000,4.000000,95.000000,,,,0.000000,4.000000,4.000000,4.000000,4.000000,4.000000,100.000000,,,,,,,,,,,,,,,,,,,,,,,,,,,,,,,,,,,,,,,,,,,,,,,,,,,,,,,,,,,,,,,
1656265904.228247,70.000000,0.000000,4334.871582,4315.384766,4156.410156,4158.974121,4268.205078,16180.000000,4.000000,95.000000,,,,0.000000,4.000000,4.000000,4.000000,4.000000,4.000000,100.000000,,,,,,,,,,,,,,,,,,,,,,,,,,,,,,,,,,,,,,,,,,,,,,,,,,,,,,,,,,,,,,,
1656265904.236062,71.000000,0.000000,4325.641113,4320.512695,4144.615234,4152.820313,4287.179688,450.000000,4.000000,95.000000,,,,0.000000,4.000000,4.000000,4.000000,4.000000,4.000000,100.000000,,,,,,,,,,,,,,,,,,,,,,,,,,,,,,,,,,,,,,,,,,,,,,,,,,,,,,,,,,,,,,,
1656265904.243976,72.000000,0.000000,4337.436035,4299.487305,4147.179688,4127.179688,4283.589844,450.000000,4.000000,95.000000,,,,0.000000,4.000000,4.000000,4.000000,4.000000,4.000000,100.000000,,,,,,,,,,,,,,,,,,,,,,,,,,,,,,,,,,,,,,,,,,,,,,,,,,,,,,,,,,,,,,,
1656265904.251790,73.000000,0.000000,4351.794922,4276.410156,4161.538574,4125.128418,4257.948730,16124.000000,4.000000,95.000000,,,,0.000000,4.000000,4.000000,4.000000,4.000000,4.000000,100.000000,,,,,,,,,,,,,,,,,,,,,,,,,,,,,,,,,,,,,,,,,,,,,,,,,,,,,,,,,,,,,,,
1656265904.259705,74.000000,0.000000,4349.230957,4297.948730,4168.205078,4149.743652,4271.282227,450.000000,4.000000,95.000000,,,,0.000000,4.000000,4.000000,4.000000,4.000000,4.000000,100.000000,,,,,,,,,,,,,,,,,,,,,,,,,,,,,,,,,,,,,,,,,,,,,,,,,,,,,,,,,,,,,,,
1656265904.267519,75.000000,0.000000,4357.948730,4317.948730,4171.282227,4160.512695,4295.897461,16185.000000,4.000000,95.000000,,,,0.000000,4.000000,4.000000,4.000000,4.000000,4.000000,100.000000,,,,,,,,,,,,,,,,,,,,,,,,,,,,,,,,,,,,,,,,,,,,,,,,,,,,,,,,,,,,,,,
1656265904.275433,76.000000,0.000000,4362.051270,4303.589844,4167.692383,4155.897461,4285.641113,450.000000,4.000000,95.000000,,,,0.000000,4.000000,4.000000,4.000000,4.000000,4.000000,100.000000,,,,,,,,,,,,,,,,,,,,,,,,,,,,,,,,,,,,,,,,,,,,,,,,,,,,,,,,,,,,,,,
1656265904.283248,77.000000,0.000000,4356.410156,4300.000000,4158.974121,4160.512695,4286.666504,450.000000,4.000000,95.000000,,,,0.000000,4.000000,4.000000,4.000000,4.000000,4.000000,100.000000,,,,,,,,,,,,,,,,,,,,,,,,,,,,,,,,,,,,,,,,,,,,,,,,,,,,,,,,,,,,,,,
1656265904.291162,78.000000,0.000000,4355.897461,4313.333496,4147.692383,4167.179688,4302.563965,450.000000,4.000000,95.000000,,,,0.000000,4.000000,4.000000,4.000000,4.000000,4.000000,100.000000,,,,,,,,,,,,,,,,,,,,,,,,,,,,,,,,,,,,,,,,,,,,,,,,,,,,,,,,,,,,,,,
1656265904.299076,79.000000,0.000000,4355.897461,4328.205078,4138.974121,4170.769043,4291.794922,16185.000000,4.000000,95.000000,,,,0.000000,4.000000,4.000000,4.000000,4.000000,4.000000,100.000000,,,,,,,,,,,,,,,,,,,,,,,,,,,,,,,,,,,,,,,,,,,,,,,,,,,,,,,,,,,,,,,
1656265904.306891,80.000000,0.000000,4344.615234,4326.666504,4132.307617,4162.051270,4274.871582,450.000000,4.000000,95.000000,,,,0.000000,4.000000,4.000000,4.000000,4.000000,4.000000,100.000000,,,,,,,,,,,,,,,,,,,,,,,,,,,,,,,,,,,,,,,,,,,,,,,,,,,,,,,,,,,,,,,
1656265904.314705,81.000000,0.000000,4332.307617,4307.179688,4133.333496,4152.820313,4268.205078,450.000000,4.000000,95.000000,,,,0.000000,4.000000,4.000000,4.000000,4.000000,4.000000,100.000000,,,,,,,,,,,,,,,,,,,,,,,,,,,,,,,,,,,,,,,3.038721,3.059482,1.208712,2.609860,1.603792,2.935296,3.077152,1.873925,2.317764,2.480017,5.541855,17.191561,2.279714,1.641592,1.073591,2.161903,3.311314,2.011980,1.668970,1.151964,1.521128,4.735948,2.446862,1.537864,1.679565
1656265904.322520,82.000000,0.000000,4319.487305,4319.487305,4140.000000,4151.794922,4258.974121,450.000000,4.000000,95.000000,,,,0.000000,4.000000,4.000000,4.000000,4.000000,4.000000,100.000000,,,,,,,,,,,,,,,,,,,,,,,,,,,,,,,,,,,,,,,,,,,,,,,,,,,,,,,,,,,,,,,
1656265904.330334,83.000000,0.000000,4296.410156,4328.717773,4136.922852,4130.256348,4249.743652,16185.000000,4.000000,95.000000,,,,0.000000,4.000000,4.000000,4.000000,4.000000,4.000000,100.000000,,,,,,,,,,,,,,,,,,,,,,,,,,,,,,,,,,,,,,,,,,,,,,,,,,,,,,,,,,,,,,,
1656265904.338049,84.000000,0.000000,4308.205078,4303.077148,4140.000000,4129.743652,4265.641113,450.000000,4.000000,95.000000,,,,0.000000,4.000000,4.000000,4.000000,4.000000,4.000000,100.000000,,,,,,,,,,,,,,,,,,,,,,,,,,,,,,,,,,,,,,,,,,,,,,,,,,,,,,,,,,,,,,,
1656265904.345963,85.000000,0.000000,4336.410156,4296.922852,4164.615234,4152.307617,4275.897461,450.000000,4.000000,95.000000,,,,0.000000,4.000000,4.000000,4.000000,4.000000,4.000000,100.000000,,,,,,,,,,,,,,,,,,,,,,,,,,,,,,,,,,,,,,,,,,,,,,,,,,,,,,,,,,,,,,,
1656265904.353777,86.000000,0.000000,4330.256348,4302.563965,4184.615234,4134.358887,4242.051270,450.000000,4.000000,95.000000,,,,0.000000,4.000000,4.000000,4.000000,4.000000,4.000000,100.000000,,,,,,,,,,,,,,,,,,,,,,,,,,,,,,,,,,,,,,,,,,,,,,,,,,,,,,,,,,,,,,,
1656265904.361692,87.000000,0.000000,4323.589844,4310.769043,4176.922852,4123.589844,4237.948730,16185.000000,4.000000,95.000000,,,,0.000000,4.000000,4.000000,4.000000,4.000000,4.000000,100.000000,,,,,,,,,,,,,,,,,,,,,,,,,,,,,,,,,,,,,,,,,,,,,,,,,,,,,,,,,,,,,,,
1656265904.369506,88.000000,0.000000,4321.538574,4331.794922,4145.641113,4153.846191,4280.512695,450.000000,4.000000,95.000000,,,,0.000000,4.000000,4.000000,4.000000,4.000000,4.000000,100.000000,,,,,,,,,,,,,,,,,,,,,,,,,,,,,,,,,,,,,,,,,,,,,,,,,,,,,,,,,,,,,,,
1656265904.377420,89.000000,0.000000,4316.922852,4327.179688,4136.922852,4163.077148,4294.358887,450.000000,4.000000,95.000000,,,,0.000000,4.000000,4.000000,4.000000,4.000000,4.000000,100.000000,,,,,,,,,,,,,,,,,,,,,,,,,,,,,,,,,,,,,,,,,,,,,,,,,,,,,,,,,,,,,,,
1656265904.385235,90.000000,0.000000,4328.205078,4297.436035,4177.436035,4132.820313,4268.717773,450.000000,4.000000,95.000000,,,,0.000000,4.000000,4.000000,4.000000,4.000000,4.000000,100.000000,,,,,,,,,,,,,,,,,,,,,,,,,,,,,,,,,,,,,,,,,,,,,,,,,,,,,,,,,,,,,,,
1656265904.393149,91.000000,0.000000,4338.461426,4292.820313,4199.487305,4120.512695,4254.358887,16185.000000,4.000000,95.000000,,,,0.000000,4.000000,4.000000,4.000000,4.000000,4.000000,100.000000,,,,,,,,,,,,,,,,,,,,,,,,,,,,,,,,,,,,,,,,,,,,,,,,,,,,,,,,,,,,,,,
1656265904.400963,92.000000,0.000000,4351.282227,4325.641113,4182.563965,4164.102539,4283.589844,450.000000,4.000000,95.000000,,,,0.000000,4.000000,4.000000,4.000000,4.000000,4.000000,100.000000,,,,,,,,,,,,,,,,,,,,,,,,,,,,,,,,,,,,,,,,,,,,,,,,,,,,,,,,,,,,,,,
1656265904.408878,93.000000,0.000000,4369.230957,4331.794922,4165.641113,4202.051270,4304.102539,450.000000,4.000000,95.000000,,,,0.000000,4.000000,4.000000,4.000000,4.000000,4.000000,100.000000,,,,,,,,,,,,,,,,,,,,,,,,,,,,,,,,,,,,,,,,,,,,,,,,,,,,,,,,,,,,,,,
1656265904.416692,94.000000,0.000000,4359.487305,4308.717773,4162.051270,4173.846191,4293.333496,450.000000,4.000000,95.000000,,,,0.000000,4.000000,4.000000,4.000000,4.000000,4.000000,100.000000,,,,,,,,,,,,,,,,,,,,,,,,,,,,,,,,,,,,,,,,,,,,,,,,,,,,,,,,,,,,,,,
1656265904.424606,95.000000,0.000000,4357.948730,4304.102539,4168.717773,4151.794922,4288.717773,16185.000000,4.000000,95.000000,,,,0.000000,4.000000,4.000000,4.000000,4.000000,4.000000,100.000000,,,,,,,,,,,,,,,,,,,,,,,,,,,,,,,,,,,,,,,,,,,,,,,,,,,,,,,,,,,,,,,
1656265904.432421,96.000000,0.000000,4366.666504,4310.769043,4165.641113,4168.717773,4290.256348,450.000000,4.000000,95.000000,,,,0.000000,4.000000,4.000000,4.000000,4.000000,4.000000,100.000000,,,,,,,,,,,,,,,,,,,,,,,,,,,,,,,,,,,,,,,,,,,,,,,,,,,,,,,,,,,,,,,
1656265904.440335,97.000000,0.000000,4349.230957,4315.384766,4163.589844,4160.512695,4295.384766,450.000000,4.000000,95.000000,,,,0.000000,4.000000,4.000000,4.000000,4.000000,4.000000,100.000000,,,,,,,,,,,,,,,,,,,,,,,,,,,,,,,,,,,,,,,2.770053,3.019238,1.159227,2.674281,1.599662,2.700374,3.387718,1.735963,2.293203,2.364468,4.769571,14.960833,1.853727,1.539935,1.158571,1.945785,2.769974,1.938499,1.744129,1.274488,1.525012,4.821586,2.289547,1.558266,1.632049
1656265904.448149,98.000000,0.000000,4341.538574,4304.102539,4175.897461,4137.948730,4292.307617,450.000000,4.000000,95.000000,,,,0.000000,4.000000,4.000000,4.000000,4.000000,4.000000,100.000000,,,,,,,,,,,,,,,,,,,,,,,,,,,,,,,,,,,,,,,,,,,,,,,,,,,,,,,,,,,,,,,
1656265904.456064,99.000000,0.000000,4356.922852,4288.717773,4184.615234,4156.922852,4276.410156,16185.000000,4.000000,95.000000,,,,0.000000,4.000000,4.000000,4.000000,4.000000,4.000000,100.000000,,,,,,,,,,,,,,,,,,,,,,,,,,,,,,,,,,,,,,,,,,,,,,,,,,,,,,,,,,,,,,,
1656265904.463978,100.000000,0.000000,4340.000000,4311.282227,4163.589844,4176.922852,4273.846191,450.000000,4.000000,95.000000,,,,0.000000,4.000000,4.000000,4.000000,4.000000,4.000000,100.000000,,,,,,,,,,,,,,,,,,,,,,,,,,,,,,,,,,,,,,,,,,,,,,,,,,,,,,,,,,,,,,,
1656265904.471793,101.000000,0.000000,4303.077148,4338.461426,4125.641113,4142.051270,4276.410156,450.000000,4.000000,95.000000,,,,0.000000,4.000000,4.000000,4.000000,4.000000,4.000000,100.000000,,,,,,,,,,,,,,,,,,,,,,,,,,,,,,,,,,,,,,,,,,,,,,,,,,,,,,,,,,,,,,,
1656265904.479607,102.000000,0.000000,4314.871582,4318.974121,4124.102539,4117.948730,4267.692383,450.000000,4.000000,95.000000,,,,0.000000,4.000000,4.000000,4.000000,4.000000,4.000000,100.000000,,,,,,,,,,,,,,,,,,,,,,,,,,,,,,,,,,,,,,,,,,,,,,,,,,,,,,,,,,,,,,,
1656265904.487321,103.000000,0.000000,4344.102539,4282.051270,4152.307617,4127.179688,4261.025879,16185.000000,4.000000,95.000000,,,,0.000000,4.000000,4.000000,4.000000,4.000000,4.000000,100.000000,,,,,,,,,,,,,,,,,,,,,,,,,,,,,,,,,,,,,,,,,,,,,,,,,,,,,,,,,,,,,,,
1656265904.495136,104.000000,0.000000,4338.461426,4277.436035,4164.102539,4116.922852,4256.922852,450.000000,4.000000,95.000000,,,,0.000000,4.000000,4.000000,4.000000,4.000000,4.000000,100.000000,,,,,,,,,,,,,,,,,,,,,,,,,,,,,,,,,,,,,,,,,,,,,,,,,,,,,,,,,,,,,,,
1656265904.502850,105.000000,0.000000,4334.871582,4292.307617,4162.051270,4118.974121,4257.948730,450.000000,4.000000,95.000000,,,,0.000000,4.000000,4.000000,4.000000,4.000000,4.000000,100.000000,,,,,,,,,,,,,,,,,,,,,,,,,,,,,,,,,,,,,,,,,,,,,,,,,,,,,,,,,,,,,,,
1656265904.510765,106.000000,0.000000,4349.743652,4282.051270,4149.230957,4149.230957,4265.641113,450.000000,4.000000,95.000000,,,,0.000000,4.000000,4.000000,4.000000,4.000000,4.000000,100.000000,,,,,,,,,,,,,,,,,,,,,,,,,,,,,,,,,,,,,,,,,,,,,,,,,,,,,,,,,,,,,,,
1656265904.518579,107.000000,0.000000,4354.871582,4274.358887,4143.589844,4156.922852,4268.717773,16185.000000,4.000000,95.000000,,,,0.000000,4.000000,4.000000,4.000000,4.000000,4.000000,100.000000,,,,,,,,,,,,,,,,,,,,,,,,,,,,,,,,,,,,,,,,,,,,,,,,,,,,,,,,,,,,,,,
1656265904.526493,108.000000,0.000000,4337.948730,4300.512695,4162.051270,4130.256348,4268.205078,450.000000,4.000000,95.000000,,,,0.000000,4.000000,4.000000,4.000000,4.000000,4.000000,100.000000,,,,,,,,,,,,,,,,,,,,,,,,,,,,,,,,,,,,,,,,,,,,,,,,,,,,,,,,,,,,,,,
1656265904.534308,109.000000,0.000000,4326.666504,4319.487305,4177.436035,4122.051270,4278.974121,450.000000,4.000000,95.000000,,,,0.000000,4.000000,4.000000,4.000000,4.000000,4.000000,100.000000,,,,,,,,,,,,,,,,,,,,,,,,,,,,,,,,,,,,,,,,,,,,,,,,,,,,,,,,,,,,,,,
1656265904.542222,110.000000,0.000000,4337.948730,4314.871582,4178.461426,4141.538574,4284.615234,450.000000,4.000000,95.000000,,,,0.000000,4.000000,4.000000,4.000000,4.000000,4.000000,100.000000,,,,,,,,,,,,,,,,,,,,,,,,,,,,,,,,,,,,,,,,,,,,,,,,,,,,,,,,,,,,,,,
1656265904.550036,111.000000,0.000000,4342.051270,4305.128418,4172.307617,4148.717773,4268.205078,16185.000000,4.000000,95.000000,,,,0.000000,4.000000,4.000000,4.000000,4.000000,4.000000,100.000000,,,,,,,,,,,,,,,,,,,,,,,,,,,,,,,,,,,,,,,,,,,,,,,,,,,,,,,,,,,,,,,
1656265904.557951,112.000000,0.000000,4345.128418,4301.538574,4169.230957,4147.692383,4274.871582,450.000000,4.000000,95.000000,,,,0.000000,4.000000,4.000000,4.000000,4.000000,4.000000,100.000000,,,,,,,,,,,,,,,,,,,,,,,,,,,,,,,,,,,,,,,,,,,,,,,,,,,,,,,,,,,,,,,
1656265904.565765,113.000000,0.000000,4352.820313,4298.461426,4172.307617,4136.922852,4288.205078,450.000000,4.000000,95.000000,,,,0.000000,4.000000,4.000000,4.000000,4.000000,4.000000,100.000000,,,,,,,,,,,,,,,,,,,,,,,,,,,,,,,,,,,,,,,2.726231,2.965651,1.244579,2.648255,1.560938,2.615337,3.685434,1.616234,2.312737,2.236252,4.028936,11.988811,1.526931,1.423823,1.228596,2.025722,2.374923,2.078741,1.781858,1.395905,1.886563,4.974481,2.091244,1.608068,1.590741
1656265904.573679,114.000000,0.000000,4322.051270,4288.205078,4168.205078,4106.666504,4244.615234,450.000000,4.000000,95.000000,,,,0.000000,4.000000,4.000000,4.000000,4.000000,4.000000,100.000000,,,,,,,,,,,,,,,,,,,,,,,,,,,,,,,,,,,,,,,,,,,,,,,,,,,,,,,,,,,,,,,
1656265904.581494,115.000000,0.000000,4306.666504,4285.128418,4154.358887,4109.743652,4229.230957,16185.000000,4.000000,95.000000,,,,0.000000,4.000000,4.000000,4.000000,4.000000,4.000000,100.000000,,,,,,,,,,,,,,,,,,,,,,,,,,,,,,,,,,,,,,,,,,,,,,,,,,,,,,,,,,,,,,,
1656265904.589408,116.000000,0.000000,4350.256348,4294.358887,4137.436035,4154.871582,4295.897461,450.000000,4.000000,95.000000,,,,0.000000,4.000000,4.000000,4.000000,4.000000,4.000000,100.000000,,,,,,,,,,,,,,,,,,,,,,,,,,,,,,,,,,,,,,,,,,,,,,,,,,,,,,,,,,,,,,,
1656265904.597223,117.000000,0.000000,4365.641113,4296.410156,4135.897461,4171.794922,4333.333496,450.000000,4.000000,95.000000,,,,0.000000,4.000000,4.000000,4.000000,4.000000,4.000000,100.000000,,,,,,,,,,,,,,,,,,,,,,,,,,,,,,,,,,,,,,,,,,,,,,,,,,,,,,,,,,,,,,,
1656265904.605137,118.000000,0.000000,4337.948730,4281.538574,4154.871582,4155.897461,4299.487305,450.000000,4.000000,95.000000,,,,0.000000,4.000000,4.000000,4.000000,4.000000,4.000000,100.000000,,,,,,,,,,,,,,,,,,,,,,,,,,,,,,,,,,,,,,,,,,,,,,,,,,,,,,,,,,,,,,,
1656265904.612951,119.000000,0.000000,4346.153809,4265.128418,4165.641113,4146.666504,4277.948730,16185.000000,4.000000,95.000000,,,,0.000000,4.000000,4.000000,4.000000,4.000000,4.000000,100.000000,,,,,,,,,,,,,,,,,,,,,,,,,,,,,,,,,,,,,,,,,,,,,,,,,,,,,,,,,,,,,,,
1656265904.620866,120.000000,0.000000,4373.333496,4284.102539,4158.461426,4150.256348,4294.871582,450.000000,4.000000,95.000000,,,,0.000000,4.000000,4.000000,4.000000,4.000000,4.000000,100.000000,,,,,,,,,,,,,,,,,,,,,,,,,,,,,,,,,,,,,,,,,,,,,,,,,,,,,,,,,,,,,,,
1656265904.628680,121.000000,0.000000,4338.974121,4308.205078,4153.333496,4143.077148,4292.307617,450.000000,4.000000,95.000000,,,,0.000000,4.000000,4.000000,4.000000,4.000000,4.000000,100.000000,,,,,,,,,,,,,,,,,,,,,,,,,,,,,,,,,,,,,,,,,,,,,,,,,,,,,,,,,,,,,,,
1656265904.636594,122.000000,0.000000,4306.666504,4293.333496,4163.589844,4124.615234,4272.307617,450.000000,4.000000,95.000000,,,,0.000000,4.000000,4.000000,4.000000,4.000000,4.000000,100.000000,,,,,,,,,,,,,,,,,,,,,,,,,,,,,,,,,,,,,,,,,,,,,,,,,,,,,,,,,,,,,,,
1656265904.644409,123.000000,0.000000,4345.641113,4290.256348,4164.615234,4141.538574,4291.282227,16185.000000,4.000000,95.000000,,,,0.000000,4.000000,4.000000,4.000000,4.000000,4.000000,100.000000,,,,,,,,,,,,,,,,,,,,,,,,,,,,,,,,,,,,,,,,,,,,,,,,,,,,,,,,,,,,,,,
1656265904.652123,124.000000,0.000000,4361.538574,4308.717773,4143.077148,4165.641113,4321.538574,450.000000,4.000000,95.000000,,,,0.000000,4.000000,4.000000,4.000000,4.000000,4.000000,100.000000,,,,,,,,,,,,,,,,,,,,,,,,,,,,,,,,,,,,,,,,,,,,,,,,,,,,,,,,,,,,,,,
1656265904.659938,125.000000,0.000000,4339.487305,4301.538574,4147.692383,4152.307617,4314.871582,450.000000,4.000000,95.000000,,,,0.000000,4.000000,4.000000,4.000000,4.000000,4.000000,100.000000,,,,,,,,,,,,,,,,,,,,,,,,,,,,,,,,,,,,,,,,,,,,,,,,,,,,,,,,,,,,,,,
1656265904.667652,126.000000,0.000000,4344.102539,4283.077148,4167.692383,4144.615234,4286.666504,450.000000,4.000000,95.000000,,,,0.000000,4.000000,4.000000,4.000000,4.000000,4.000000,100.000000,,,,,,,,,,,,,,,,,,,,,,,,,,,,,,,,,,,,,,,,,,,,,,,,,,,,,,,,,,,,,,,
1656265904.675566,127.000000,0.000000,4353.333496,4270.769043,4162.563965,4151.282227,4271.282227,243.000000,4.000000,95.000000,,,,0.000000,4.000000,4.000000,4.000000,4.000000,4.000000,100.000000,,,,,,,,,,,,,,,,,,,,,,,,,,,,,,,,,,,,,,,,,,,,,,,,,,,,,,,,,,,,,,,
1656265904.683381,0.000000,0.000000,4341.025879,4282.563965,4154.871582,4151.282227,4285.641113,450.000000,4.000000,95.000000,,,,0.000000,4.000000,4.000000,4.000000,4.000000,4.000000,100.000000,,,,,,,,,,,,,,,,,,,,,,,,,,,,,,,,,,,,,,,,,,,,,,,,,,,,,,,,,,,,,,,
1656265904.691295,1.000000,0.000000,4319.487305,4313.333496,4164.102539,4146.153809,4285.641113,450.000000,4.000000,95.000000,,,,0.000000,4.000000,4.000000,4.000000,4.000000,4.000000,100.000000,1.000000,100.000000,4.000000,4.000000,4.000000,4.000000,4.000000,,,,,,,,,,,,,,,,,,,,,,,,,,,,,,,,2.980910,2.987547,1.400383,2.559379,1.490696,2.716068,3.955687,1.590788,2.370535,2.111056,3.452950,9.014503,1.313898,1.325641,1.238268,2.417683,2.126393,2.382380,1.797171,1.496137,2.487754,5.016357,1.808243,1.630595,1.583534
1656265904.699110,2.000000,0.000000,4313.333496,4316.410156,4177.436035,4141.538574,4268.205078,16198.000000,4.000000,95.000000,,,,0.000000,4.000000,4.000000,4.000000,4.000000,4.000000,100.000000,,,,,,,,,,,,,,,,,,,,,,,,,,,,,,,,,,,,,,,,,,,,,,,,,,,,,,,,,,,,,,,
1656265904.707024,3.000000,0.000000,4328.205078,4308.205078,4175.897461,4142.563965,4287.692383,450.000000,4.000000,95.000000,,,,0.000000,4.000000,4.000000,4.000000,4.000000,4.000000,100.000000,,,,,,,,,,,,,,,,,,,,,,,,,,,,,,,,,,,,,,,,,,,,,,,,,,,,,,,,,,,,,,,
1656265904.714838,4.000000,0.000000,4332.307617,4312.307617,4167.692383,4148.717773,4302.563965,16140.000000,4.000000,95.000000,,,,0.000000,4.000000,4.000000,4.000000,4.000000,4.000000,100.000000,,,,,,,,,,,,,,,,,,,,,,,,,,,,,,,,,,,,,,,,,,,,,,,,,,,,,,,,,,,,,,,
1656265904.722653,5.000000,0.000000,4325.128418,4325.641113,4169.230957,4150.769043,4279.487305,450.000000,4.000000,95.000000,,,,0.000000,4.000000,4.000000,4.000000,4.000000,4.000000,100.000000,,,,,,,,,,,,,,,,,,,,,,,,,,,,,,,,,,,,,,,,,,,,,,,,,,,,,,,,,,,,,,,
1656265904.730367,6.000000,0.000000,4325.128418,4338.974121,4164.102539,4146.666504,4270.769043,16163.000000,4.000000,95.000000,,,,0.000000,4.000000,4.000000,4.000000,4.000000,4.000000,100.000000,,,,,,,,,,,,,,,,,,,,,,,,,,,,,,,,,,,,,,,,,,,,,,,,,,,,,,,,,,,,,,,
1656265904.738282,7.000000,0.000000,4328.717773,4330.256348,4155.897461,4148.205078,4286.153809,450.000000,4.000000,95.000000,,,,0.000000,4.000000,4.000000,4.000000,4.000000,4.000000,100.000000,,,,,,,,,,,,,,,,,,,,,,,,,,,,,,,,,,,,,,,,,,,,,,,,,,,,,,,,,,,,,,,
1656265904.746096,8.000000,0.000000,4346.666504,4324.102539,4170.256348,4161.538574,4302.051270,450.000000,4.000000,95.000000,,,,0.000000,4.000000,4.000000,4.000000,4.000000,4.000000,100.000000,,,,,,,,,,,,,,,,,,,,,,,,,,,,,,,,,,,,,,,,,,,,,,,,,,,,,,,,,,,,,,,
1656265904.754010,9.000000,0.000000,4357.436035,4347.179688,4176.922852,4161.538574,4310.769043,16140.000000,4.000000,95.000000,,,,0.000000,4.000000,4.000000,4.000000,4.000000,4.000000,100.000000,,,,,,,,,,,,,,,,,,,,,,,,,,,,,,,,,,,,,,,,,,,,,,,,,,,,,,,,,,,,,,,
1656265904.761825,10.000000,0.000000,4338.461426,4354.871582,4168.717773,4153.333496,4298.974121,450.000000,4.000000,95.000000,,,,0.000000,4.000000,4.000000,4.000000,4.000000,4.000000,100.000000,,,,,,,,,,,,,,,,,,,,,,,,,,,,,,,,,,,,,,,,,,,,,,,,,,,,,,,,,,,,,,,
1656265904.769739,11.000000,0.000000,4335.384766,4311.794922,4177.948730,4156.410156,4271.794922,16224.000000,4.000000,95.000000,,,,0.000000,4.000000,4.000000,4.000000,4.000000,4.000000,100.000000,,,,,,,,,,,,,,,,,,,,,,,,,,,,,,,,,,,,,,,,,,,,,,,,,,,,,,,,,,,,,,,
1656265904.777553,12.000000,0.000000,4360.000000,4298.974121,4179.487305,4172.307617,4280.000000,450.000000,4.000000,95.000000,,,,0.000000,4.000000,4.000000,4.000000,4.000000,4.000000,100.000000,,,,,,,,,,,,,,,,,,,,,,,,,,,,,,,,,,,,,,,,,,,,,,,,,,,,,,,,,,,,,,,
1656265904.785468,13.000000,0.000000,4363.589844,4325.128418,4180.512695,4169.743652,4303.589844,450.000000,4.000000,95.000000,,,,0.000000,4.000000,4.000000,4.000000,4.000000,4.000000,100.000000,,,,,,,,,,,,,,,,,,,,,,,,,,,,,,,,,,,,,,,,,,,,,,,,,,,,,,,,,,,,,,,
1656265904.793282,14.000000,0.000000,4334.358887,4311.794922,4197.948730,4130.256348,4281.025879,450.000000,4.000000,95.000000,,,,0.000000,4.000000,4.000000,4.000000,4.000000,4.000000,100.000000,,,,,,,,,,,,,,,,,,,,,,,,,,,,,,,,,,,,,,,,,,,,,,,,,,,,,,,,,,,,,,,
1656265904.801196,15.000000,0.000000,4326.666504,4298.974121,4196.410156,4127.692383,4264.102539,16224.000000,4.000000,95.000000,,,,0.000000,4.000000,4.000000,4.000000,4.000000,4.000000,100.000000,,,,,,,,,,,,,,,,,,,,,,,,,,,,,,,,,,,,,,,,,,,,,,,,,,,,,,,,,,,,,,,
1656265904.809011,16.000000,0.000000,4349.743652,4318.974121,4161.538574,4171.282227,4298.461426,0.000000,4.000000,95.000000,,,,0.000000,4.000000,4.000000,4.000000,4.000000,4.000000,100.000000,,,,,,,,,,,,,,,,,,,,,,,,,,,,,,,,,,,,,,,,,,,,,,,,,,,,,,,,,,,,,,,
1656265904.816725,17.000000,0.000000,4346.666504,4330.769043,4139.487305,4181.025879,4315.384766,0.000000,4.000000,95.000000,,,,0.000000,4.000000,4.000000,4.000000,4.000000,4.000000,100.000000,,,,,,,,,,,,,,,,,,,,,,,,,,,,,,,,,,,,,,,3.499483,3.189319,1.572415,2.437465,1.403112,2.907406,4.165858,1.704571,2.439177,2.015563,3.121979,6.593801,1.161203,1.298951,1.183769,3.058989,2.014377,2.733419,1.834737,1.572660,3.201578,4.882325,1.513075,1.598161,1.630625
1656265904.824640,18.000000,0.000000,4335.384766,4318.461426,4160.512695,4155.897461,4288.717773,0.000000,4.000000,95.000000,,,,0.000000,4.000000,4.000000,4.000000,4.000000,4.000000,100.000000,,,,,,,,,,,,,,,,,,,,,,,,,,,,,,,,,,,,,,,,,,,,,,,,,,,,,,,,,,,,,,,
1656265904.832454,19.000000,0.000000,4353.846191,4302.051270,4171.794922,4145.128418,4276.410156,0.000000,4.000000,95.000000,,,,0.000000,4.000000,4.000000,4.000000,4.000000,4.000000,100.000000,,,,,,,,,,,,,,,,,,,,,,,,,,,,,,,,,,,,,,,,,,,,,,,,,,,,,,,,,,,,,,,
1656265904.840368,20.000000,0.000000,4366.153809,4314.358887,4161.025879,4175.384766,4296.922852,0.000000,4.000000,95.000000,,,,0.000000,4.000000,4.000000,4.000000,4.000000,4.000000,100.000000,,,,,,,,,,,,,,,,,,,,,,,,,,,,,,,,,,,,,,,,,,,,,,,,,,,,,,,,,,,,,,,
1656265904.848183,21.000000,0.000000,4345.641113,4326.666504,4167.692383,4184.615234,4295.384766,0.000000,4.000000,95.000000,,,,0.000000,4.000000,4.000000,4.000000,4.000000,4.000000,100.000000,,,,,,,,,,,,,,,,,,,,,,,,,,,,,,,,,,,,,,,,,,,,,,,,,,,,,,,,,,,,,,,
1656265904.855997,22.000000,0.000000,4328.717773,4307.179688,4183.077148,4152.820313,4260.512695,0.000000,4.000000,95.000000,,,,0.000000,4.000000,4.000000,4.000000,4.000000,4.000000,100.000000,,,,,,,,,,,,,,,,,,,,,,,,,,,,,,,,,,,,,,,,,,,,,,,,,,,,,,,,,,,,,,,
1656265904.863712,23.000000,0.000000,4337.436035,4316.410156,4171.794922,4154.871582,4268.717773,0.000000,4.000000,95.000000,,,,0.000000,4.000000,4.000000,4.000000,4.000000,4.000000,100.000000,,,,,,,,,,,,,,,,,,,,,,,,,,,,,,,,,,,,,,,,,,,,,,,,,,,,,,,,,,,,,,,
1656265904.871526,24.000000,0.000000,4338.974121,4345.128418,4143.077148,4169.743652,4306.666504,0.000000,4.000000,95.000000,,,,0.000000,4.000000,4.000000,4.000000,4.000000,4.000000,100.000000,,,,,,,,,,,,,,,,,,,,,,,,,,,,,,,,,,,,,,,,,,,,,,,,,,,,,,,,,,,,,,,
1656265904.879241,25.000000,0.000000,4343.589844,4321.025879,4150.256348,4151.282227,4308.717773,0.000000,4.000000,95.000000,,,,0.000000,4.000000,4.000000,4.000000,4.000000,4.000000,100.000000,,,,,,,,,,,,,,,,,,,,,,,,,,,,,,,,,,,,,,,,,,,,,,,,,,,,,,,,,,,,,,,
1656265904.887155,26.000000,0.000000,4351.282227,4306.153809,4157.436035,4142.563965,4300.000000,0.000000,4.000000,95.000000,,,,0.000000,4.000000,4.000000,4.000000,4.000000,4.000000,100.000000,,,,,,,,,,,,,,,,,,,,,,,,,,,,,,,,,,,,,,,,,,,,,,,,,,,,,,,,,,,,,,,
1656265904.894969,27.000000,0.000000,4321.538574,4338.974121,4134.871582,4165.641113,4299.487305,0.000000,4.000000,95.000000,,,,0.000000,4.000000,4.000000,4.000000,4.000000,4.000000,100.000000,,,,,,,,,,,,,,,,,,,,,,,,,,,,,,,,,,,,,,,,,,,,,,,,,,,,,,,,,,,,,,,
1656265904.902884,28.000000,0.000000,4312.307617,4350.256348,4147.692383,4185.641113,4300.512695,0.000000,4.000000,95.000000,,,,0.000000,4.000000,4.000000,4.000000,4.000000,4.000000,100.000000,,,,,,,,,,,,,,,,,,,,,,,,,,,,,,,,,,,,,,,,,,,,,,,,,,,,,,,,,,,,,,,
1656265904.910698,29.000000,0.000000,4347.692383,4318.461426,4180.512695,4186.666504,4297.948730,0.000000,4.000000,95.000000,,,,0.000000,4.000000,4.000000,4.000000,4.000000,4.000000,100.000000,,,,,,,,,,,,,,,,,,,,,,,,,,,,,,,,,,,,,,,,,,,,,,,,,,,,,,,,,,,,,,,
1656265904.918612,30.000000,0.000000,4364.102539,4310.769043,4176.410156,4187.179688,4297.436035,0.000000,4.000000,95.000000,,,,0.000000,4.000000,4.000000,4.000000,4.000000,4.000000,100.000000,,,,,,,,,,,,,,,,,,,,,,,,,,,,,,,,,,,,,,,,,,,,,,,,,,,,,,,,,,,,,,,
1656265904.926427,31.000000,0.000000,4342.051270,4338.974121,4173.846191,4186.666504,4300.000000,0.000000,4.000000,95.000000,,,,0.000000,4.000000,4.000000,4.000000,4.000000,4.000000,100.000000,,,,,,,,,,,,,,,,,,,,,,,,,,,,,,,,,,,,,,,,,,,,,,,,,,,,,,,,,,,,,,,
1656265904.934341,32.000000,0.000000,4331.794922,4335.897461,4187.179688,4174.871582,4292.820313,0.000000,4.000000,95.000000,,,,0.000000,4.000000,4.000000,4.000000,4.000000,4.000000,100.000000,,,,,,,,,,,,,,,,,,,,,,,,,,,,,,,,,,,,,,,,,,,,,,,,,,,,,,,,,,,,,,,
1656265904.942155,33.000000,0.000000,4354.358887,4317.436035,4189.743652,4171.282227,4297.436035,0.000000,4.000000,95.000000,,,,0.000000,4.000000,4.000000,4.000000,4.000000,4.000000,100.000000,,,,,,,,,,,,,,,,,,,,,,,,,,,,,,,,,,,,,,,4.160836,3.630982,1.744480,2.302504,1.327897,3.073596,4.282703,1.916319,2.476327,1.961599,3.089107,4.970923,1.022313,1.379487,1.098521,3.836083,2.049802,3.011907,1.934475,1.636184,3.928498,4.631668,1.308384,1.532668,1.741541
1656265904.950070,34.000000,0.000000,4349.743652,4317.948730,4182.051270,4157.948730,4303.589844,0.000000,4.000000,95.000000,,,,0.000000,4.000000,4.000000,4.000000,4.000000,4.000000,100.000000,,,,,,,,,,,,,,,,,,,,,,,,,,,,,,,,,,,,,,,,,,,,,,,,,,,,,,,,,,,,,,,
1656265904.957884,35.000000,0.000000,4313.846191,4318.974121,4168.205078,4137.948730,4290.769043,0.000000,4.000000,95.000000,,,,0.000000,4.000000,4.000000,4.000000,4.000000,4.000000,100.000000,,,,,,,,,,,,,,,,,,,,,,,,,,,,,,,,,,,,,,,,,,,,,,,,,,,,,,,,,,,,,,,
1656265904.965798,36.000000,0.000000,4305.641113,4319.487305,4152.820313,4147.179688,4279.487305,0.000000,4.000000,95.000000,,,,0.000000,4.000000,4.000000,4.000000,4.000000,4.000000,100.000000,,,,,,,,,,,,,,,,,,,,,,,,,,,,,,,,,,,,,,,,,,,,,,,,,,,,,,,,,,,,,,,
1656265904.973713,37.000000,0.000000,4317.436035,4317.436035,4151.282227,4144.102539,4278.461426,0.000000,4.000000,95.000000,,,,0.000000,4.000000,4.000000,4.000000,4.000000,4.000000,100.000000,,,,,,,,,,,,,,,,,,,,,,,,,,,,,,,,,,,,,,,,,,,,,,,,,,,,,,,,,,,,,,,
1656265904.981527,38.000000,0.000000,4330.769043,4307.692383,4163.589844,4126.666504,4287.692383,0.000000,4.000000,95.000000,,,,0.000000,4.000000,4.000000,4.000000,4.000000,4.000000,100.000000,,,,,,,,,,,,,,,,,,,,,,,,,,,,,,,,,,,,,,,,,,,,,,,,,,,,,,,,,,,,,,,
1656265904.989342,39.000000,0.000000,4349.743652,4292.820313,4157.436035,4157.436035,4298.461426,0.000000,4.000000,95.000000,,,,0.000000,4.000000,4.000000,4.000000,4.000000,4.000000,100.000000,,,,,,,,,,,,,,,,,,,,,,,,,,,,,,,,,,,,,,,,,,,,,,,,,,,,,,,,,,,,,,,
1656265904.997056,40.000000,0.000000,4354.358887,4280.512695,4151.282227,4177.948730,4286.666504,0.000000,4.000000,95.000000,,,,0.000000,4.000000,4.000000,4.000000,4.000000,4.000000,100.000000,,,,,,,,,,,,,,,,,,,,,,,,,,,,,,,,,,,,,,,,,,,,,,,,,,,,,,,,,,,,,,,
1656265905.004870,41.000000,0.000000,4344.615234,4294.358887,4158.461426,4154.871582,4288.717773,0.000000,4.000000,95.000000,,,,0.000000,4.000000,4.000000,4.000000,4.000000,4.000000,100.000000,,,,,,,,,,,,,,,,,,,,,,,,,,,,,,,,,,,,,,,,,,,,,,,,,,,,,,,,,,,,,,,
1656265905.012585,42.000000,0.000000,4335.384766,4324.615234,4146.666504,4152.820313,4318.974121,0.000000,4.000000,95.000000,,,,0.000000,4.000000,4.000000,4.000000,4.000000,4.000000,100.000000,,,,,,,,,,,,,,,,,,,,,,,,,,,,,,,,,,,,,,,,,,,,,,,,,,,,,,,,,,,,,,,
1656265905.020399,43.000000,0.000000,4343.077148,4320.000000,4143.589844,4162.563965,4322.563965,0.000000,4.000000,95.000000,,,,0.000000,4.000000,4.000000,4.000000,4.000000,4.000000,100.000000,,,,,,,,,,,,,,,,,,,,,,,,,,,,,,,,,,,,,,,,,,,,,,,,,,,,,,,,,,,,,,,
1656265905.028114,44.000000,0.000000,4351.794922,4305.128418,4147.179688,4155.897461,4309.230957,0.000000,4.000000,95.000000,,,,0.000000,4.000000,4.000000,4.000000,4.000000,4.000000,100.000000,,,,,,,,,,,,,,,,,,,,,,,,,,,,,,,,,,,,,,,,,,,,,,,,,,,,,,,,,,,,,,,
1656265905.035928,45.000000,0.000000,4327.179688,4312.820313,4128.717773,4154.358887,4297.948730,0.000000,4.000000,95.000000,,,,0.000000,4.000000,4.000000,4.000000,4.000000,4.000000,100.000000,,,,,,,,,,,,,,,,,,,,,,,,,,,,,,,,,,,,,,,,,,,,,,,,,,,,,,,,,,,,,,,
1656265905.043643,46.000000,0.000000,4307.179688,4324.615234,4130.256348,4156.922852,4280.512695,0.000000,4.000000,95.000000,,,,0.000000,4.000000,4.000000,4.000000,4.000000,4.000000,100.000000,,,,,,,,,,,,,,,,,,,,,,,,,,,,,,,,,,,,,,,,,,,,,,,,,,,,,,,,,,,,,,,
1656265905.051557,47.000000,0.000000,4310.256348,4323.589844,4145.128418,4140.512695,4265.641113,0.000000,4.000000,95.000000,,,,0.000000,4.000000,4.000000,4.000000,4.000000,4.000000,100.000000,,,,,,,,,,,,,,,,,,,,,,,,,,,,,,,,,,,,,,,,,,,,,,,,,,,,,,,,,,,,,,,
1656265905.059372,48.000000,0.000000,4308.205078,4316.922852,4134.871582,4131.794922,4271.794922,0.000000,4.000000,95.000000,,,,0.000000,4.000000,4.000000,4.000000,4.000000,4.000000,100.000000,,,,,,,,,,,,,,,,,,,,,,,,,,,,,,,,,,,,,,,,,,,,,,,,,,,,,,,,,,,,,,,
1656265905.067186,49.000000,0.000000,4307.179688,4297.948730,4135.384766,4137.436035,4267.692383,0.000000,4.000000,95.000000,,,,0.000000,4.000000,4.000000,4.000000,4.000000,4.000000,100.000000,,,,,,,,,,,,,,,,,,,,,,,,,,,,,,,,,,,,,,,4.851405,4.254522,1.904384,2.164999,1.300374,3.126549,4.286862,2.136934,2.439858,1.941200,3.319582,4.074259,0.942527,1.555961,1.026460,4.599463,2.231845,3.146849,2.103652,1.700340,4.618546,4.345003,1.236762,1.498246,1.910154
1656265905.074900,50.000000,0.000000,4311.282227,4279.487305,4158.974121,4128.717773,4242.563965,0.000000,4.000000,95.000000,,,,0.000000,4.000000,4.000000,4.000000,4.000000,4.000000,100.000000,,,,,,,,,,,,,,,,,,,,,,,,,,,,,,,,,,,,,,,,,,,,,,,,,,,,,,,,,,,,,,,
1656265905.082815,51.000000,0.000000,4315.384766,4308.205078,4157.436035,4136.922852,4246.153809,0.000000,4.000000,95.000000,,,,0.000000,4.000000,4.000000,4.000000,4.000000,4.000000,100.000000,,,,,,,,,,,,,,,,,,,,,,,,,,,,,,,,,,,,,,,,,,,,,,,,,,,,,,,,,,,,,,,
1656265905.090629,52.000000,0.000000,4313.333496,4329.230957,4129.743652,4158.461426,4269.230957,0.000000,4.000000,95.000000,,,,0.000000,4.000000,4.000000,4.000000,4.000000,4.000000,100.000000,,,,,,,,,,,,,,,,,,,,,,,,,,,,,,,,,,,,,,,,,,,,,,,,,,,,,,,,,,,,,,,
1656265905.098543,53.000000,0.000000,4305.641113,4308.205078,4115.897461,4158.461426,4272.820313,0.000000,4.000000,95.000000,,,,0.000000,4.000000,4.000000,4.000000,4.000000,4.000000,100.000000,,,,,,,,,,,,,,,,,,,,,,,,,,,,,,,,,,,,,,,,,,,,,,,,,,,,,,,,,,,,,,,
1656265905.106358,54.000000,0.000000,4294.871582,4311.794922,4127.179688,4149.743652,4257.948730,0.000000,4.000000,95.000000,,,,0.000000,4.000000,4.000000,4.000000,4.000000,4.000000,100.000000,,,,,,,,,,,,,,,,,,,,,,,,,,,,,,,,,,,,,,,,,,,,,,,,,,,,,,,,,,,,,,,
1656265905.114272,55.000000,0.000000,4282.563965,4324.615234,4137.436035,4140.512695,4247.179688,0.000000,4.000000,95.000000,,,,0.000000,4.000000,4.000000,4.000000,4.000000,4.000000,100.000000,,,,,,,,,,,,,,,,,,,,,,,,,,,,,,,,,,,,,,,,,,,,,,,,,,,,,,,,,,,,,,,
1656265905.122087,56.000000,0.000000,4295.897461,4310.769043,4145.641113,4135.384766,4261.025879,0.000000,4.000000,95.000000,,,,0.000000,4.000000,4.000000,4.000000,4.000000,4.000000,100.000000,,,,,,,,,,,,,,,,,,,,,,,,,,,,,,,,,,,,,,,,,,,,,,,,,,,,,,,,,,,,,,,
1656265905.130001,57.000000,0.000000,4331.794922,4284.615234,4150.256348,4148.205078,4271.794922,0.000000,4.000000,95.000000,,,,0.000000,4.000000,4.000000,4.000000,4.000000,4.000000,100.000000,,,,,,,,,,,,,,,,,,,,,,,,,,,,,,,,,,,,,,,,,,,,,,,,,,,,,,,,,,,,,,,
1656265905.137815,58.000000,0.000000,4334.871582,4273.846191,4144.102539,4157.436035,4264.615234,0.000000,4.000000,95.000000,,,,0.000000,4.000000,4.000000,4.000000,4.000000,4.000000,100.000000,,,,,,,,,,,,,,,,,,,,,,,,,,,,,,,,,,,,,,,,,,,,,,,,,,,,,,,,,,,,,,,
1656265905.145730,59.000000,0.000000,4326.666504,4271.794922,4142.563965,4156.410156,4264.615234,0.000000,4.000000,95.000000,,,,0.000000,4.000000,4.000000,4.000000,4.000000,4.000000,100.000000,,,,,,,,,,,,,,,,,,,,,,,,,,,,,,,,,,,,,,,,,,,,,,,,,,,,,,,,,,,,,,,
1656265905.153544,60.000000,0.000000,4337.948730,4269.230957,4130.256348,4160.000000,4273.333496,0.000000,4.000000,95.000000,,,,0.000000,4.000000,4.000000,4.000000,4.000000,4.000000,100.000000,,,,,,,,,,,,,,,,,,,,,,,,,,,,,,,,,,,,,,,,,,,,,,,,,,,,,,,,,,,,,,,
1656265905.161458,61.000000,0.000000,4340.512695,4278.974121,4118.974121,4164.615234,4284.102539,0.000000,4.000000,95.000000,,,,0.000000,4.000000,4.000000,4.000000,4.000000,4.000000,100.000000,,,,,,,,,,,,,,,,,,,,,,,,,,,,,,,,,,,,,,,,,,,,,,,,,,,,,,,,,,,,,,,
1656265905.169273,62.000000,0.000000,4326.666504,4291.794922,4138.461426,4149.743652,4276.410156,0.000000,4.000000,95.000000,,,,0.000000,4.000000,4.000000,4.000000,4.000000,4.000000,100.000000,,,,,,,,,,,,,,,,,,,,,,,,,,,,,,,,,,,,,,,,,,,,,,,,,,,,,,,,,,,,,,,
1656265905.176987,63.000000,0.000000,4322.051270,4288.205078,4162.051270,4134.358887,4258.461426,0.000000,4.000000,95.000000,,,,0.000000,4.000000,4.000000,4.000000,4.000000,4.000000,100.000000,,,,,,,,,,,,,,,,,,,,,,,,,,,,,,,,,,,,,,,,,,,,,,,,,,,,,,,,,,,,,,,
1656265905.184802,64.000000,0.000000,4336.410156,4299.487305,4162.563965,4149.743652,4284.102539,450.000000,4.000000,95.000000,,,,0.000000,4.000000,4.000000,4.000000,4.000000,4.000000,100.000000,,,,,,,,,,,,,,,,,,,,,,,,,,,,,,,,,,,,,,,,,,,,,,,,,,,,,,,,,,,,,,,
1656265905.192516,65.000000,0.000000,4327.692383,4320.512695,4157.948730,4153.333496,4297.436035,450.000000,4.000000,95.000000,,,,0.000000,4.000000,4.000000,4.000000,4.000000,4.000000,100.000000,1.000000,100.000000,4.000000,4.000000,4.000000,4.000000,4.000000,,,,,,,,,,,,,,,,,,,,,,,,,,,,,,,,5.372072,4.872633,2.057743,2.028452,1.347107,3.118074,4.151927,2.281420,2.314804,1.942574,3.711947,3.609662,1.004635,1.771796,0.996443,5.151836,2.497704,3.145776,2.304535,1.772092,5.152285,4.026706,1.290545,1.544892,2.111531
1656265905.200331,66.000000,0.000000,4290.769043,4323.077148,4164.102539,4141.538574,4253.333496,16199.000000,4.000000,95.000000,,,,0.000000,4.000000,4.000000,4.000000,4.000000,4.000000,100.000000,,,,,,,,,,,,,,,,,,,,,,,,,,,,,,,,,,,,,,,,,,,,,,,,,,,,,,,,,,,,,,,
1656265905.208045,67.000000,0.000000,4289.230957,4310.769043,4163.077148,4161.538574,4235.897461,450.000000,4.000000,95.000000,,,,0.000000,4.000000,4.000000,4.000000,4.000000,4.000000,100.000000,,,,,,,,,,,,,,,,,,,,,,,,,,,,,,,,,,,,,,,,,,,,,,,,,,,,,,,,,,,,,,,
1656265905.215859,68.000000,0.000000,4330.769043,4290.769043,4157.436035,4180.512695,4270.256348,16151.000000,4.000000,95.000000,,,,0.000000,4.000000,4.000000,4.000000,4.000000,4.000000,100.000000,,,,,,,,,,,,,,,,,,,,,,,,,,,,,,,,,,,,,,,,,,,,,,,,,,,,,,,,,,,,,,,
1656265905.223574,69.000000,0.000000,4353.846191,4295.384766,4177.436035,4171.282227,4296.922852,450.000000,4.000000,95.000000,,,,0.000000,4.000000,4.000000,4.000000,4.000000,4.000000,100.000000,,,,,,,,,,,,,,,,,,,,,,,,,,,,,,,,,,,,,,,,,,,,,,,,,,,,,,,,,,,,,,,
1656265905.231388,70.000000,0.000000,4327.179688,4318.461426,4187.692383,4153.846191,4282.563965,16186.000000,4.000000,95.000000,,,,0.000000,4.000000,4.000000,4.000000,4.000000,4.000000,100.000000,,,,,,,,,,,,,,,,,,,,,,,,,,,,,,,,,,,,,,,,,,,,,,,,,,,,,,,,,,,,,,,
1656265905.239103,71.000000,0.000000,4313.333496,4311.282227,4164.102539,4147.692383,4263.077148,450.000000,4.000000,95.000000,,,,0.000000,4.000000,4.000000,4.000000,4.000000,4.000000,100.000000,,,,,,,,,,,,,,,,,,,,,,,,,,,,,,,,,,,,,,,,,,,,,,,,,,,,,,,,,,,,,,,
1656265905.246917,72.000000,0.000000,4326.666504,4298.974121,4160.512695,4143.589844,4271.794922,450.000000,4.000000,95.000000,,,,0.000000,4.000000,4.000000,4.000000,4.000000,4.000000,100.000000,,,,,,,,,,,,,,,,,,,,,,,,,,,,,,,,,,,,,,,,,,,,,,,,,,,,,,,,,,,,,,,
1656265905.254632,73.000000,0.000000,4317.948730,4302.563965,4172.820313,4135.897461,4283.589844,16179.000000,4.000000,95.000000,,,,0.000000,4.000000,4.000000,4.000000,4.000000,4.000000,100.000000,,,,,,,,,,,,,,,,,,,,,,,,,,,,,,,,,,,,,,,,,,,,,,,,,,,,,,,,,,,,,,,
1656265905.262446,74.000000,0.000000,4320.000000,4310.769043,4172.307617,4144.615234,4293.846191,450.000000,4.000000,95.000000,,,,0.000000,4.000000,4.000000,4.000000,4.000000,4.000000,100.000000,,,,,,,,,,,,,,,,,,,,,,,,,,,,,,,,,,,,,,,,,,,,,,,,,,,,,,,,,,,,,,,
1656265905.270161,75.000000,0.000000,4333.333496,4314.871582,4172.820313,4149.230957,4289.743652,16198.000000,4.000000,95.000000,,,,0.000000,4.000000,4.000000,4.000000,4.000000,4.000000,100.000000,,,,,,,,,,,,,,,,,,,,,,,,,,,,,,,,,,,,,,,,,,,,,,,,,,,,,,,,,,,,,,,
1656265905.278075,76.000000,0.000000,4327.692383,4309.743652,4179.487305,4133.846191,4268.717773,450.000000,4.000000,95.000000,,,,0.000000,4.000000,4.000000,4.000000,4.000000,4.000000,100.000000,,,,,,,,,,,,,,,,,,,,,,,,,,,,,,,,,,,,,,,,,,,,,,,,,,,,,,,,,,,,,,,
1656265905.285889,77.000000,0.000000,4333.846191,4318.974121,4159.487305,4148.205078,4283.077148,450.000000,4.000000,95.000000,,,,0.000000,4.000000,4.000000,4.000000,4.000000,4.000000,100.000000,,,,,,,,,,,,,,,,,,,,,,,,,,,,,,,,,,,,,,,,,,,,,,,,,,,,,,,,,,,,,,,
1656265905.293804,78.000000,0.000000,4345.128418,4335.897461,4134.358887,4165.128418,4303.077148,450.000000,4.000000,95.000000,,,,0.000000,4.000000,4.000000,4.000000,4.000000,4.000000,100.000000,,,,,,,,,,,,,,,,,,,,,,,,,,,,,,,,,,,,,,,,,,,,,,,,,,,,,,,,,,,,,,,
1656265905.301618,79.000000,0.000000,4340.000000,4324.102539,4155.384766,4149.230957,4292.307617,16198.000000,4.000000,95.000000,,,,0.000000,4.000000,4.000000,4.000000,4.000000,4.000000,100.000000,,,,,,,,,,,,,,,,,,,,,,,,,,,,,,,,,,,,,,,,,,,,,,,,,,,,,,,,,,,,,,,
1656265905.309532,80.000000,0.000000,4335.897461,4317.436035,4165.128418,4150.256348,4302.051270,450.000000,4.000000,95.000000,,,,0.000000,4.000000,4.000000,4.000000,4.000000,4.000000,100.000000,,,,,,,,,,,,,,,,,,,,,,,,,,,,,,,,,,,,,,,,,,,,,,,,,,,,,,,,,,,,,,,
1656265905.317347,81.000000,0.000000,4330.769043,4328.717773,4145.641113,4158.974121,4313.846191,450.000000,4.000000,95.000000,,,,0.000000,4.000000,4.000000,4.000000,4.000000,4.000000,100.000000,,,,,,,,,,,,,,,,,,,,,,,,,,,,,,,,,,,,,,,5.616591,5.270519,2.226481,1.899294,1.470039,3.111713,3.855728,2.307391,2.106041,1.956750,4.110051,3.271144,1.302127,1.942065,1.008831,5.307144,2.775309,3.082720,2.476790,1.841140,5.430721,3.684934,1.426241,1.672109,2.302831
1656265905.325261,82.000000,0.000000,4341.538574,4324.615234,4149.230957,4155.897461,4298.974121,450.000000,4.000000,95.000000,,,,0.000000,4.000000,4.000000,4.000000,4.000000,4.000000,100.000000,,,,,,,,,,,,,,,,,,,,,,,,,,,,,,,,,,,,,,,,,,,,,,,,,,,,,,,,,,,,,,,
1656265905.333076,83.000000,0.000000,4362.051270,4302.051270,4151.282227,4156.922852,4296.922852,16198.000000,4.000000,95.000000,,,,0.000000,4.000000,4.000000,4.000000,4.000000,4.000000,100.000000,,,,,,,,,,,,,,,,,,,,,,,,,,,,,,,,,,,,,,,,,,,,,,,,,,,,,,,,,,,,,,,
1656265905.340990,84.000000,0.000000,4352.820313,4287.179688,4142.051270,4147.692383,4304.102539,450.000000,4.000000,95.000000,,,,0.000000,4.000000,4.000000,4.000000,4.000000,4.000000,100.000000,,,,,,,,,,,,,,,,,,,,,,,,,,,,,,,,,,,,,,,,,,,,,,,,,,,,,,,,,,,,,,,
1656265905.348804,85.000000,0.000000,4331.794922,4302.051270,4138.461426,4129.743652,4301.025879,450.000000,4.000000,95.000000,,,,0.000000,4.000000,4.000000,4.000000,4.000000,4.000000,100.000000,,,,,,,,,,,,,,,,,,,,,,,,,,,,,,,,,,,,,,,,,,,,,,,,,,,,,,,,,,,,,,,
1656265905.356719,86.000000,0.000000,4329.230957,4321.538574,4136.410156,4130.256348,4285.641113,450.000000,4.000000,95.000000,,,,0.000000,4.000000,4.000000,4.000000,4.000000,4.000000,100.000000,,,,,,,,,,,,,,,,,,,,,,,,,,,,,,,,,,,,,,,,,,,,,,,,,,,,,,,,,,,,,,,
1656265905.364633,87.000000,0.000000,4335.897461,4318.974121,4134.871582,4145.128418,4272.307617,16198.000000,4.000000,95.000000,,,,0.000000,4.000000,4.000000,4.000000,4.000000,4.000000,100.000000,,,,,,,,,,,,,,,,,,,,,,,,,,,,,,,,,,,,,,,,,,,,,,,,,,,,,,,,,,,,,,,
1656265905.372447,88.000000,0.000000,4322.563965,4307.179688,4127.179688,4129.230957,4278.461426,450.000000,4.000000,95.000000,,,,0.000000,4.000000,4.000000,4.000000,4.000000,4.000000,100.000000,,,,,,,,,,,,,,,,,,,,,,,,,,,,,,,,,,,,,,,,,,,,,,,,,,,,,,,,,,,,,,,
1656265905.380362,89.000000,0.000000,4313.333496,4309.230957,4131.794922,4112.820313,4287.179688,450.000000,4.000000,95.000000,,,,0.000000,4.000000,4.000000,4.000000,4.000000,4.000000,100.000000,,,,,,,,,,,,,,,,,,,,,,,,,,,,,,,,,,,,,,,,,,,,,,,,,,,,,,,,,,,,,,,
1656265905.388176,90.000000,0.000000,4344.102539,4284.102539,4156.410156,4125.641113,4268.205078,450.000000,4.000000,95.000000,,,,0.000000,4.000000,4.000000,4.000000,4.000000,4.000000,100.000000,,,,,,,,,,,,,,,,,,,,,,,,,,,,,,,,,,,,,,,,,,,,,,,,,,,,,,,,,,,,,,,
1656265905.396090,91.000000,0.000000,4366.666504,4251.282227,4154.871582,4136.410156,4254.358887,16198.000000,4.000000,95.000000,,,,0.000000,4.000000,4.000000,4.000000,4.000000,4.000000,100.000000,,,,,,,,,,,,,,,,,,,,,,,,,,,,,,,,,,,,,,,,,,,,,,,,,,,,,,,,,,,,,,,
1656265905.403905,92.000000,0.000000,4345.641113,4280.512695,4144.102539,4130.769043,4278.974121,450.000000,4.000000,95.000000,,,,0.000000,4.000000,4.000000,4.000000,4.000000,4.000000,100.000000,,,,,,,,,,,,,,,,,,,,,,,,,,,,,,,,,,,,,,,,,,,,,,,,,,,,,,,,,,,,,,,
1656265905.411819,93.000000,0.000000,4321.025879,4290.769043,4155.897461,4104.102539,4277.436035,450.000000,4.000000,95.000000,,,,0.000000,4.000000,4.000000,4.000000,4.000000,4.000000,100.000000,,,,,,,,,,,,,,,,,,,,,,,,,,,,,,,,,,,,,,,,,,,,,,,,,,,,,,,,,,,,,,,
1656265905.419633,94.000000,0.000000,4328.205078,4264.615234,4145.641113,4095.384521,4250.769043,450.000000,4.000000,95.000000,,,,0.000000,4.000000,4.000000,4.000000,4.000000,4.000000,100.000000,,,,,,,,,,,,,,,,,,,,,,,,,,,,,,,,,,,,,,,,,,,,,,,,,,,,,,,,,,,,,,,
1656265905.427548,95.000000,0.000000,4328.205078,4289.230957,4123.077148,4116.410156,4265.641113,16198.000000,4.000000,95.000000,,,,0.000000,4.000000,4.000000,4.000000,4.000000,4.000000,100.000000,,,,,,,,,,,,,,,,,,,,,,,,,,,,,,,,,,,,,,,,,,,,,,,,,,,,,,,,,,,,,,,
1656265905.435462,96.000000,0.000000,4310.256348,4297.948730,4123.589844,4119.487305,4280.512695,450.000000,4.000000,95.000000,,,,0.000000,4.000000,4.000000,4.000000,4.000000,4.000000,100.000000,,,,,,,,,,,,,,,,,,,,,,,,,,,,,,,,,,,,,,,,,,,,,,,,,,,,,,,,,,,,,,,
1656265905.443276,97.000000,0.000000,4314.358887,4271.794922,4125.128418,4112.820313,4266.666504,450.000000,4.000000,95.000000,,,,0.000000,4.000000,4.000000,4.000000,4.000000,4.000000,100.000000,,,,,,,,,,,,,,,,,,,,,,,,,,,,,,,,,,,,,,,5.505956,5.256292,2.437464,1.784925,1.641640,3.194685,3.459335,2.252771,1.840916,1.975638,4.415981,2.876498,1.829617,1.997529,1.040336,4.982908,2.995760,3.002962,2.551101,1.880771,5.382817,3.331045,1.582450,1.820548,2.439246
1656265905.451191,98.000000,0.000000,4313.846191,4284.615234,4114.358887,4109.743652,4261.538574,450.000000,4.000000,95.000000,,,,0.000000,4.000000,4.000000,4.000000,4.000000,4.000000,100.000000,,,,,,,,,,,,,,,,,,,,,,,,,,,,,,,,,,,,,,,,,,,,,,,,,,,,,,,,,,,,,,,
1656265905.459105,99.000000,0.000000,4299.487305,4308.205078,4114.358887,4120.000000,4275.897461,16198.000000,4.000000,95.000000,,,,0.000000,4.000000,4.000000,4.000000,4.000000,4.000000,100.000000,,,,,,,,,,,,,,,,,,,,,,,,,,,,,,,,,,,,,,,,,,,,,,,,,,,,,,,,,,,,,,,
1656265905.466919,100.000000,0.000000,4306.666504,4296.410156,4138.461426,4133.333496,4275.384766,450.000000,4.000000,95.000000,,,,0.000000,4.000000,4.000000,4.000000,4.000000,4.000000,100.000000,,,,,,,,,,,,,,,,,,,,,,,,,,,,,,,,,,,,,,,,,,,,,,,,,,,,,,,,,,,,,,,
1656265905.474834,101.000000,0.000000,4304.615234,4276.410156,4147.179688,4116.410156,4249.743652,450.000000,4.000000,95.000000,,,,0.000000,4.000000,4.000000,4.000000,4.000000,4.000000,100.000000,,,,,,,,,,,,,,,,,,,,,,,,,,,,,,,,,,,,,,,,,,,,,,,,,,,,,,,,,,,,,,,
1656265905.482648,102.000000,0.000000,4296.410156,4278.974121,4130.769043,4097.436035,4241.025879,450.000000,4.000000,95.000000,,,,0.000000,4.000000,4.000000,4.000000,4.000000,4.000000,100.000000,,,,,,,,,,,,,,,,,,,,,,,,,,,,,,,,,,,,,,,,,,,,,,,,,,,,,,,,,,,,,,,
1656265905.490562,103.000000,0.000000,4324.102539,4274.358887,4129.230957,4116.922852,4252.820313,16198.000000,4.000000,95.000000,,,,0.000000,4.000000,4.000000,4.000000,4.000000,4.000000,100.000000,,,,,,,,,,,,,,,,,,,,,,,,,,,,,,,,,,,,,,,,,,,,,,,,,,,,,,,,,,,,,,,
1656265905.498377,104.000000,0.000000,4341.025879,4268.205078,4138.461426,4138.974121,4265.641113,450.000000,4.000000,95.000000,,,,0.000000,4.000000,4.000000,4.000000,4.000000,4.000000,100.000000,,,,,,,,,,,,,,,,,,,,,,,,,,,,,,,,,,,,,,,,,,,,,,,,,,,,,,,,,,,,,,,
1656265905.506291,105.000000,0.000000,4323.077148,4281.538574,4138.461426,4131.794922,4265.128418,450.000000,4.000000,95.000000,,,,0.000000,4.000000,4.000000,4.000000,4.000000,4.000000,100.000000,,,,,,,,,,,,,,,,,,,,,,,,,,,,,,,,,,,,,,,,,,,,,,,,,,,,,,,,,,,,,,,
1656265905.514106,106.000000,0.000000,4317.436035,4282.563965,4138.461426,4111.282227,4244.615234,450.000000,4.000000,95.000000,,,,0.000000,4.000000,4.000000,4.000000,4.000000,4.000000,100.000000,,,,,,,,,,,,,,,,,,,,,,,,,,,,,,,,,,,,,,,,,,,,,,,,,,,,,,,,,,,,,,,
1656265905.522020,107.000000,0.000000,4327.179688,4271.282227,4149.743652,4104.102539,4245.128418,16198.000000,4.000000,95.000000,,,,0.000000,4.000000,4.000000,4.000000,4.000000,4.000000,100.000000,,,,,,,,,,,,,,,,,,,,,,,,,,,,,,,,,,,,,,,,,,,,,,,,,,,,,,,,,,,,,,,
1656265905.529834,108.000000,0.000000,4334.358887,4270.256348,4141.538574,4127.179688,4278.974121,450.000000,4.000000,95.000000,,,,0.000000,4.000000,4.000000,4.000000,4.000000,4.000000,100.000000,,,,,,,,,,,,,,,,,,,,,,,,,,,,,,,,,,,,,,,,,,,,,,,,,,,,,,,,,,,,,,,
1656265905.537749,109.000000,0.000000,4329.743652,4278.974121,4125.128418,4144.102539,4292.820313,450.000000,4.000000,95.000000,,,,0.000000,4.000000,4.000000,4.000000,4.000000,4.000000,100.000000,,,,,,,,,,,,,,,,,,,,,,,,,,,,,,,,,,,,,,,,,,,,,,,,,,,,,,,,,,,,,,,
1656265905.545563,110.000000,0.000000,4323.589844,4292.820313,4143.589844,4145.128418,4275.384766,450.000000,4.000000,95.000000,,,,0.000000,4.000000,4.000000,4.000000,4.000000,4.000000,100.000000,,,,,,,,,,,,,,,,,,,,,,,,,,,,,,,,,,,,,,,,,,,,,,,,,,,,,,,,,,,,,,,
1656265905.553477,111.000000,0.000000,4324.615234,4304.102539,4152.307617,4153.846191,4273.846191,16198.000000,4.000000,95.000000,,,,0.000000,4.000000,4.000000,4.000000,4.000000,4.000000,100.000000,,,,,,,,,,,,,,,,,,,,,,,,,,,,,,,,,,,,,,,,,,,,,,,,,,,,,,,,,,,,,,,
1656265905.561292,112.000000,0.000000,4326.666504,4299.487305,4142.051270,4152.820313,4291.794922,450.000000,4.000000,95.000000,,,,0.000000,4.000000,4.000000,4.000000,4.000000,4.000000,100.000000,,,,,,,,,,,,,,,,,,,,,,,,,,,,,,,,,,,,,,,,,,,,,,,,,,,,,,,,,,,,,,,
1656265905.569206,113.000000,0.000000,4334.358887,4283.077148,4150.769043,4140.512695,4286.153809,450.000000,4.000000,95.000000,,,,0.000000,4.000000,4.000000,4.000000,4.000000,4.000000,100.000000,,,,,,,,,,,,,,,,,,,,,,,,,,,,,,,,,,,,,,,5.156653,4.809224,2.710842,1.681029,1.810452,3.426962,3.080737,2.198903,1.556229,1.986032,4.621596,2.399334,2.455538,1.918045,1.061846,4.230690,3.143027,2.924441,2.476259,1.860343,5.038847,3.000837,1.728830,1.902490,2.491887
1656265905.577020,114.000000,0.000000,4342.051270,4272.307617,4157.436035,4136.922852,4260.000000,450.000000,4.000000,95.000000,,,,0.000000,4.000000,4.000000,4.000000,4.000000,4.000000,100.000000,,,,,,,,,,,,,,,,,,,,,,,,,,,,,,,,,,,,,,,,,,,,,,,,,,,,,,,,,,,,,,,
1656265905.584935,115.000000,0.000000,4340.000000,4284.102539,4151.282227,4141.025879,4273.333496,16198.000000,4.000000,95.000000,,,,0.000000,4.000000,4.000000,4.000000,4.000000,4.000000,100.000000,,,,,,,,,,,,,,,,,,,,,,,,,,,,,,,,,,,,,,,,,,,,,,,,,,,,,,,,,,,,,,,
1656265905.592749,116.000000,0.000000,4317.948730,4300.512695,4159.487305,4127.692383,4292.307617,450.000000,4.000000,95.000000,,,,0.000000,4.000000,4.000000,4.000000,4.000000,4.000000,100.000000,,,,,,,,,,,,,,,,,,,,,,,,,,,,,,,,,,,,,,,,,,,,,,,,,,,,,,,,,,,,,,,
1656265905.600663,117.000000,0.000000,4317.948730,4288.205078,4179.487305,4110.256348,4272.307617,450.000000,4.000000,95.000000,,,,0.000000,4.000000,4.000000,4.000000,4.000000,4.000000,100.000000,,,,,,,,,,,,,,,,,,,,,,,,,,,,,,,,,,,,,,,,,,,,,,,,,,,,,,,,,,,,,,,
1656265905.608578,118.000000,0.000000,4349.230957,4302.563965,4174.871582,4125.128418,4286.153809,450.000000,4.000000,95.000000,,,,0.000000,4.000000,4.000000,4.000000,4.000000,4.000000,100.000000,,,,,,,,,,,,,,,,,,,,,,,,,,,,,,,,,,,,,,,,,,,,,,,,,,,,,,,,,,,,,,,
1656265905.616392,119.000000,0.000000,4351.282227,4334.358887,4154.358887,4138.461426,4310.769043,16198.000000,4.000000,95.000000,,,,0.000000,4.000000,4.000000,4.000000,4.000000,4.000000,100.000000,,,,,,,,,,,,,,,,,,,,,,,,,,,,,,,,,,,,,,,,,,,,,,,,,,,,,,,,,,,,,,,
1656265905.624306,120.000000,0.000000,4326.666504,4318.461426,4150.256348,4126.153809,4289.230957,450.000000,4.000000,95.000000,,,,0.000000,4.000000,4.000000,4.000000,4.000000,4.000000,100.000000,,,,,,,,,,,,,,,,,,,,,,,,,,,,,,,,,,,,,,,,,,,,,,,,,,,,,,,,,,,,,,,
1656265905.632121,121.000000,0.000000,4300.000000,4292.307617,4158.461426,4112.820313,4270.769043,450.000000,4.000000,95.000000,,,,0.000000,4.000000,4.000000,4.000000,4.000000,4.000000,100.000000,,,,,,,,,,,,,,,,,,,,,,,,,,,,,,,,,,,,,,,,,,,,,,,,,,,,,,,,,,,,,,,
1656265905.640035,122.000000,0.000000,4308.205078,4301.025879,4173.846191,4123.589844,4283.589844,450.000000,4.000000,95.000000,,,,0.000000,4.000000,4.000000,4.000000,4.000000,4.000000,100.000000,,,,,,,,,,,,,,,,,,,,,,,,,,,,,,,,,,,,,,,,,,,,,,,,,,,,,,,,,,,,,,,
1656265905.647850,123.000000,0.000000,4348.205078,4316.922852,4185.641113,4138.461426,4298.974121,16198.000000,4.000000,95.000000,,,,0.000000,4.000000,4.000000,4.000000,4.000000,4.000000,100.000000,,,,,,,,,,,,,,,,,,,,,,,,,,,,,,,,,,,,,,,,,,,,,,,,,,,,,,,,,,,,,,,
1656265905.655764,124.000000,0.000000,4340.000000,4313.333496,4171.282227,4124.615234,4290.256348,450.000000,4.000000,95.000000,,,,0.000000,4.000000,4.000000,4.000000,4.000000,4.000000,100.000000,,,,,,,,,,,,,,,,,,,,,,,,,,,,,,,,,,,,,,,,,,,,,,,,,,,,,,,,,,,,,,,
1656265905.663578,125.000000,0.000000,4303.589844,4309.743652,4163.077148,4116.922852,4277.436035,450.000000,4.000000,95.000000,,,,0.000000,4.000000,4.000000,4.000000,4.000000,4.000000,100.000000,,,,,,,,,,,,,,,,,,,,,,,,,,,,,,,,,,,,,,,,,,,,,,,,,,,,,,,,,,,,,,,
1656265905.671493,126.000000,0.000000,4325.641113,4307.179688,4174.871582,4136.410156,4280.512695,450.000000,4.000000,95.000000,,,,0.000000,4.000000,4.000000,4.000000,4.000000,4.000000,100.000000,,,,,,,,,,,,,,,,,,,,,,,,,,,,,,,,,,,,,,,,,,,,,,,,,,,,,,,,,,,,,,,
1656265905.679307,127.000000,0.000000,4361.025879,4301.538574,4174.358887,4150.256348,4292.820313,243.000000,4.000000,95.000000,,,,0.000000,4.000000,4.000000,4.000000,4.000000,4.000000,100.000000,,,,,,,,,,,,,,,,,,,,,,,,,,,,,,,,,,,,,,,,,,,,,,,,,,,,,,,,,,,,,,,
1656265905.687221,0.000000,0.000000,4350.769043,4313.333496,4176.410156,4148.717773,4310.769043,450.000000,4.000000,95.000000,,,,0.000000,4.000000,4.000000,4.000000,4.000000,4.000000,100.000000,,,,,,,,,,,,,,,,,,,,,,,,,,,,,,,,,,,,,,,,,,,,,,,,,,,,,,,,,,,,,,,
1656265905.695036,1.000000,0.000000,4334.871582,4321.538574,4186.666504,4133.846191,4312.307617,450.000000,4.000000,95.000000,,,,0.000000,4.000000,4.000000,4.000000,4.000000,4.000000,100.000000,1.000000,100.000000,4.000000,4.000000,4.000000,4.000000,4.000000,,,,,,,,,,,,,,,,,,,,,,,,,,,,,,,,4.745286,4.144253,3.056461,1.589497,1.922467,3.764480,2.867589,2.239654,1.297456,1.970446,4.655010,1.860982,3.019758,1.739292,1.055041,3.267742,3.241434,2.833244,2.250577,1.767127,4.532477,2.750201,1.846992,1.846946,2.455851
1656265905.702850,2.000000,0.000000,4342.051270,4321.025879,4191.282227,4122.051270,4302.051270,16224.000000,4.000000,95.000000,,,,0.000000,4.000000,4.000000,4.000000,4.000000,4.000000,100.000000,,,,,,,,,,,,,,,,,,,,,,,,,,,,,,,,,,,,,,,,,,,,,,,,,,,,,,,,,,,,,,,
1656265905.710764,3.000000,0.000000,4347.179688,4311.794922,4190.256348,4117.436035,4289.743652,450.000000,4.000000,95.000000,,,,0.000000,4.000000,4.000000,4.000000,4.000000,4.000000,100.000000,,,,,,,,,,,,,,,,,,,,,,,,,,,,,,,,,,,,,,,,,,,,,,,,,,,,,,,,,,,,,,,
1656265905.718679,4.000000,0.000000,4325.641113,4283.077148,4177.436035,4105.128418,4270.769043,16185.000000,4.000000,95.000000,,,,0.000000,4.000000,4.000000,4.000000,4.000000,4.000000,100.000000,,,,,,,,,,,,,,,,,,,,,,,,,,,,,,,,,,,,,,,,,,,,,,,,,,,,,,,,,,,,,,,
1656265905.726493,5.000000,0.000000,4321.538574,4285.128418,4171.794922,4120.512695,4273.846191,450.000000,4.000000,95.000000,,,,0.000000,4.000000,4.000000,4.000000,4.000000,4.000000,100.000000,,,,,,,,,,,,,,,,,,,,,,,,,,,,,,,,,,,,,,,,,,,,,,,,,,,,,,,,,,,,,,,
1656265905.734407,6.000000,0.000000,4339.487305,4316.922852,4172.307617,4160.000000,4295.897461,16187.000000,4.000000,95.000000,,,,0.000000,4.000000,4.000000,4.000000,4.000000,4.000000,100.000000,,,,,,,,,,,,,,,,,,,,,,,,,,,,,,,,,,,,,,,,,,,,,,,,,,,,,,,,,,,,,,,
1656265905.742322,7.000000,0.000000,4336.922852,4310.769043,4166.666504,4157.436035,4301.538574,450.000000,4.000000,95.000000,,,,0.000000,4.000000,4.000000,4.000000,4.000000,4.000000,100.000000,,,,,,,,,,,,,,,,,,,,,,,,,,,,,,,,,,,,,,,,,,,,,,,,,,,,,,,,,,,,,,,
1656265905.750136,8.000000,0.000000,4323.589844,4300.000000,4161.538574,4124.615234,4290.769043,450.000000,4.000000,95.000000,,,,0.000000,4.000000,4.000000,4.000000,4.000000,4.000000,100.000000,,,,,,,,,,,,,,,,,,,,,,,,,,,,,,,,,,,,,,,,,,,,,,,,,,,,,,,,,,,,,,,
1656265905.758050,9.000000,0.000000,4323.077148,4322.051270,4163.077148,4119.487305,4289.230957,16201.000000,4.000000,95.000000,,,,0.000000,4.000000,4.000000,4.000000,4.000000,4.000000,100.000000,,,,,,,,,,,,,,,,,,,,,,,,,,,,,,,,,,,,,,,,,,,,,,,,,,,,,,,,,,,,,,,
1656265905.765865,10.000000,0.000000,4332.820313,4328.205078,4178.461426,4142.563965,4294.358887,450.000000,4.000000,95.000000,,,,0.000000,4.000000,4.000000,4.000000,4.000000,4.000000,100.000000,,,,,,,,,,,,,,,,,,,,,,,,,,,,,,,,,,,,,,,,,,,,,,,,,,,,,,,,,,,,,,,
1656265905.773779,11.000000,0.000000,4331.282227,4306.153809,4189.230957,4148.717773,4292.307617,16174.000000,4.000000,95.000000,,,,0.000000,4.000000,4.000000,4.000000,4.000000,4.000000,100.000000,,,,,,,,,,,,,,,,,,,,,,,,,,,,,,,,,,,,,,,,,,,,,,,,,,,,,,,,,,,,,,,
1656265905.781594,12.000000,0.000000,4324.615234,4309.230957,4187.692383,4147.692383,4290.769043,450.000000,4.000000,95.000000,,,,0.000000,4.000000,4.000000,4.000000,4.000000,4.000000,100.000000,,,,,,,,,,,,,,,,,,,,,,,,,,,,,,,,,,,,,,,,,,,,,,,,,,,,,,,,,,,,,,,
1656265905.789508,13.000000,0.000000,4338.974121,4308.717773,4192.820313,4154.871582,4284.615234,450.000000,4.000000,95.000000,,,,0.000000,4.000000,4.000000,4.000000,4.000000,4.000000,100.000000,,,,,,,,,,,,,,,,,,,,,,,,,,,,,,,,,,,,,,,,,,,,,,,,,,,,,,,,,,,,,,,
1656265905.797322,14.000000,0.000000,4348.205078,4275.897461,4193.846191,4137.436035,4269.743652,450.000000,4.000000,95.000000,,,,0.000000,4.000000,4.000000,4.000000,4.000000,4.000000,100.000000,,,,,,,,,,,,,,,,,,,,,,,,,,,,,,,,,,,,,,,,,,,,,,,,,,,,,,,,,,,,,,,
1656265905.805237,15.000000,0.000000,4337.948730,4289.230957,4182.563965,4128.717773,4271.794922,16174.000000,4.000000,95.000000,,,,0.000000,4.000000,4.000000,4.000000,4.000000,4.000000,100.000000,,,,,,,,,,,,,,,,,,,,,,,,,,,,,,,,,,,,,,,,,,,,,,,,,,,,,,,,,,,,,,,
1656265905.813051,16.000000,0.000000,4338.974121,4310.769043,4180.000000,4149.230957,4283.589844,0.000000,4.000000,95.000000,,,,0.000000,4.000000,4.000000,4.000000,4.000000,4.000000,100.000000,,,,,,,,,,,,,,,,,,,,,,,,,,,,,,,,,,,,,,,,,,,,,,,,,,,,,,,,,,,,,,,
1656265905.820865,17.000000,0.000000,4363.077148,4291.794922,4200.512695,4154.871582,4290.256348,0.000000,4.000000,95.000000,,,,0.000000,4.000000,4.000000,4.000000,4.000000,4.000000,100.000000,,,,,,,,,,,,,,,,,,,,,,,,,,,,,,,,,,,,,,,4.423281,3.510263,3.400391,1.522854,1.948684,4.118790,2.882038,2.408436,1.111058,1.914703,4.533299,1.362193,3.380659,1.529475,1.018691,2.399766,3.284400,2.688035,1.926712,1.618459,4.071787,2.566997,1.888349,1.645602,2.354677
1656265905.828780,18.000000,0.000000,4367.179688,4311.282227,4204.615234,4145.128418,4309.230957,0.000000,4.000000,95.000000,,,,0.000000,4.000000,4.000000,4.000000,4.000000,4.000000,100.000000,,,,,,,,,,,,,,,,,,,,,,,,,,,,,,,,,,,,,,,,,,,,,,,,,,,,,,,,,,,,,,,
1656265905.836694,19.000000,0.000000,4335.384766,4348.205078,4175.897461,4143.077148,4314.871582,0.000000,4.000000,95.000000,,,,0.000000,4.000000,4.000000,4.000000,4.000000,4.000000,100.000000,,,,,,,,,,,,,,,,,,,,,,,,,,,,,,,,,,,,,,,,,,,,,,,,,,,,,,,,,,,,,,,
1656265905.844508,20.000000,0.000000,4335.897461,4342.051270,4175.384766,4153.333496,4294.871582,0.000000,4.000000,95.000000,,,,0.000000,4.000000,4.000000,4.000000,4.000000,4.000000,100.000000,,,,,,,,,,,,,,,,,,,,,,,,,,,,,,,,,,,,,,,,,,,,,,,,,,,,,,,,,,,,,,,
1656265905.852423,21.000000,0.000000,4357.948730,4331.794922,4200.000000,4150.256348,4286.153809,0.000000,4.000000,95.000000,,,,0.000000,4.000000,4.000000,4.000000,4.000000,4.000000,100.000000,,,,,,,,,,,,,,,,,,,,,,,,,,,,,,,,,,,,,,,,,,,,,,,,,,,,,,,,,,,,,,,
1656265905.860237,22.000000,0.000000,4338.461426,4336.410156,4198.461426,4131.282227,4292.307617,0.000000,4.000000,95.000000,,,,0.000000,4.000000,4.000000,4.000000,4.000000,4.000000,100.000000,,,,,,,,,,,,,,,,,,,,,,,,,,,,,,,,,,,,,,,,,,,,,,,,,,,,,,,,,,,,,,,
1656265905.868151,23.000000,0.000000,4339.487305,4330.769043,4187.692383,4140.512695,4304.615234,0.000000,4.000000,95.000000,,,,0.000000,4.000000,4.000000,4.000000,4.000000,4.000000,100.000000,,,,,,,,,,,,,,,,,,,,,,,,,,,,,,,,,,,,,,,,,,,,,,,,,,,,,,,,,,,,,,,
1656265905.875966,24.000000,0.000000,4372.820313,4324.102539,4187.692383,4164.615234,4313.846191,0.000000,4.000000,95.000000,,,,0.000000,4.000000,4.000000,4.000000,4.000000,4.000000,100.000000,,,,,,,,,,,,,,,,,,,,,,,,,,,,,,,,,,,,,,,,,,,,,,,,,,,,,,,,,,,,,,,
1656265905.883880,25.000000,0.000000,4382.051270,4334.358887,4204.102539,4165.128418,4321.025879,0.000000,4.000000,95.000000,,,,0.000000,4.000000,4.000000,4.000000,4.000000,4.000000,100.000000,,,,,,,,,,,,,,,,,,,,,,,,,,,,,,,,,,,,,,,,,,,,,,,,,,,,,,,,,,,,,,,
1656265905.891695,26.000000,0.000000,4377.948730,4342.051270,4216.922852,4161.025879,4330.769043,0.000000,4.000000,95.000000,,,,0.000000,4.000000,4.000000,4.000000,4.000000,4.000000,100.000000,,,,,,,,,,,,,,,,,,,,,,,,,,,,,,,,,,,,,,,,,,,,,,,,,,,,,,,,,,,,,,,
1656265905.899609,27.000000,0.000000,4365.641113,4328.717773,4203.589844,4168.205078,4324.102539,0.000000,4.000000,95.000000,,,,0.000000,4.000000,4.000000,4.000000,4.000000,4.000000,100.000000,,,,,,,,,,,,,,,,,,,,,,,,,,,,,,,,,,,,,,,,,,,,,,,,,,,,,,,,,,,,,,,
1656265905.907423,28.000000,0.000000,4339.487305,4321.538574,4190.256348,4165.128418,4299.487305,0.000000,4.000000,95.000000,,,,0.000000,4.000000,4.000000,4.000000,4.000000,4.000000,100.000000,,,,,,,,,,,,,,,,,,,,,,,,,,,,,,,,,,,,,,,,,,,,,,,,,,,,,,,,,,,,,,,
1656265905.915338,29.000000,0.000000,4323.077148,4323.077148,4204.102539,4133.846191,4270.769043,0.000000,4.000000,95.000000,,,,0.000000,4.000000,4.000000,4.000000,4.000000,4.000000,100.000000,,,,,,,,,,,,,,,,,,,,,,,,,,,,,,,,,,,,,,,,,,,,,,,,,,,,,,,,,,,,,,,
1656265905.923252,30.000000,0.000000,4333.333496,4308.717773,4217.436035,4116.922852,4266.153809,0.000000,4.000000,95.000000,,,,0.000000,4.000000,4.000000,4.000000,4.000000,4.000000,100.000000,,,,,,,,,,,,,,,,,,,,,,,,,,,,,,,,,,,,,,,,,,,,,,,,,,,,,,,,,,,,,,,
1656265905.931066,31.000000,0.000000,4332.307617,4299.487305,4186.666504,4133.333496,4281.538574,0.000000,4.000000,95.000000,,,,0.000000,4.000000,4.000000,4.000000,4.000000,4.000000,100.000000,,,,,,,,,,,,,,,,,,,,,,,,,,,,,,,,,,,,,,,,,,,,,,,,,,,,,,,,,,,,,,,
1656265905.938881,32.000000,0.000000,4314.871582,4309.743652,4144.102539,4142.051270,4283.077148,0.000000,4.000000,95.000000,,,,0.000000,4.000000,4.000000,4.000000,4.000000,4.000000,100.000000,,,,,,,,,,,,,,,,,,,,,,,,,,,,,,,,,,,,,,,,,,,,,,,,,,,,,,,,,,,,,,,
1656265905.946795,33.000000,0.000000,4323.077148,4313.333496,4157.948730,4134.871582,4286.153809,0.000000,4.000000,95.000000,,,,0.000000,4.000000,4.000000,4.000000,4.000000,4.000000,100.000000,,,,,,,,,,,,,,,,,,,,,,,,,,,,,,,,,,,,,,,4.245983,3.052268,3.589245,1.496091,1.903358,4.268055,3.027535,2.695509,1.024832,1.817480,4.236561,1.045893,3.452349,1.355939,0.961823,1.826552,3.257589,2.456650,1.591101,1.455918,3.726240,2.381969,1.840544,1.353466,2.226964
1656265905.954609,34.000000,0.000000,4331.794922,4300.000000,4205.641113,4126.666504,4285.128418,0.000000,4.000000,95.000000,,,,0.000000,4.000000,4.000000,4.000000,4.000000,4.000000,100.000000,,,,,,,,,,,,,,,,,,,,,,,,,,,,,,,,,,,,,,,,,,,,,,,,,,,,,,,,,,,,,,,
1656265905.962524,35.000000,0.000000,4321.538574,4305.641113,4216.922852,4138.461426,4273.333496,0.000000,4.000000,95.000000,,,,0.000000,4.000000,4.000000,4.000000,4.000000,4.000000,100.000000,,,,,,,,,,,,,,,,,,,,,,,,,,,,,,,,,,,,,,,,,,,,,,,,,,,,,,,,,,,,,,,
1656265905.970338,36.000000,0.000000,4321.538574,4334.871582,4202.051270,4161.025879,4280.000000,0.000000,4.000000,95.000000,,,,0.000000,4.000000,4.000000,4.000000,4.000000,4.000000,100.000000,,,,,,,,,,,,,,,,,,,,,,,,,,,,,,,,,,,,,,,,,,,,,,,,,,,,,,,,,,,,,,,
1656265905.978252,37.000000,0.000000,4321.538574,4338.461426,4194.871582,4154.358887,4282.051270,0.000000,4.000000,95.000000,,,,0.000000,4.000000,4.000000,4.000000,4.000000,4.000000,100.000000,,,,,,,,,,,,,,,,,,,,,,,,,,,,,,,,,,,,,,,,,,,,,,,,,,,,,,,,,,,,,,,
1656265905.986067,38.000000,0.000000,4322.563965,4325.128418,4194.358887,4135.897461,4264.102539,0.000000,4.000000,95.000000,,,,0.000000,4.000000,4.000000,4.000000,4.000000,4.000000,100.000000,,,,,,,,,,,,,,,,,,,,,,,,,,,,,,,,,,,,,,,,,,,,,,,,,,,,,,,,,,,,,,,
1656265905.993981,39.000000,0.000000,4337.436035,4318.461426,4180.000000,4146.666504,4258.974121,0.000000,4.000000,95.000000,,,,0.000000,4.000000,4.000000,4.000000,4.000000,4.000000,100.000000,,,,,,,,,,,,,,,,,,,,,,,,,,,,,,,,,,,,,,,,,,,,,,,,,,,,,,,,,,,,,,,
1656265906.001895,40.000000,0.000000,4337.948730,4312.820313,4159.487305,4156.410156,4275.897461,0.000000,4.000000,95.000000,,,,0.000000,4.000000,4.000000,4.000000,4.000000,4.000000,100.000000,,,,,,,,,,,,,,,,,,,,,,,,,,,,,,,,,,,,,,,,,,,,,,,,,,,,,,,,,,,,,,,
1656265906.009710,41.000000,0.000000,4326.666504,4307.179688,4175.897461,4135.384766,4282.563965,0.000000,4.000000,95.000000,,,,0.000000,4.000000,4.000000,4.000000,4.000000,4.000000,100.000000,,,,,,,,,,,,,,,,,,,,,,,,,,,,,,,,,,,,,,,,,,,,,,,,,,,,,,,,,,,,,,,
1656265906.017524,42.000000,0.000000,4328.717773,4287.692383,4205.128418,4113.333496,4254.358887,0.000000,4.000000,95.000000,,,,0.000000,4.000000,4.000000,4.000000,4.000000,4.000000,100.000000,,,,,,,,,,,,,,,,,,,,,,,,,,,,,,,,,,,,,,,,,,,,,,,,,,,,,,,,,,,,,,,
1656265906.025439,43.000000,0.000000,4334.871582,4277.436035,4204.102539,4111.794922,4240.000000,0.000000,4.000000,95.000000,,,,0.000000,4.000000,4.000000,4.000000,4.000000,4.000000,100.000000,,,,,,,,,,,,,,,,,,,,,,,,,,,,,,,,,,,,,,,,,,,,,,,,,,,,,,,,,,,,,,,
1656265906.033353,44.000000,0.000000,4323.589844,4299.487305,4166.153809,4123.077148,4268.717773,0.000000,4.000000,95.000000,,,,0.000000,4.000000,4.000000,4.000000,4.000000,4.000000,100.000000,,,,,,,,,,,,,,,,,,,,,,,,,,,,,,,,,,,,,,,,,,,,,,,,,,,,,,,,,,,,,,,
1656265906.041167,45.000000,0.000000,4295.384766,4309.230957,4136.410156,4129.743652,4272.820313,0.000000,4.000000,95.000000,,,,0.000000,4.000000,4.000000,4.000000,4.000000,4.000000,100.000000,,,,,,,,,,,,,,,,,,,,,,,,,,,,,,,,,,,,,,,,,,,,,,,,,,,,,,,,,,,,,,,
1656265906.049082,46.000000,0.000000,4298.461426,4300.512695,4160.512695,4149.230957,4253.333496,0.000000,4.000000,95.000000,,,,0.000000,4.000000,4.000000,4.000000,4.000000,4.000000,100.000000,,,,,,,,,,,,,,,,,,,,,,,,,,,,,,,,,,,,,,,,,,,,,,,,,,,,,,,,,,,,,,,
1656265906.056896,47.000000,0.000000,4324.102539,4307.692383,4182.051270,4166.666504,4267.179688,0.000000,4.000000,95.000000,,,,0.000000,4.000000,4.000000,4.000000,4.000000,4.000000,100.000000,,,,,,,,,,,,,,,,,,,,,,,,,,,,,,,,,,,,,,,,,,,,,,,,,,,,,,,,,,,,,,,
1656265906.064810,48.000000,0.000000,4331.282227,4321.538574,4179.487305,4152.820313,4291.794922,0.000000,4.000000,95.000000,,,,0.000000,4.000000,4.000000,4.000000,4.000000,4.000000,100.000000,,,,,,,,,,,,,,,,,,,,,,,,,,,,,,,,,,,,,,,,,,,,,,,,,,,,,,,,,,,,,,,
1656265906.072625,49.000000,0.000000,4336.922852,4306.666504,4188.717773,4150.769043,4292.307617,0.000000,4.000000,95.000000,,,,0.000000,4.000000,4.000000,4.000000,4.000000,4.000000,100.000000,,,,,,,,,,,,,,,,,,,,,,,,,,,,,,,,,,,,,,,4.195120,2.768682,3.497581,1.493196,1.831947,4.116015,3.184307,3.047016,1.034664,1.695032,3.768603,0.949817,3.222330,1.256616,0.896672,1.619478,3.141284,2.147176,1.339996,1.323802,3.484668,2.142348,1.764888,1.067129,2.099862
1656265906.080539,50.000000,0.000000,4349.230957,4288.205078,4189.743652,4171.794922,4291.794922,0.000000,4.000000,95.000000,,,,0.000000,4.000000,4.000000,4.000000,4.000000,4.000000,100.000000,,,,,,,,,,,,,,,,,,,,,,,,,,,,,,,,,,,,,,,,,,,,,,,,,,,,,,,,,,,,,,,
1656265906.088353,51.000000,0.000000,4341.538574,4307.692383,4182.563965,4178.974121,4303.077148,0.000000,4.000000,95.000000,,,,0.000000,4.000000,4.000000,4.000000,4.000000,4.000000,100.000000,,,,,,,,,,,,,,,,,,,,,,,,,,,,,,,,,,,,,,,,,,,,,,,,,,,,,,,,,,,,,,,
1656265906.096268,52.000000,0.000000,4305.128418,4307.692383,4190.769043,4142.563965,4282.563965,0.000000,4.000000,95.000000,,,,0.000000,4.000000,4.000000,4.000000,4.000000,4.000000,100.000000,,,,,,,,,,,,,,,,,,,,,,,,,,,,,,,,,,,,,,,,,,,,,,,,,,,,,,,,,,,,,,,
1656265906.104082,53.000000,0.000000,4287.179688,4277.948730,4189.743652,4122.051270,4247.179688,0.000000,4.000000,95.000000,,,,0.000000,4.000000,4.000000,4.000000,4.000000,4.000000,100.000000,,,,,,,,,,,,,,,,,,,,,,,,,,,,,,,,,,,,,,,,,,,,,,,,,,,,,,,,,,,,,,,
1656265906.111996,54.000000,0.000000,4303.589844,4284.615234,4170.256348,4136.922852,4252.820313,0.000000,4.000000,95.000000,,,,0.000000,4.000000,4.000000,4.000000,4.000000,4.000000,100.000000,,,,,,,,,,,,,,,,,,,,,,,,,,,,,,,,,,,,,,,,,,,,,,,,,,,,,,,,,,,,,,,
1656265906.119811,55.000000,0.000000,4302.563965,4303.077148,4153.333496,4125.128418,4262.563965,0.000000,4.000000,95.000000,,,,0.000000,4.000000,4.000000,4.000000,4.000000,4.000000,100.000000,,,,,,,,,,,,,,,,,,,,,,,,,,,,,,,,,,,,,,,,,,,,,,,,,,,,,,,,,,,,,,,
1656265906.127725,56.000000,0.000000,4286.666504,4294.871582,4155.384766,4121.025879,4245.128418,0.000000,4.000000,95.000000,,,,0.000000,4.000000,4.000000,4.000000,4.000000,4.000000,100.000000,,,,,,,,,,,,,,,,,,,,,,,,,,,,,,,,,,,,,,,,,,,,,,,,,,,,,,,,,,,,,,,
1656265906.135540,57.000000,0.000000,4306.153809,4280.512695,4178.974121,4134.871582,4235.897461,0.000000,4.000000,95.000000,,,,0.000000,4.000000,4.000000,4.000000,4.000000,4.000000,100.000000,,,,,,,,,,,,,,,,,,,,,,,,,,,,,,,,,,,,,,,,,,,,,,,,,,,,,,,,,,,,,,,
1656265906.143454,58.000000,0.000000,4334.358887,4283.589844,4198.974121,4134.358887,4254.871582,0.000000,4.000000,95.000000,,,,0.000000,4.000000,4.000000,4.000000,4.000000,4.000000,100.000000,,,,,,,,,,,,,,,,,,,,,,,,,,,,,,,,,,,,,,,,,,,,,,,,,,,,,,,,,,,,,,,
1656265906.151268,59.000000,0.000000,4329.230957,4297.436035,4187.179688,4142.563965,4275.897461,0.000000,4.000000,95.000000,,,,0.000000,4.000000,4.000000,4.000000,4.000000,4.000000,100.000000,,,,,,,,,,,,,,,,,,,,,,,,,,,,,,,,,,,,,,,,,,,,,,,,,,,,,,,,,,,,,,,
1656265906.159183,60.000000,0.000000,4316.922852,4303.589844,4158.461426,4164.102539,4281.025879,0.000000,4.000000,95.000000,,,,0.000000,4.000000,4.000000,4.000000,4.000000,4.000000,100.000000,,,,,,,,,,,,,,,,,,,,,,,,,,,,,,,,,,,,,,,,,,,,,,,,,,,,,,,,,,,,,,,
1656265906.166997,61.000000,0.000000,4329.743652,4302.563965,4167.692383,4157.948730,4282.563965,0.000000,4.000000,95.000000,,,,0.000000,4.000000,4.000000,4.000000,4.000000,4.000000,100.000000,,,,,,,,,,,,,,,,,,,,,,,,,,,,,,,,,,,,,,,,,,,,,,,,,,,,,,,,,,,,,,,
1656265906.174911,62.000000,0.000000,4318.974121,4292.307617,4191.794922,4115.897461,4263.589844,0.000000,4.000000,95.000000,,,,0.000000,4.000000,4.000000,4.000000,4.000000,4.000000,100.000000,,,,,,,,,,,,,,,,,,,,,,,,,,,,,,,,,,,,,,,,,,,,,,,,,,,,,,,,,,,,,,,
1656265906.182726,63.000000,0.000000,4282.563965,4279.487305,4180.512695,4093.846191,4234.871582,0.000000,4.000000,95.000000,,,,0.000000,4.000000,4.000000,4.000000,4.000000,4.000000,100.000000,,,,,,,,,,,,,,,,,,,,,,,,,,,,,,,,,,,,,,,,,,,,,,,,,,,,,,,,,,,,,,,
1656265906.190640,64.000000,0.000000,4283.077148,4286.153809,4161.025879,4110.769043,4241.025879,450.000000,4.000000,95.000000,,,,0.000000,4.000000,4.000000,4.000000,4.000000,4.000000,100.000000,,,,,,,,,,,,,,,,,,,,,,,,,,,,,,,,,,,,,,,,,,,,,,,,,,,,,,,,,,,,,,,
1656265906.198554,65.000000,0.000000,4291.794922,4284.102539,4155.897461,4118.974121,4254.871582,450.000000,4.000000,95.000000,,,,0.000000,4.000000,4.000000,4.000000,4.000000,4.000000,100.000000,1.000000,100.000000,4.000000,4.000000,4.000000,4.000000,4.000000,,,,,,,,,,,,,,,,,,,,,,,,,,,,,,,,4.184756,2.637961,3.135013,1.486593,1.782461,3.732624,3.260248,3.350273,1.109648,1.571471,3.157892,1.052105,2.784580,1.240772,0.842029,1.669903,2.979699,1.822783,1.233621,1.250075,3.272666,1.868472,1.749702,0.887191,1.977312
1656265906.206369,66.000000,0.000000,4294.358887,4277.436035,4165.641113,4114.358887,4245.641113,16203.000000,4.000000,95.000000,,,,0.000000,4.000000,4.000000,4.000000,4.000000,4.000000,100.000000,,,,,,,,,,,,,,,,,,,,,,,,,,,,,,,,,,,,,,,,,,,,,,,,,,,,,,,,,,,,,,,
1656265906.214283,67.000000,0.000000,4318.974121,4306.666504,4166.666504,4128.205078,4254.358887,450.000000,4.000000,95.000000,,,,0.000000,4.000000,4.000000,4.000000,4.000000,4.000000,100.000000,,,,,,,,,,,,,,,,,,,,,,,,,,,,,,,,,,,,,,,,,,,,,,,,,,,,,,,,,,,,,,,
1656265906.222097,68.000000,0.000000,4324.102539,4322.563965,4146.666504,4133.333496,4278.461426,16179.000000,4.000000,95.000000,,,,0.000000,4.000000,4.000000,4.000000,4.000000,4.000000,100.000000,,,,,,,,,,,,,,,,,,,,,,,,,,,,,,,,,,,,,,,,,,,,,,,,,,,,,,,,,,,,,,,
1656265906.230012,69.000000,0.000000,4317.436035,4302.051270,4151.282227,4124.615234,4285.641113,450.000000,4.000000,95.000000,,,,0.000000,4.000000,4.000000,4.000000,4.000000,4.000000,100.000000,,,,,,,,,,,,,,,,,,,,,,,,,,,,,,,,,,,,,,,,,,,,,,,,,,,,,,,,,,,,,,,
1656265906.237826,70.000000,0.000000,4328.205078,4277.948730,4172.820313,4128.717773,4263.589844,16158.000000,4.000000,95.000000,,,,0.000000,4.000000,4.000000,4.000000,4.000000,4.000000,100.000000,,,,,,,,,,,,,,,,,,,,,,,,,,,,,,,,,,,,,,,,,,,,,,,,,,,,,,,,,,,,,,,
1656265906.245740,71.000000,0.000000,4332.307617,4265.641113,4168.717773,4131.282227,4243.077148,450.000000,4.000000,95.000000,,,,0.000000,4.000000,4.000000,4.000000,4.000000,4.000000,100.000000,,,,,,,,,,,,,,,,,,,,,,,,,,,,,,,,,,,,,,,,,,,,,,,,,,,,,,,,,,,,,,,
1656265906.253555,72.000000,0.000000,4315.897461,4277.436035,4144.102539,4116.922852,4251.794922,450.000000,4.000000,95.000000,,,,0.000000,4.000000,4.000000,4.000000,4.000000,4.000000,100.000000,,,,,,,,,,,,,,,,,,,,,,,,,,,,,,,,,,,,,,,,,,,,,,,,,,,,,,,,,,,,,,,
1656265906.261469,73.000000,0.000000,4294.358887,4290.769043,4138.974121,4105.128418,4252.820313,16164.000000,4.000000,95.000000,,,,0.000000,4.000000,4.000000,4.000000,4.000000,4.000000,100.000000,,,,,,,,,,,,,,,,,,,,,,,,,,,,,,,,,,,,,,,,,,,,,,,,,,,,,,,,,,,,,,,
1656265906.269284,74.000000,0.000000,4292.307617,4289.230957,4156.922852,4113.333496,4236.922852,450.000000,4.000000,95.000000,,,,0.000000,4.000000,4.000000,4.000000,4.000000,4.000000,100.000000,,,,,,,,,,,,,,,,,,,,,,,,,,,,,,,,,,,,,,,,,,,,,,,,,,,,,,,,,,,,,,,
1656265906.277198,75.000000,0.000000,4297.948730,4290.769043,4147.179688,4127.179688,4236.922852,16194.000000,4.000000,95.000000,,,,0.000000,4.000000,4.000000,4.000000,4.000000,4.000000,100.000000,,,,,,,,,,,,,,,,,,,,,,,,,,,,,,,,,,,,,,,,,,,,,,,,,,,,,,,,,,,,,,,
1656265906.285012,76.000000,0.000000,4307.179688,4300.000000,4143.077148,4124.615234,4269.230957,450.000000,4.000000,95.000000,,,,0.000000,4.000000,4.000000,4.000000,4.000000,4.000000,100.000000,,,,,,,,,,,,,,,,,,,,,,,,,,,,,,,,,,,,,,,,,,,,,,,,,,,,,,,,,,,,,,,
1656265906.292927,77.000000,0.000000,4325.128418,4291.282227,4182.563965,4113.333496,4286.153809,450.000000,4.000000,95.000000,,,,0.000000,4.000000,4.000000,4.000000,4.000000,4.000000,100.000000,,,,,,,,,,,,,,,,,,,,,,,,,,,,,,,,,,,,,,,,,,,,,,,,,,,,,,,,,,,,,,,
1656265906.300741,78.000000,0.000000,4321.538574,4273.846191,4202.051270,4109.230957,4245.128418,450.000000,4.000000,95.000000,,,,0.000000,4.000000,4.000000,4.000000,4.000000,4.000000,100.000000,,,,,,,,,,,,,,,,,,,,,,,,,,,,,,,,,,,,,,,,,,,,,,,,,,,,,,,,,,,,,,,
1656265906.308655,79.000000,0.000000,4309.743652,4287.179688,4175.897461,4127.179688,4230.256348,16194.000000,4.000000,95.000000,,,,0.000000,4.000000,4.000000,4.000000,4.000000,4.000000,100.000000,,,,,,,,,,,,,,,,,,,,,,,,,,,,,,,,,,,,,,,,,,,,,,,,,,,,,,,,,,,,,,,
1656265906.316470,80.000000,0.000000,4311.282227,4301.538574,4140.512695,4151.794922,4272.820313,450.000000,4.000000,95.000000,,,,0.000000,4.000000,4.000000,4.000000,4.000000,4.000000,100.000000,,,,,,,,,,,,,,,,,,,,,,,,,,,,,,,,,,,,,,,,,,,,,,,,,,,,,,,,,,,,,,,
1656265906.324384,81.000000,0.000000,4320.000000,4289.230957,4132.820313,4151.794922,4287.179688,450.000000,4.000000,95.000000,,,,0.000000,4.000000,4.000000,4.000000,4.000000,4.000000,100.000000,,,,,,,,,,,,,,,,,,,,,,,,,,,,,,,,,,,,,,,4.132741,2.632794,2.669275,1.453014,1.774003,3.293357,3.239881,3.541890,1.190641,1.468346,2.460382,1.308478,2.299922,1.321771,0.824153,1.840198,2.899292,1.603992,1.260005,1.237993,3.097521,1.643261,1.885769,0.864959,1.848951
1656265906.332198,82.000000,0.000000,4318.974121,4297.436035,4149.743652,4133.333496,4271.794922,450.000000,4.000000,95.000000,,,,0.000000,4.000000,4.000000,4.000000,4.000000,4.000000,100.000000,,,,,,,,,,,,,,,,,,,,,,,,,,,,,,,,,,,,,,,,,,,,,,,,,,,,,,,,,,,,,,,
1656265906.340113,83.000000,0.000000,4302.051270,4311.282227,4164.102539,4112.820313,4263.077148,16194.000000,4.000000,95.000000,,,,0.000000,4.000000,4.000000,4.000000,4.000000,4.000000,100.000000,,,,,,,,,,,,,,,,,,,,,,,,,,,,,,,,,,,,,,,,,,,,,,,,,,,,,,,,,,,,,,,
1656265906.347927,84.000000,0.000000,4295.897461,4301.538574,4160.512695,4113.846191,4249.743652,450.000000,4.000000,95.000000,,,,0.000000,4.000000,4.000000,4.000000,4.000000,4.000000,100.000000,,,,,,,,,,,,,,,,,,,,,,,,,,,,,,,,,,,,,,,,,,,,,,,,,,,,,,,,,,,,,,,
1656265906.355841,85.000000,0.000000,4298.461426,4302.563965,4141.025879,4118.461426,4238.461426,450.000000,4.000000,95.000000,,,,0.000000,4.000000,4.000000,4.000000,4.000000,4.000000,100.000000,,,,,,,,,,,,,,,,,,,,,,,,,,,,,,,,,,,,,,,,,,,,,,,,,,,,,,,,,,,,,,,
1656265906.363756,86.000000,0.000000,4294.358887,4308.717773,4134.358887,4101.538574,4240.512695,450.000000,4.000000,95.000000,,,,0.000000,4.000000,4.000000,4.000000,4.000000,4.000000,100.000000,,,,,,,,,,,,,,,,,,,,,,,,,,,,,,,,,,,,,,,,,,,,,,,,,,,,,,,,,,,,,,,
1656265906.371570,87.000000,0.000000,4308.717773,4298.461426,4153.333496,4116.922852,4250.256348,16194.000000,4.000000,95.000000,,,,0.000000,4.000000,4.000000,4.000000,4.000000,4.000000,100.000000,,,,,,,,,,,,,,,,,,,,,,,,,,,,,,,,,,,,,,,,,,,,,,,,,,,,,,,,,,,,,,,
1656265906.379484,88.000000,0.000000,4322.563965,4296.922852,4149.230957,4157.436035,4272.820313,450.000000,4.000000,95.000000,,,,0.000000,4.000000,4.000000,4.000000,4.000000,4.000000,100.000000,,,,,,,,,,,,,,,,,,,,,,,,,,,,,,,,,,,,,,,,,,,,,,,,,,,,,,,,,,,,,,,
1656265906.387299,89.000000,0.000000,4320.000000,4308.717773,4131.794922,4152.307617,4294.358887,450.000000,4.000000,95.000000,,,,0.000000,4.000000,4.000000,4.000000,4.000000,4.000000,100.000000,,,,,,,,,,,,,,,,,,,,,,,,,,,,,,,,,,,,,,,,,,,,,,,,,,,,,,,,,,,,,,,
1656265906.395213,90.000000,0.000000,4328.717773,4285.128418,4155.897461,4107.692383,4266.153809,450.000000,4.000000,95.000000,,,,0.000000,4.000000,4.000000,4.000000,4.000000,4.000000,100.000000,,,,,,,,,,,,,,,,,,,,,,,,,,,,,,,,,,,,,,,,,,,,,,,,,,,,,,,,,,,,,,,
1656265906.403028,91.000000,0.000000,4323.077148,4262.563965,4167.179688,4091.794922,4225.128418,16194.000000,4.000000,95.000000,,,,0.000000,4.000000,4.000000,4.000000,4.000000,4.000000,100.000000,,,,,,,,,,,,,,,,,,,,,,,,,,,,,,,,,,,,,,,,,,,,,,,,,,,,,,,,,,,,,,,
1656265906.410942,92.000000,0.000000,4294.871582,4288.205078,4134.871582,4114.358887,4235.897461,450.000000,4.000000,95.000000,,,,0.000000,4.000000,4.000000,4.000000,4.000000,4.000000,100.000000,,,,,,,,,,,,,,,,,,,,,,,,,,,,,,,,,,,,,,,,,,,,,,,,,,,,,,,,,,,,,,,
1656265906.418756,93.000000,0.000000,4300.000000,4283.077148,4126.153809,4123.589844,4245.128418,450.000000,4.000000,95.000000,,,,0.000000,4.000000,4.000000,4.000000,4.000000,4.000000,100.000000,,,,,,,,,,,,,,,,,,,,,,,,,,,,,,,,,,,,,,,,,,,,,,,,,,,,,,,,,,,,,,,
1656265906.426671,94.000000,0.000000,4314.358887,4265.128418,4148.205078,4125.128418,4235.384766,450.000000,4.000000,95.000000,,,,0.000000,4.000000,4.000000,4.000000,4.000000,4.000000,100.000000,,,,,,,,,,,,,,,,,,,,,,,,,,,,,,,,,,,,,,,,,,,,,,,,,,,,,,,,,,,,,,,
1656265906.434485,95.000000,0.000000,4303.589844,4284.615234,4160.000000,4136.410156,4232.820313,16194.000000,4.000000,95.000000,,,,0.000000,4.000000,4.000000,4.000000,4.000000,4.000000,100.000000,,,,,,,,,,,,,,,,,,,,,,,,,,,,,,,,,,,,,,,,,,,,,,,,,,,,,,,,,,,,,,,
1656265906.442399,96.000000,0.000000,4299.487305,4275.384766,4159.487305,4126.153809,4220.512695,450.000000,4.000000,95.000000,,,,0.000000,4.000000,4.000000,4.000000,4.000000,4.000000,100.000000,,,,,,,,,,,,,,,,,,,,,,,,,,,,,,,,,,,,,,,,,,,,,,,,,,,,,,,,,,,,,,,
1656265906.450214,97.000000,0.000000,4311.282227,4256.922852,4157.436035,4108.717773,4229.743652,450.000000,4.000000,95.000000,,,,0.000000,4.000000,4.000000,4.000000,4.000000,4.000000,100.000000,,,,,,,,,,,,,,,,,,,,,,,,,,,,,,,,,,,,,,,4.024044,2.742865,2.408939,1.377367,1.787578,2.961456,3.170048,3.631462,1.222102,1.397150,1.809443,1.670616,1.932153,1.514707,0.871142,1.999756,3.069183,1.617936,1.357764,1.272550,3.027152,1.584203,2.252349,0.972643,1.704476
1656265906.458128,98.000000,0.000000,4316.922852,4273.846191,4138.974121,4112.820313,4268.205078,450.000000,4.000000,95.000000,,,,0.000000,4.000000,4.000000,4.000000,4.000000,4.000000,100.000000,,,,,,,,,,,,,,,,,,,,,,,,,,,,,,,,,,,,,,,,,,,,,,,,,,,,,,,,,,,,,,,
1656265906.465942,99.000000,0.000000,4319.487305,4276.410156,4126.666504,4121.025879,4273.846191,16194.000000,4.000000,95.000000,,,,0.000000,4.000000,4.000000,4.000000,4.000000,4.000000,100.000000,,,,,,,,,,,,,,,,,,,,,,,,,,,,,,,,,,,,,,,,,,,,,,,,,,,,,,,,,,,,,,,
1656265906.473857,100.000000,0.000000,4313.333496,4282.051270,4123.589844,4118.461426,4260.512695,450.000000,4.000000,95.000000,,,,0.000000,4.000000,4.000000,4.000000,4.000000,4.000000,100.000000,,,,,,,,,,,,,,,,,,,,,,,,,,,,,,,,,,,,,,,,,,,,,,,,,,,,,,,,,,,,,,,
1656265906.481671,101.000000,0.000000,4290.769043,4312.307617,4107.692383,4106.153809,4260.000000,450.000000,4.000000,95.000000,,,,0.000000,4.000000,4.000000,4.000000,4.000000,4.000000,100.000000,,,,,,,,,,,,,,,,,,,,,,,,,,,,,,,,,,,,,,,,,,,,,,,,,,,,,,,,,,,,,,,
1656265906.489585,102.000000,0.000000,4290.769043,4310.256348,4105.641113,4103.077148,4249.230957,450.000000,4.000000,95.000000,,,,0.000000,4.000000,4.000000,4.000000,4.000000,4.000000,100.000000,,,,,,,,,,,,,,,,,,,,,,,,,,,,,,,,,,,,,,,,,,,,,,,,,,,,,,,,,,,,,,,
1656265906.497400,103.000000,0.000000,4295.897461,4300.000000,4105.641113,4113.846191,4241.538574,16194.000000,4.000000,95.000000,,,,0.000000,4.000000,4.000000,4.000000,4.000000,4.000000,100.000000,,,,,,,,,,,,,,,,,,,,,,,,,,,,,,,,,,,,,,,,,,,,,,,,,,,,,,,,,,,,,,,
1656265906.505314,104.000000,0.000000,4282.563965,4308.205078,4101.025879,4121.025879,4257.948730,450.000000,4.000000,95.000000,,,,0.000000,4.000000,4.000000,4.000000,4.000000,4.000000,100.000000,,,,,,,,,,,,,,,,,,,,,,,,,,,,,,,,,,,,,,,,,,,,,,,,,,,,,,,,,,,,,,,
1656265906.513228,105.000000,0.000000,4302.563965,4288.717773,4125.128418,4118.974121,4273.846191,450.000000,4.000000,95.000000,,,,0.000000,4.000000,4.000000,4.000000,4.000000,4.000000,100.000000,,,,,,,,,,,,,,,,,,,,,,,,,,,,,,,,,,,,,,,,,,,,,,,,,,,,,,,,,,,,,,,
1656265906.521043,106.000000,0.000000,4324.615234,4264.615234,4157.948730,4104.615234,4258.461426,450.000000,4.000000,95.000000,,,,0.000000,4.000000,4.000000,4.000000,4.000000,4.000000,100.000000,,,,,,,,,,,,,,,,,,,,,,,,,,,,,,,,,,,,,,,,,,,,,,,,,,,,,,,,,,,,,,,
1656265906.528857,107.000000,0.000000,4306.153809,4284.615234,4167.179688,4107.179688,4237.436035,16194.000000,4.000000,95.000000,,,,0.000000,4.000000,4.000000,4.000000,4.000000,4.000000,100.000000,,,,,,,,,,,,,,,,,,,,,,,,,,,,,,,,,,,,,,,,,,,,,,,,,,,,,,,,,,,,,,,
1656265906.536772,108.000000,0.000000,4297.436035,4284.615234,4158.461426,4130.256348,4250.256348,450.000000,4.000000,95.000000,,,,0.000000,4.000000,4.000000,4.000000,4.000000,4.000000,100.000000,,,,,,,,,,,,,,,,,,,,,,,,,,,,,,,,,,,,,,,,,,,,,,,,,,,,,,,,,,,,,,,
1656265906.544686,109.000000,0.000000,4317.948730,4256.410156,4147.692383,4141.025879,4264.102539,450.000000,4.000000,95.000000,,,,0.000000,4.000000,4.000000,4.000000,4.000000,4.000000,100.000000,,,,,,,,,,,,,,,,,,,,,,,,,,,,,,,,,,,,,,,,,,,,,,,,,,,,,,,,,,,,,,,
1656265906.552500,110.000000,0.000000,4323.589844,4283.077148,4144.102539,4144.615234,4257.436035,450.000000,4.000000,95.000000,,,,0.000000,4.000000,4.000000,4.000000,4.000000,4.000000,100.000000,,,,,,,,,,,,,,,,,,,,,,,,,,,,,,,,,,,,,,,,,,,,,,,,,,,,,,,,,,,,,,,
1656265906.560415,111.000000,0.000000,4297.436035,4312.820313,4131.282227,4135.384766,4251.282227,16194.000000,4.000000,95.000000,,,,0.000000,4.000000,4.000000,4.000000,4.000000,4.000000,100.000000,,,,,,,,,,,,,,,,,,,,,,,,,,,,,,,,,,,,,,,,,,,,,,,,,,,,,,,,,,,,,,,
1656265906.568229,112.000000,0.000000,4286.666504,4291.794922,4124.102539,4112.820313,4263.589844,450.000000,4.000000,95.000000,,,,0.000000,4.000000,4.000000,4.000000,4.000000,4.000000,100.000000,,,,,,,,,,,,,,,,,,,,,,,,,,,,,,,,,,,,,,,,,,,,,,,,,,,,,,,,,,,,,,,
1656265906.576143,113.000000,0.000000,4322.563965,4267.692383,4140.512695,4116.922852,4272.307617,450.000000,4.000000,95.000000,,,,0.000000,4.000000,4.000000,4.000000,4.000000,4.000000,100.000000,,,,,,,,,,,,,,,,,,,,,,,,,,,,,,,,,,,,,,,3.873654,2.940665,2.672640,1.272793,1.780896,2.777564,3.119252,3.659930,1.190348,1.353563,1.336666,2.066323,1.761598,1.837373,1.001789,2.080954,3.548429,1.941794,1.466771,1.333321,3.154498,1.751471,2.903999,1.158411,1.552860
1656265906.583958,114.000000,0.000000,4345.128418,4264.615234,4130.256348,4145.641113,4275.384766,450.000000,4.000000,95.000000,,,,0.000000,4.000000,4.000000,4.000000,4.000000,4.000000,100.000000,,,,,,,,,,,,,,,,,,,,,,,,,,,,,,,,,,,,,,,,,,,,,,,,,,,,,,,,,,,,,,,
1656265906.591872,115.000000,0.000000,4320.000000,4282.563965,4108.205078,4149.230957,4277.948730,16194.000000,4.000000,95.000000,,,,0.000000,4.000000,4.000000,4.000000,4.000000,4.000000,100.000000,,,,,,,,,,,,,,,,,,,,,,,,,,,,,,,,,,,,,,,,,,,,,,,,,,,,,,,,,,,,,,,
1656265906.599686,116.000000,0.000000,4290.256348,4289.743652,4118.974121,4112.820313,4249.230957,450.000000,4.000000,95.000000,,,,0.000000,4.000000,4.000000,4.000000,4.000000,4.000000,100.000000,,,,,,,,,,,,,,,,,,,,,,,,,,,,,,,,,,,,,,,,,,,,,,,,,,,,,,,,,,,,,,,
1656265906.607601,117.000000,0.000000,4309.230957,4278.461426,4137.436035,4100.000000,4236.922852,450.000000,4.000000,95.000000,,,,0.000000,4.000000,4.000000,4.000000,4.000000,4.000000,100.000000,,,,,,,,,,,,,,,,,,,,,,,,,,,,,,,,,,,,,,,,,,,,,,,,,,,,,,,,,,,,,,,
1656265906.615415,118.000000,0.000000,4313.333496,4271.794922,4127.179688,4100.512695,4252.307617,450.000000,4.000000,95.000000,,,,0.000000,4.000000,4.000000,4.000000,4.000000,4.000000,100.000000,,,,,,,,,,,,,,,,,,,,,,,,,,,,,,,,,,,,,,,,,,,,,,,,,,,,,,,,,,,,,,,
1656265906.623329,119.000000,0.000000,4276.410156,4266.666504,4130.256348,4089.230713,4238.461426,16194.000000,4.000000,95.000000,,,,0.000000,4.000000,4.000000,4.000000,4.000000,4.000000,100.000000,,,,,,,,,,,,,,,,,,,,,,,,,,,,,,,,,,,,,,,,,,,,,,,,,,,,,,,,,,,,,,,
1656265906.631144,120.000000,0.000000,4286.666504,4279.487305,4158.461426,4111.282227,4234.871582,450.000000,4.000000,95.000000,,,,0.000000,4.000000,4.000000,4.000000,4.000000,4.000000,100.000000,,,,,,,,,,,,,,,,,,,,,,,,,,,,,,,,,,,,,,,,,,,,,,,,,,,,,,,,,,,,,,,
1656265906.639058,121.000000,0.000000,4291.794922,4294.358887,4138.461426,4119.487305,4248.205078,450.000000,4.000000,95.000000,,,,0.000000,4.000000,4.000000,4.000000,4.000000,4.000000,100.000000,,,,,,,,,,,,,,,,,,,,,,,,,,,,,,,,,,,,,,,,,,,,,,,,,,,,,,,,,,,,,,,
1656265906.646873,122.000000,0.000000,4278.974121,4303.077148,4124.102539,4111.282227,4264.102539,450.000000,4.000000,95.000000,,,,0.000000,4.000000,4.000000,4.000000,4.000000,4.000000,100.000000,,,,,,,,,,,,,,,,,,,,,,,,,,,,,,,,,,,,,,,,,,,,,,,,,,,,,,,,,,,,,,,
1656265906.654787,123.000000,0.000000,4290.256348,4294.871582,4150.256348,4108.205078,4259.487305,16194.000000,4.000000,95.000000,,,,0.000000,4.000000,4.000000,4.000000,4.000000,4.000000,100.000000,,,,,,,,,,,,,,,,,,,,,,,,,,,,,,,,,,,,,,,,,,,,,,,,,,,,,,,,,,,,,,,
1656265906.662601,124.000000,0.000000,4284.102539,4265.128418,4152.307617,4092.307617,4226.153809,450.000000,4.000000,95.000000,,,,0.000000,4.000000,4.000000,4.000000,4.000000,4.000000,100.000000,,,,,,,,,,,,,,,,,,,,,,,,,,,,,,,,,,,,,,,,,,,,,,,,,,,,,,,,,,,,,,,
1656265906.670516,125.000000,0.000000,4285.128418,4274.358887,4138.974121,4103.589844,4231.282227,450.000000,4.000000,95.000000,,,,0.000000,4.000000,4.000000,4.000000,4.000000,4.000000,100.000000,,,,,,,,,,,,,,,,,,,,,,,,,,,,,,,,,,,,,,,,,,,,,,,,,,,,,,,,,,,,,,,
1656265906.678330,126.000000,0.000000,4303.077148,4278.461426,4130.769043,4116.410156,4250.256348,450.000000,4.000000,95.000000,,,,0.000000,4.000000,4.000000,4.000000,4.000000,4.000000,100.000000,,,,,,,,,,,,,,,,,,,,,,,,,,,,,,,,,,,,,,,,,,,,,,,,,,,,,,,,,,,,,,,
1656265906.686244,127.000000,0.000000,4305.128418,4264.102539,4128.205078,4108.717773,4244.102539,243.000000,4.000000,95.000000,,,,0.000000,4.000000,4.000000,4.000000,4.000000,4.000000,100.000000,,,,,,,,,,,,,,,,,,,,,,,,,,,,,,,,,,,,,,,,,,,,,,,,,,,,,,,,,,,,,,,
1656265906.694059,0.000000,0.000000,4292.820313,4277.436035,4108.717773,4114.871582,4241.538574,450.000000,4.000000,95.000000,,,,0.000000,4.000000,4.000000,4.000000,4.000000,4.000000,100.000000,,,,,,,,,,,,,,,,,,,,,,,,,,,,,,,,,,,,,,,,,,,,,,,,,,,,,,,,,,,,,,,
1656265906.701973,1.000000,0.000000,4274.358887,4280.512695,4092.820557,4111.282227,4233.333496,450.000000,4.000000,95.000000,,,,0.000000,4.000000,4.000000,4.000000,4.000000,4.000000,100.000000,1.000000,100.000000,4.000000,4.000000,4.000000,4.000000,4.000000,,,,,,,,,,,,,,,,,,,,,,,,,,,,,,,,3.711723,3.181785,3.605156,1.165126,1.717932,2.731008,3.122167,3.642860,1.128936,1.322068,1.109675,2.423443,1.792624,2.272536,1.209874,2.117086,4.238711,2.550738,1.575690,1.399438,3.503047,2.133436,3.820132,1.404256,1.426615
1656265906.709887,2.000000,0.000000,4290.256348,4277.436035,4122.563965,4105.128418,4245.641113,16168.000000,4.000000,95.000000,,,,0.000000,4.000000,4.000000,4.000000,4.000000,4.000000,100.000000,,,,,,,,,,,,,,,,,,,,,,,,,,,,,,,,,,,,,,,,,,,,,,,,,,,,,,,,,,,,,,,
1656265906.717702,3.000000,0.000000,4325.128418,4294.871582,4127.179688,4119.487305,4278.974121,450.000000,4.000000,95.000000,,,,0.000000,4.000000,4.000000,4.000000,4.000000,4.000000,100.000000,,,,,,,,,,,,,,,,,,,,,,,,,,,,,,,,,,,,,,,,,,,,,,,,,,,,,,,,,,,,,,,
1656265906.725616,4.000000,0.000000,4330.256348,4300.000000,4118.461426,4126.153809,4284.102539,16186.000000,4.000000,95.000000,,,,0.000000,4.000000,4.000000,4.000000,4.000000,4.000000,100.000000,,,,,,,,,,,,,,,,,,,,,,,,,,,,,,,,,,,,,,,,,,,,,,,,,,,,,,,,,,,,,,,
1656265906.733430,5.000000,0.000000,4325.128418,4287.692383,4153.846191,4121.025879,4275.897461,450.000000,4.000000,95.000000,,,,0.000000,4.000000,4.000000,4.000000,4.000000,4.000000,100.000000,,,,,,,,,,,,,,,,,,,,,,,,,,,,,,,,,,,,,,,,,,,,,,,,,,,,,,,,,,,,,,,
1656265906.741345,6.000000,0.000000,4317.436035,4283.589844,4150.769043,4111.282227,4266.153809,16124.000000,4.000000,95.000000,,,,0.000000,4.000000,4.000000,4.000000,4.000000,4.000000,100.000000,,,,,,,,,,,,,,,,,,,,,,,,,,,,,,,,,,,,,,,,,,,,,,,,,,,,,,,,,,,,,,,
