title:david_g_Right, start timestamp:1649886622.446330, stop timestamp:1649886627.499010, headset type:INSIGHT, headset serial:A2D201AE, headset firmware:932, channels:84, sampling rate:eeg_128;pm_0.1;pow_8, samples:646       , version:2.1, 
Timestamp,EEG.Counter,EEG.Interpolated,EEG.AF3,EEG.T7,EEG.Pz,EEG.T8,EEG.AF4,EEG.RawCq,EEG.Battery,EEG.BatteryPercent,MarkerIndex,MarkerType,MarkerValueInt,EEG.MarkerHardware,CQ.AF3,CQ.T7,CQ.Pz,CQ.T8,CQ.AF4,CQ.Overall,EQ.SampleRateQuality,EQ.OVERALL,EQ.AF3,EQ.T7,EQ.Pz,EQ.T8,EQ.AF4,PM.Engagement.IsActive,PM.Engagement.Scaled,PM.Engagement.Raw,PM.Engagement.Min,PM.Engagement.Max,PM.Excitement.IsActive,PM.Excitement.Scaled,PM.Excitement.Raw,PM.Excitement.Min,PM.Excitement.Max,PM.LongTermExcitement,PM.Stress.IsActive,PM.Stress.Scaled,PM.Stress.Raw,PM.Stress.Min,PM.Stress.Max,PM.Relaxation.IsActive,PM.Relaxation.Scaled,PM.Relaxation.Raw,PM.Relaxation.Min,PM.Relaxation.Max,PM.Interest.IsActive,PM.Interest.Scaled,PM.Interest.Raw,PM.Interest.Min,PM.Interest.Max,PM.Focus.IsActive,PM.Focus.Scaled,PM.Focus.Raw,PM.Focus.Min,PM.Focus.Max,POW.AF3.Theta,POW.AF3.Alpha,POW.AF3.BetaL,POW.AF3.BetaH,POW.AF3.Gamma,POW.T7.Theta,POW.T7.Alpha,POW.T7.BetaL,POW.T7.BetaH,POW.T7.Gamma,POW.Pz.Theta,POW.Pz.Alpha,POW.Pz.BetaL,POW.Pz.BetaH,POW.Pz.Gamma,POW.T8.Theta,POW.T8.Alpha,POW.T8.BetaL,POW.T8.BetaH,POW.T8.Gamma,POW.AF4.Theta,POW.AF4.Alpha,POW.AF4.BetaL,POW.AF4.BetaH,POW.AF4.Gamma
1649886622.446330,52.000000,0.000000,4257.948730,4256.922852,4189.230957,4223.589844,4260.512695,0.000000,4.000000,86.000000,,,,0.000000,4.000000,4.000000,4.000000,1.000000,4.000000,75.000000,,,,,,,,,,,,,,,,,,,,,,,,,,,,,,,,,,,,,,,,,,,,,,,,,,,,,,,,,,,,,,,
1649886622.454245,53.000000,0.000000,4252.307617,4249.230957,4186.153809,4223.589844,4248.717773,0.000000,4.000000,86.000000,,,,0.000000,4.000000,4.000000,4.000000,1.000000,4.000000,75.000000,,,,,,,,,,,,,,,,,,,,,,,,,,,,,,,,,,,,,,,,,,,,,,,,,,,,,,,,,,,,,,,
1649886622.462059,54.000000,0.000000,4239.487305,4246.666504,4180.512695,4222.563965,4225.128418,0.000000,4.000000,86.000000,,,,0.000000,4.000000,4.000000,4.000000,1.000000,4.000000,75.000000,,,,,,,,,,,,,,,,,,,,,,,,,,,,,,,,,,,,,,,,,,,,,,,,,,,,,,,,,,,,,,,
1649886622.469973,55.000000,0.000000,4244.102539,4255.384766,4185.128418,4223.077148,4224.102539,0.000000,4.000000,86.000000,,,,0.000000,4.000000,4.000000,4.000000,1.000000,4.000000,75.000000,,,,,,,,,,,,,,,,,,,,,,,,,,,,,,,,,,,,,,,,,,,,,,,,,,,,,,,,,,,,,,,
1649886622.477788,56.000000,0.000000,4238.461426,4250.256348,4180.512695,4222.051270,4218.461426,0.000000,4.000000,86.000000,,,,0.000000,4.000000,4.000000,4.000000,1.000000,4.000000,75.000000,,,,,,,,,,,,,,,,,,,,,,,,,,,,,,,,,,,,,,,,,,,,,,,,,,,,,,,,,,,,,,,
1649886622.485702,57.000000,0.000000,4237.436035,4245.641113,4182.563965,4222.051270,4222.563965,0.000000,4.000000,86.000000,,,,0.000000,4.000000,4.000000,4.000000,1.000000,4.000000,75.000000,,,,,,,,,,,,,,,,,,,,,,,,,,,,,,,,,,,,,,,,,,,,,,,,,,,,,,,,,,,,,,,
1649886622.493516,58.000000,0.000000,4261.538574,4260.000000,4206.666504,4224.615234,4249.230957,0.000000,4.000000,86.000000,,,,0.000000,4.000000,4.000000,4.000000,1.000000,4.000000,75.000000,,,,,,,,,,,,,,,,,,,,,,,,,,,,,,,,,,,,,,,,,,,,,,,,,,,,,,,,,,,,,,,
1649886622.501431,59.000000,0.000000,4279.487305,4271.794922,4213.333496,4228.205078,4261.025879,0.000000,4.000000,86.000000,,,,0.000000,4.000000,4.000000,4.000000,1.000000,4.000000,75.000000,,,,,,,,,,,,,,,,,,,,,,,,,,,,,,,,,,,,,,,,,,,,,,,,,,,,,,,,,,,,,,,
1649886622.509245,60.000000,0.000000,4272.820313,4263.589844,4187.692383,4228.205078,4254.871582,0.000000,4.000000,86.000000,,,,0.000000,4.000000,4.000000,4.000000,1.000000,4.000000,75.000000,,,,,,,,,,,,,,,,,,,,,,,,,,,,,,,,,,,,,,,95.770782,12.459049,5.403243,2.594128,1.324200,0.802444,1.838764,1.625410,0.725499,0.642893,2.437837,7.825412,3.424587,1.065237,0.974473,0.560970,0.311949,0.277068,0.099656,0.102376,60.067390,9.543648,4.493307,2.036782,1.305590
1649886622.517160,61.000000,0.000000,4265.128418,4254.358887,4172.820313,4224.615234,4251.282227,0.000000,4.000000,86.000000,,,,0.000000,4.000000,4.000000,4.000000,1.000000,4.000000,75.000000,,,,,,,,,,,,,,,,,,,,,,,,,,,,,,,,,,,,,,,,,,,,,,,,,,,,,,,,,,,,,,,
1649886622.524974,62.000000,0.000000,4264.615234,4254.871582,4184.102539,4225.128418,4246.666504,0.000000,4.000000,86.000000,,,,0.000000,4.000000,4.000000,4.000000,1.000000,4.000000,75.000000,,,,,,,,,,,,,,,,,,,,,,,,,,,,,,,,,,,,,,,,,,,,,,,,,,,,,,,,,,,,,,,
1649886622.532888,63.000000,0.000000,4260.512695,4250.256348,4182.563965,4226.153809,4241.538574,0.000000,4.000000,86.000000,,,,0.000000,4.000000,4.000000,4.000000,1.000000,4.000000,75.000000,,,,,,,,,,,,,,,,,,,,,,,,,,,,,,,,,,,,,,,,,,,,,,,,,,,,,,,,,,,,,,,
1649886622.540703,64.000000,0.000000,4257.436035,4239.487305,4168.205078,4224.615234,4243.077148,450.000000,4.000000,86.000000,,,,0.000000,4.000000,4.000000,4.000000,1.000000,4.000000,75.000000,,,,,,,,,,,,,,,,,,,,,,,,,,,,,,,,,,,,,,,,,,,,,,,,,,,,,,,,,,,,,,,
1649886622.548617,65.000000,0.000000,4254.358887,4235.384766,4175.897461,4221.025879,4244.615234,450.000000,4.000000,86.000000,,,,0.000000,4.000000,4.000000,4.000000,1.000000,4.000000,75.000000,,,,,,,,,,,,,,,,,,,,,,,,,,,,,,,,,,,,,,,,,,,,,,,,,,,,,,,,,,,,,,,
1649886622.556431,66.000000,0.000000,4240.000000,4240.000000,4189.230957,4219.487305,4240.512695,16216.000000,4.000000,86.000000,,,,0.000000,4.000000,4.000000,4.000000,1.000000,4.000000,75.000000,,,,,,,,,,,,,,,,,,,,,,,,,,,,,,,,,,,,,,,,,,,,,,,,,,,,,,,,,,,,,,,
1649886622.564346,67.000000,0.000000,4232.307617,4243.077148,4179.487305,4221.538574,4231.282227,450.000000,4.000000,86.000000,,,,0.000000,4.000000,4.000000,4.000000,1.000000,4.000000,75.000000,,,,,,,,,,,,,,,,,,,,,,,,,,,,,,,,,,,,,,,,,,,,,,,,,,,,,,,,,,,,,,,
1649886622.572260,68.000000,0.000000,4241.538574,4244.102539,4174.358887,4219.487305,4228.717773,16195.000000,4.000000,86.000000,,,,0.000000,4.000000,4.000000,4.000000,1.000000,4.000000,75.000000,,,,,,,,,,,,,,,,,,,,,,,,,,,,,,,,,,,,,,,,,,,,,,,,,,,,,,,,,,,,,,,
1649886622.580074,69.000000,0.000000,4238.974121,4242.563965,4180.512695,4218.974121,4234.358887,450.000000,4.000000,86.000000,,,,0.000000,4.000000,4.000000,4.000000,1.000000,4.000000,75.000000,,,,,,,,,,,,,,,,,,,,,,,,,,,,,,,,,,,,,,,,,,,,,,,,,,,,,,,,,,,,,,,
1649886622.587989,70.000000,0.000000,4219.487305,4233.846191,4166.153809,4220.000000,4224.615234,16174.000000,4.000000,86.000000,,,,0.000000,4.000000,4.000000,4.000000,1.000000,4.000000,75.000000,,,,,,,,,,,,,,,,,,,,,,,,,,,,,,,,,,,,,,,,,,,,,,,,,,,,,,,,,,,,,,,
1649886622.595803,71.000000,0.000000,4218.461426,4230.256348,4153.333496,4217.948730,4211.794922,450.000000,4.000000,86.000000,,,,0.000000,4.000000,4.000000,4.000000,1.000000,4.000000,75.000000,,,,,,,,,,,,,,,,,,,,,,,,,,,,,,,,,,,,,,,,,,,,,,,,,,,,,,,,,,,,,,,
1649886622.603717,72.000000,0.000000,4231.282227,4238.461426,4162.051270,4218.974121,4214.871582,450.000000,4.000000,86.000000,,,,0.000000,4.000000,4.000000,4.000000,1.000000,4.000000,75.000000,,,,,,,,,,,,,,,,,,,,,,,,,,,,,,,,,,,,,,,,,,,,,,,,,,,,,,,,,,,,,,,
1649886622.611532,73.000000,0.000000,4236.922852,4244.102539,4167.692383,4223.589844,4224.102539,37.000000,4.000000,86.000000,,,,0.000000,4.000000,4.000000,4.000000,1.000000,4.000000,75.000000,,,,,,,,,,,,,,,,,,,,,,,,,,,,,,,,,,,,,,,,,,,,,,,,,,,,,,,,,,,,,,,
1649886622.619446,74.000000,0.000000,4244.615234,4243.589844,4168.717773,4225.128418,4228.717773,450.000000,4.000000,86.000000,,,,0.000000,4.000000,4.000000,4.000000,1.000000,4.000000,75.000000,,,,,,,,,,,,,,,,,,,,,,,,,,,,,,,,,,,,,,,,,,,,,,,,,,,,,,,,,,,,,,,
1649886622.627260,75.000000,0.000000,4249.230957,4242.051270,4175.384766,4222.563965,4222.563965,16213.000000,4.000000,86.000000,,,,0.000000,4.000000,4.000000,4.000000,1.000000,4.000000,75.000000,,,,,,,,,,,,,,,,,,,,,,,,,,,,,,,,,,,,,,,,,,,,,,,,,,,,,,,,,,,,,,,
1649886622.635175,76.000000,0.000000,4257.436035,4243.589844,4182.051270,4224.615234,4227.179688,450.000000,4.000000,86.000000,,,,0.000000,4.000000,4.000000,4.000000,1.000000,4.000000,75.000000,,,,,,,,,,,,,,,,,,,,,,,,,,,,,,,,,,,,,,,94.372704,10.011021,5.030881,2.495973,1.213815,1.076748,1.825413,1.458687,0.694925,0.597217,3.076284,7.985209,3.230495,1.049556,0.868317,0.513345,0.257304,0.245060,0.094567,0.091501,58.530548,7.578531,4.055492,2.021471,1.117827
1649886622.642989,77.000000,0.000000,4283.589844,4255.384766,4193.333496,4231.794922,4262.563965,450.000000,4.000000,86.000000,,,,0.000000,4.000000,4.000000,4.000000,1.000000,4.000000,75.000000,,,,,,,,,,,,,,,,,,,,,,,,,,,,,,,,,,,,,,,,,,,,,,,,,,,,,,,,,,,,,,,
1649886622.650904,78.000000,0.000000,4291.794922,4262.051270,4195.897461,4235.384766,4289.743652,450.000000,4.000000,86.000000,,,,0.000000,4.000000,4.000000,4.000000,1.000000,4.000000,75.000000,,,,,,,,,,,,,,,,,,,,,,,,,,,,,,,,,,,,,,,,,,,,,,,,,,,,,,,,,,,,,,,
1649886622.658718,79.000000,0.000000,4271.282227,4250.769043,4183.589844,4228.717773,4278.461426,16213.000000,4.000000,86.000000,,,,0.000000,4.000000,4.000000,4.000000,1.000000,4.000000,75.000000,,,,,,,,,,,,,,,,,,,,,,,,,,,,,,,,,,,,,,,,,,,,,,,,,,,,,,,,,,,,,,,
1649886622.666632,80.000000,0.000000,4254.871582,4243.589844,4180.512695,4222.051270,4262.563965,450.000000,4.000000,86.000000,,,,0.000000,4.000000,4.000000,4.000000,1.000000,4.000000,75.000000,,,,,,,,,,,,,,,,,,,,,,,,,,,,,,,,,,,,,,,,,,,,,,,,,,,,,,,,,,,,,,,
1649886622.674447,81.000000,0.000000,4243.077148,4242.051270,4186.666504,4224.615234,4253.846191,450.000000,4.000000,86.000000,,,,0.000000,4.000000,4.000000,4.000000,1.000000,4.000000,75.000000,,,,,,,,,,,,,,,,,,,,,,,,,,,,,,,,,,,,,,,,,,,,,,,,,,,,,,,,,,,,,,,
1649886622.682361,82.000000,0.000000,4230.256348,4231.282227,4177.436035,4223.589844,4235.897461,450.000000,4.000000,86.000000,,,,0.000000,4.000000,4.000000,4.000000,1.000000,4.000000,75.000000,,,,,,,,,,,,,,,,,,,,,,,,,,,,,,,,,,,,,,,,,,,,,,,,,,,,,,,,,,,,,,,
1649886622.690175,83.000000,0.000000,4233.846191,4231.282227,4165.641113,4222.051270,4235.384766,16213.000000,4.000000,86.000000,,,,0.000000,4.000000,4.000000,4.000000,1.000000,4.000000,75.000000,,,,,,,,,,,,,,,,,,,,,,,,,,,,,,,,,,,,,,,,,,,,,,,,,,,,,,,,,,,,,,,
1649886622.698090,84.000000,0.000000,4250.256348,4248.205078,4170.256348,4226.153809,4251.282227,450.000000,4.000000,86.000000,,,,0.000000,4.000000,4.000000,4.000000,1.000000,4.000000,75.000000,,,,,,,,,,,,,,,,,,,,,,,,,,,,,,,,,,,,,,,,,,,,,,,,,,,,,,,,,,,,,,,
1649886622.706004,85.000000,0.000000,4254.358887,4245.641113,4169.230957,4226.153809,4252.820313,450.000000,4.000000,86.000000,,,,0.000000,4.000000,4.000000,4.000000,1.000000,4.000000,75.000000,,,,,,,,,,,,,,,,,,,,,,,,,,,,,,,,,,,,,,,,,,,,,,,,,,,,,,,,,,,,,,,
1649886622.713818,86.000000,0.000000,4252.820313,4231.794922,4161.538574,4225.128418,4249.743652,450.000000,4.000000,86.000000,,,,0.000000,4.000000,4.000000,4.000000,1.000000,4.000000,75.000000,,,,,,,,,,,,,,,,,,,,,,,,,,,,,,,,,,,,,,,,,,,,,,,,,,,,,,,,,,,,,,,
1649886622.721633,87.000000,0.000000,4253.333496,4237.436035,4163.589844,4225.641113,4252.820313,16213.000000,4.000000,86.000000,,,,0.000000,4.000000,4.000000,4.000000,1.000000,4.000000,75.000000,,,,,,,,,,,,,,,,,,,,,,,,,,,,,,,,,,,,,,,,,,,,,,,,,,,,,,,,,,,,,,,
1649886622.729547,88.000000,0.000000,4246.153809,4245.128418,4171.794922,4223.589844,4246.153809,450.000000,4.000000,86.000000,,,,0.000000,4.000000,4.000000,4.000000,1.000000,4.000000,75.000000,,,,,,,,,,,,,,,,,,,,,,,,,,,,,,,,,,,,,,,,,,,,,,,,,,,,,,,,,,,,,,,
1649886622.737461,89.000000,0.000000,4238.974121,4242.051270,4177.948730,4220.512695,4238.461426,450.000000,4.000000,86.000000,,,,0.000000,4.000000,4.000000,4.000000,1.000000,4.000000,75.000000,,,,,,,,,,,,,,,,,,,,,,,,,,,,,,,,,,,,,,,,,,,,,,,,,,,,,,,,,,,,,,,
1649886622.745276,90.000000,0.000000,4248.717773,4243.077148,4188.717773,4223.077148,4248.205078,450.000000,4.000000,86.000000,,,,0.000000,4.000000,4.000000,4.000000,1.000000,4.000000,75.000000,,,,,,,,,,,,,,,,,,,,,,,,,,,,,,,,,,,,,,,,,,,,,,,,,,,,,,,,,,,,,,,
1649886622.753190,91.000000,0.000000,4254.871582,4249.230957,4205.128418,4226.153809,4255.384766,16213.000000,4.000000,86.000000,,,,0.000000,4.000000,4.000000,4.000000,1.000000,4.000000,75.000000,,,,,,,,,,,,,,,,,,,,,,,,,,,,,,,,,,,,,,,,,,,,,,,,,,,,,,,,,,,,,,,
1649886622.761004,92.000000,0.000000,4235.897461,4247.692383,4205.128418,4223.077148,4243.589844,450.000000,4.000000,86.000000,,,,0.000000,4.000000,4.000000,4.000000,1.000000,4.000000,75.000000,1.000000,75.000000,4.000000,4.000000,4.000000,1.000000,4.000000,,,,,,,,,,,,,,,,,,,,,,,,,,,,,,,,80.284012,7.506459,4.470316,2.279098,1.048220,1.476048,1.821556,1.255880,0.648910,0.515530,3.859616,7.763995,3.022430,0.992608,0.727179,0.458888,0.220871,0.209015,0.087261,0.078623,49.693489,5.931027,3.457664,1.941364,0.891862
1649886622.768919,93.000000,0.000000,4225.128418,4241.025879,4192.820313,4224.102539,4237.948730,450.000000,4.000000,86.000000,,,,0.000000,4.000000,4.000000,4.000000,1.000000,4.000000,75.000000,,,,,,,,,,,,,,,,,,,,,,,,,,,,,,,,,,,,,,,,,,,,,,,,,,,,,,,,,,,,,,,
1649886622.776733,94.000000,0.000000,4232.820313,4236.922852,4183.077148,4227.179688,4245.128418,450.000000,4.000000,86.000000,,,,0.000000,4.000000,4.000000,4.000000,1.000000,4.000000,75.000000,,,,,,,,,,,,,,,,,,,,,,,,,,,,,,,,,,,,,,,,,,,,,,,,,,,,,,,,,,,,,,,
1649886622.784648,95.000000,0.000000,4232.307617,4231.282227,4175.384766,4226.153809,4244.615234,16213.000000,4.000000,86.000000,,,,0.000000,4.000000,4.000000,4.000000,1.000000,4.000000,75.000000,,,,,,,,,,,,,,,,,,,,,,,,,,,,,,,,,,,,,,,,,,,,,,,,,,,,,,,,,,,,,,,
1649886622.792462,96.000000,0.000000,4236.922852,4229.230957,4167.692383,4222.051270,4235.897461,450.000000,4.000000,86.000000,,,,0.000000,4.000000,4.000000,4.000000,1.000000,4.000000,75.000000,,,,,,,,,,,,,,,,,,,,,,,,,,,,,,,,,,,,,,,,,,,,,,,,,,,,,,,,,,,,,,,
1649886622.800376,97.000000,0.000000,4247.692383,4233.846191,4165.128418,4220.000000,4228.717773,450.000000,4.000000,86.000000,,,,0.000000,4.000000,4.000000,4.000000,1.000000,4.000000,75.000000,,,,,,,,,,,,,,,,,,,,,,,,,,,,,,,,,,,,,,,,,,,,,,,,,,,,,,,,,,,,,,,
1649886622.808191,98.000000,0.000000,4240.512695,4237.436035,4169.743652,4222.563965,4228.717773,450.000000,4.000000,86.000000,,,,0.000000,4.000000,4.000000,4.000000,1.000000,4.000000,75.000000,,,,,,,,,,,,,,,,,,,,,,,,,,,,,,,,,,,,,,,,,,,,,,,,,,,,,,,,,,,,,,,
1649886622.816105,99.000000,0.000000,4228.717773,4229.743652,4169.230957,4223.589844,4235.384766,16213.000000,4.000000,86.000000,,,,0.000000,4.000000,4.000000,4.000000,1.000000,4.000000,75.000000,,,,,,,,,,,,,,,,,,,,,,,,,,,,,,,,,,,,,,,,,,,,,,,,,,,,,,,,,,,,,,,
1649886622.823919,100.000000,0.000000,4234.871582,4228.205078,4163.589844,4220.512695,4238.974121,450.000000,4.000000,86.000000,,,,0.000000,4.000000,4.000000,4.000000,1.000000,4.000000,75.000000,,,,,,,,,,,,,,,,,,,,,,,,,,,,,,,,,,,,,,,,,,,,,,,,,,,,,,,,,,,,,,,
1649886622.831834,101.000000,0.000000,4245.128418,4244.615234,4163.077148,4219.487305,4237.948730,450.000000,4.000000,86.000000,,,,0.000000,4.000000,4.000000,4.000000,1.000000,4.000000,75.000000,,,,,,,,,,,,,,,,,,,,,,,,,,,,,,,,,,,,,,,,,,,,,,,,,,,,,,,,,,,,,,,
1649886622.839648,102.000000,0.000000,4244.102539,4252.307617,4163.589844,4223.589844,4239.487305,450.000000,4.000000,86.000000,,,,0.000000,4.000000,4.000000,4.000000,1.000000,4.000000,75.000000,,,,,,,,,,,,,,,,,,,,,,,,,,,,,,,,,,,,,,,,,,,,,,,,,,,,,,,,,,,,,,,
1649886622.847562,103.000000,0.000000,4232.307617,4238.461426,4158.461426,4223.077148,4232.820313,16213.000000,4.000000,86.000000,,,,0.000000,4.000000,4.000000,4.000000,1.000000,4.000000,75.000000,,,,,,,,,,,,,,,,,,,,,,,,,,,,,,,,,,,,,,,,,,,,,,,,,,,,,,,,,,,,,,,
1649886622.855477,104.000000,0.000000,4232.820313,4232.307617,4158.461426,4215.897461,4227.692383,450.000000,4.000000,86.000000,,,,0.000000,4.000000,4.000000,4.000000,1.000000,4.000000,75.000000,,,,,,,,,,,,,,,,,,,,,,,,,,,,,,,,,,,,,,,,,,,,,,,,,,,,,,,,,,,,,,,
1649886622.863291,105.000000,0.000000,4254.358887,4243.077148,4168.205078,4217.436035,4242.051270,450.000000,4.000000,86.000000,,,,0.000000,4.000000,4.000000,4.000000,1.000000,4.000000,75.000000,,,,,,,,,,,,,,,,,,,,,,,,,,,,,,,,,,,,,,,,,,,,,,,,,,,,,,,,,,,,,,,
1649886622.871105,106.000000,0.000000,4264.102539,4246.666504,4169.743652,4225.641113,4254.358887,450.000000,4.000000,86.000000,,,,0.000000,4.000000,4.000000,4.000000,1.000000,4.000000,75.000000,,,,,,,,,,,,,,,,,,,,,,,,,,,,,,,,,,,,,,,,,,,,,,,,,,,,,,,,,,,,,,,
1649886622.879020,107.000000,0.000000,4257.948730,4246.666504,4168.717773,4228.717773,4253.846191,16213.000000,4.000000,86.000000,,,,0.000000,4.000000,4.000000,4.000000,1.000000,4.000000,75.000000,,,,,,,,,,,,,,,,,,,,,,,,,,,,,,,,,,,,,,,,,,,,,,,,,,,,,,,,,,,,,,,
1649886622.886834,108.000000,0.000000,4257.436035,4251.794922,4172.820313,4225.641113,4252.820313,450.000000,4.000000,86.000000,,,,0.000000,4.000000,4.000000,4.000000,1.000000,4.000000,75.000000,,,,,,,,,,,,,,,,,,,,,,,,,,,,,,,,,,,,,,,58.496525,5.297791,3.812302,2.004457,0.874612,1.895019,1.780892,1.091926,0.590422,0.425446,4.615587,7.079902,2.848903,0.893983,0.601431,0.403455,0.198743,0.174231,0.079180,0.067197,36.511189,4.733076,2.861891,1.824467,0.685796
1649886622.894748,109.000000,0.000000,4250.769043,4248.205078,4168.717773,4225.641113,4248.717773,450.000000,4.000000,86.000000,,,,0.000000,4.000000,4.000000,4.000000,1.000000,4.000000,75.000000,,,,,,,,,,,,,,,,,,,,,,,,,,,,,,,,,,,,,,,,,,,,,,,,,,,,,,,,,,,,,,,
1649886622.902663,110.000000,0.000000,4238.974121,4233.333496,4161.025879,4225.641113,4241.025879,450.000000,4.000000,86.000000,,,,0.000000,4.000000,4.000000,4.000000,1.000000,4.000000,75.000000,,,,,,,,,,,,,,,,,,,,,,,,,,,,,,,,,,,,,,,,,,,,,,,,,,,,,,,,,,,,,,,
1649886622.910477,111.000000,0.000000,4236.922852,4228.717773,4167.179688,4223.589844,4238.974121,16213.000000,4.000000,86.000000,,,,0.000000,4.000000,4.000000,4.000000,1.000000,4.000000,75.000000,,,,,,,,,,,,,,,,,,,,,,,,,,,,,,,,,,,,,,,,,,,,,,,,,,,,,,,,,,,,,,,
1649886622.918392,112.000000,0.000000,4244.615234,4240.512695,4183.589844,4225.128418,4245.641113,450.000000,4.000000,86.000000,,,,0.000000,4.000000,4.000000,4.000000,1.000000,4.000000,75.000000,,,,,,,,,,,,,,,,,,,,,,,,,,,,,,,,,,,,,,,,,,,,,,,,,,,,,,,,,,,,,,,
1649886622.926206,113.000000,0.000000,4254.358887,4248.205078,4193.846191,4226.666504,4252.307617,450.000000,4.000000,86.000000,,,,0.000000,4.000000,4.000000,4.000000,1.000000,4.000000,75.000000,,,,,,,,,,,,,,,,,,,,,,,,,,,,,,,,,,,,,,,,,,,,,,,,,,,,,,,,,,,,,,,
1649886622.934120,114.000000,0.000000,4254.871582,4243.589844,4191.794922,4226.153809,4247.179688,450.000000,4.000000,86.000000,,,,0.000000,4.000000,4.000000,4.000000,1.000000,4.000000,75.000000,,,,,,,,,,,,,,,,,,,,,,,,,,,,,,,,,,,,,,,,,,,,,,,,,,,,,,,,,,,,,,,
1649886622.941935,115.000000,0.000000,4237.436035,4238.974121,4179.487305,4224.102539,4236.410156,16213.000000,4.000000,86.000000,,,,0.000000,4.000000,4.000000,4.000000,1.000000,4.000000,75.000000,,,,,,,,,,,,,,,,,,,,,,,,,,,,,,,,,,,,,,,,,,,,,,,,,,,,,,,,,,,,,,,
1649886622.949849,116.000000,0.000000,4232.307617,4240.512695,4168.717773,4223.589844,4234.358887,450.000000,4.000000,86.000000,,,,0.000000,4.000000,4.000000,4.000000,1.000000,4.000000,75.000000,,,,,,,,,,,,,,,,,,,,,,,,,,,,,,,,,,,,,,,,,,,,,,,,,,,,,,,,,,,,,,,
1649886622.957663,117.000000,0.000000,4251.282227,4240.512695,4167.692383,4224.102539,4245.641113,450.000000,4.000000,86.000000,,,,0.000000,4.000000,4.000000,4.000000,1.000000,4.000000,75.000000,,,,,,,,,,,,,,,,,,,,,,,,,,,,,,,,,,,,,,,,,,,,,,,,,,,,,,,,,,,,,,,
1649886622.965478,118.000000,0.000000,4265.128418,4238.461426,4166.153809,4223.077148,4256.410156,450.000000,4.000000,86.000000,,,,0.000000,4.000000,4.000000,4.000000,1.000000,4.000000,75.000000,,,,,,,,,,,,,,,,,,,,,,,,,,,,,,,,,,,,,,,,,,,,,,,,,,,,,,,,,,,,,,,
1649886622.973392,119.000000,0.000000,4270.256348,4241.025879,4163.077148,4224.102539,4261.538574,16213.000000,4.000000,86.000000,,,,0.000000,4.000000,4.000000,4.000000,1.000000,4.000000,75.000000,,,,,,,,,,,,,,,,,,,,,,,,,,,,,,,,,,,,,,,,,,,,,,,,,,,,,,,,,,,,,,,
1649886622.981306,120.000000,0.000000,4266.153809,4238.974121,4160.000000,4226.153809,4256.410156,450.000000,4.000000,86.000000,,,,0.000000,4.000000,4.000000,4.000000,1.000000,4.000000,75.000000,,,,,,,,,,,,,,,,,,,,,,,,,,,,,,,,,,,,,,,,,,,,,,,,,,,,,,,,,,,,,,,
1649886622.989121,121.000000,0.000000,4251.282227,4232.820313,4156.922852,4225.128418,4246.153809,450.000000,4.000000,86.000000,,,,0.000000,4.000000,4.000000,4.000000,1.000000,4.000000,75.000000,,,,,,,,,,,,,,,,,,,,,,,,,,,,,,,,,,,,,,,,,,,,,,,,,,,,,,,,,,,,,,,
1649886622.996935,122.000000,0.000000,4251.794922,4232.820313,4159.487305,4222.051270,4243.077148,450.000000,4.000000,86.000000,,,,0.000000,4.000000,4.000000,4.000000,1.000000,4.000000,75.000000,,,,,,,,,,,,,,,,,,,,,,,,,,,,,,,,,,,,,,,,,,,,,,,,,,,,,,,,,,,,,,,
1649886623.004750,123.000000,0.000000,4254.358887,4236.410156,4162.051270,4221.538574,4237.436035,16213.000000,4.000000,86.000000,,,,0.000000,4.000000,4.000000,4.000000,1.000000,4.000000,75.000000,,,,,,,,,,,,,,,,,,,,,,,,,,,,,,,,,,,,,,,,,,,,,,,,,,,,,,,,,,,,,,,
1649886623.012664,124.000000,0.000000,4244.615234,4240.000000,4165.641113,4223.589844,4230.256348,450.000000,4.000000,86.000000,,,,0.000000,4.000000,4.000000,4.000000,1.000000,4.000000,75.000000,,,,,,,,,,,,,,,,,,,,,,,,,,,,,,,,,,,,,,,36.121277,3.665248,3.196982,1.744627,0.732638,2.239787,1.676049,1.017011,0.523978,0.352093,5.174015,6.053121,2.766511,0.773708,0.525605,0.358231,0.184045,0.145711,0.072047,0.059460,23.251316,3.959955,2.435655,1.721321,0.541049
1649886623.020578,125.000000,0.000000,4241.538574,4242.563965,4163.589844,4224.102539,4228.717773,450.000000,4.000000,86.000000,,,,0.000000,4.000000,4.000000,4.000000,1.000000,4.000000,75.000000,,,,,,,,,,,,,,,,,,,,,,,,,,,,,,,,,,,,,,,,,,,,,,,,,,,,,,,,,,,,,,,
1649886623.028393,126.000000,0.000000,4250.256348,4242.563965,4155.384766,4223.589844,4232.307617,450.000000,4.000000,86.000000,,,,0.000000,4.000000,4.000000,4.000000,1.000000,4.000000,75.000000,,,,,,,,,,,,,,,,,,,,,,,,,,,,,,,,,,,,,,,,,,,,,,,,,,,,,,,,,,,,,,,
1649886623.036307,127.000000,0.000000,4256.922852,4242.563965,4162.051270,4224.615234,4240.000000,241.000000,4.000000,86.000000,,,,0.000000,4.000000,4.000000,4.000000,1.000000,4.000000,75.000000,,,,,,,,,,,,,,,,,,,,,,,,,,,,,,,,,,,,,,,,,,,,,,,,,,,,,,,,,,,,,,,
1649886623.044121,0.000000,0.000000,4252.820313,4239.487305,4169.230957,4226.666504,4237.436035,450.000000,4.000000,86.000000,,,,0.000000,4.000000,4.000000,4.000000,1.000000,4.000000,75.000000,,,,,,,,,,,,,,,,,,,,,,,,,,,,,,,,,,,,,,,,,,,,,,,,,,,,,,,,,,,,,,,
1649886623.052036,1.000000,0.000000,4243.077148,4234.871582,4160.000000,4224.102539,4226.666504,450.000000,4.000000,86.000000,,,,0.000000,4.000000,4.000000,4.000000,1.000000,4.000000,75.000000,,,,,,,,,,,,,,,,,,,,,,,,,,,,,,,,,,,,,,,,,,,,,,,,,,,,,,,,,,,,,,,
1649886623.059850,2.000000,0.000000,4238.974121,4236.922852,4153.333496,4223.077148,4227.179688,16222.000000,4.000000,86.000000,,,,0.000000,4.000000,4.000000,4.000000,1.000000,4.000000,75.000000,,,,,,,,,,,,,,,,,,,,,,,,,,,,,,,,,,,,,,,,,,,,,,,,,,,,,,,,,,,,,,,
1649886623.067764,3.000000,0.000000,4237.948730,4238.461426,4149.230957,4222.051270,4232.307617,450.000000,4.000000,86.000000,,,,0.000000,4.000000,4.000000,4.000000,1.000000,4.000000,75.000000,,,,,,,,,,,,,,,,,,,,,,,,,,,,,,,,,,,,,,,,,,,,,,,,,,,,,,,,,,,,,,,
1649886623.075579,4.000000,0.000000,4228.717773,4226.153809,4131.282227,4213.846191,4221.025879,16201.000000,4.000000,86.000000,,,,0.000000,4.000000,4.000000,4.000000,1.000000,4.000000,75.000000,,,,,,,,,,,,,,,,,,,,,,,,,,,,,,,,,,,,,,,,,,,,,,,,,,,,,,,,,,,,,,,
1649886623.083493,5.000000,0.000000,4230.256348,4220.000000,4126.153809,4212.307617,4211.794922,450.000000,4.000000,86.000000,,,,0.000000,4.000000,4.000000,4.000000,1.000000,4.000000,75.000000,,,,,,,,,,,,,,,,,,,,,,,,,,,,,,,,,,,,,,,,,,,,,,,,,,,,,,,,,,,,,,,
1649886623.091307,6.000000,0.000000,4251.794922,4228.205078,4144.615234,4219.487305,4226.153809,16179.000000,4.000000,86.000000,,,,0.000000,4.000000,4.000000,4.000000,1.000000,4.000000,75.000000,,,,,,,,,,,,,,,,,,,,,,,,,,,,,,,,,,,,,,,,,,,,,,,,,,,,,,,,,,,,,,,
1649886623.099222,7.000000,0.000000,4260.512695,4229.743652,4155.897461,4220.512695,4237.948730,450.000000,4.000000,86.000000,,,,0.000000,4.000000,4.000000,4.000000,1.000000,4.000000,75.000000,,,,,,,,,,,,,,,,,,,,,,,,,,,,,,,,,,,,,,,,,,,,,,,,,,,,,,,,,,,,,,,
1649886623.107036,8.000000,0.000000,4244.102539,4223.589844,4158.974121,4219.487305,4231.794922,450.000000,4.000000,86.000000,,,,0.000000,4.000000,4.000000,4.000000,1.000000,4.000000,75.000000,,,,,,,,,,,,,,,,,,,,,,,,,,,,,,,,,,,,,,,,,,,,,,,,,,,,,,,,,,,,,,,
1649886623.114950,9.000000,0.000000,4236.922852,4230.256348,4167.179688,4223.077148,4237.436035,37.000000,4.000000,86.000000,,,,0.000000,4.000000,4.000000,4.000000,1.000000,4.000000,75.000000,,,,,,,,,,,,,,,,,,,,,,,,,,,,,,,,,,,,,,,,,,,,,,,,,,,,,,,,,,,,,,,
1649886623.122765,10.000000,0.000000,4253.846191,4238.461426,4168.205078,4225.641113,4253.333496,450.000000,4.000000,86.000000,,,,0.000000,4.000000,4.000000,4.000000,1.000000,4.000000,75.000000,,,,,,,,,,,,,,,,,,,,,,,,,,,,,,,,,,,,,,,,,,,,,,,,,,,,,,,,,,,,,,,
1649886623.130679,11.000000,0.000000,4256.922852,4232.307617,4155.384766,4221.538574,4245.128418,16211.000000,4.000000,86.000000,,,,0.000000,4.000000,4.000000,4.000000,1.000000,4.000000,75.000000,,,,,,,,,,,,,,,,,,,,,,,,,,,,,,,,,,,,,,,,,,,,,,,,,,,,,,,,,,,,,,,
1649886623.138494,12.000000,0.000000,4237.436035,4227.692383,4149.743652,4216.410156,4228.717773,450.000000,4.000000,86.000000,,,,0.000000,4.000000,4.000000,4.000000,1.000000,4.000000,75.000000,,,,,,,,,,,,,,,,,,,,,,,,,,,,,,,,,,,,,,,19.249067,2.785081,2.732067,1.540008,0.637219,2.428161,1.524106,1.025329,0.458834,0.307577,5.432558,4.948422,2.755939,0.662265,0.501333,0.330809,0.172230,0.125745,0.066739,0.055653,13.342284,3.531543,2.237850,1.663286,0.465099
1649886623.146408,13.000000,0.000000,4231.282227,4232.307617,4153.333496,4215.897461,4229.743652,450.000000,4.000000,86.000000,,,,0.000000,4.000000,4.000000,4.000000,1.000000,4.000000,75.000000,,,,,,,,,,,,,,,,,,,,,,,,,,,,,,,,,,,,,,,,,,,,,,,,,,,,,,,,,,,,,,,
1649886623.154222,14.000000,0.000000,4236.922852,4238.461426,4151.282227,4216.922852,4226.666504,450.000000,4.000000,86.000000,,,,0.000000,4.000000,4.000000,4.000000,1.000000,4.000000,75.000000,,,,,,,,,,,,,,,,,,,,,,,,,,,,,,,,,,,,,,,,,,,,,,,,,,,,,,,,,,,,,,,
1649886623.162137,15.000000,0.000000,4244.102539,4240.512695,4145.641113,4219.487305,4228.205078,16211.000000,4.000000,86.000000,,,,0.000000,4.000000,4.000000,4.000000,1.000000,4.000000,75.000000,,,,,,,,,,,,,,,,,,,,,,,,,,,,,,,,,,,,,,,,,,,,,,,,,,,,,,,,,,,,,,,
1649886623.169951,16.000000,0.000000,4252.307617,4237.436035,4136.922852,4223.077148,4239.487305,0.000000,4.000000,86.000000,,,,0.000000,4.000000,4.000000,4.000000,1.000000,4.000000,75.000000,,,,,,,,,,,,,,,,,,,,,,,,,,,,,,,,,,,,,,,,,,,,,,,,,,,,,,,,,,,,,,,
1649886623.177865,17.000000,0.000000,4253.333496,4238.974121,4133.333496,4226.153809,4241.025879,0.000000,4.000000,86.000000,,,,0.000000,4.000000,4.000000,4.000000,1.000000,4.000000,75.000000,,,,,,,,,,,,,,,,,,,,,,,,,,,,,,,,,,,,,,,,,,,,,,,,,,,,,,,,,,,,,,,
1649886623.185680,18.000000,0.000000,4256.922852,4250.769043,4146.666504,4224.615234,4242.051270,0.000000,4.000000,86.000000,,,,0.000000,4.000000,4.000000,4.000000,1.000000,4.000000,75.000000,,,,,,,,,,,,,,,,,,,,,,,,,,,,,,,,,,,,,,,,,,,,,,,,,,,,,,,,,,,,,,,
1649886623.193594,19.000000,0.000000,4261.025879,4251.794922,4162.051270,4222.051270,4245.128418,0.000000,4.000000,86.000000,,,,0.000000,4.000000,4.000000,4.000000,1.000000,4.000000,75.000000,,,,,,,,,,,,,,,,,,,,,,,,,,,,,,,,,,,,,,,,,,,,,,,,,,,,,,,,,,,,,,,
1649886623.201408,20.000000,0.000000,4252.307617,4238.461426,4170.769043,4223.077148,4232.307617,0.000000,4.000000,86.000000,,,,0.000000,4.000000,4.000000,4.000000,1.000000,4.000000,75.000000,,,,,,,,,,,,,,,,,,,,,,,,,,,,,,,,,,,,,,,,,,,,,,,,,,,,,,,,,,,,,,,
1649886623.209323,21.000000,0.000000,4250.769043,4237.436035,4186.666504,4224.615234,4224.615234,0.000000,4.000000,86.000000,,,,0.000000,4.000000,4.000000,4.000000,1.000000,4.000000,75.000000,,,,,,,,,,,,,,,,,,,,,,,,,,,,,,,,,,,,,,,,,,,,,,,,,,,,,,,,,,,,,,,
1649886623.217237,22.000000,0.000000,4255.384766,4241.025879,4194.358887,4220.512695,4235.897461,0.000000,4.000000,86.000000,,,,0.000000,4.000000,4.000000,4.000000,1.000000,4.000000,75.000000,,,,,,,,,,,,,,,,,,,,,,,,,,,,,,,,,,,,,,,,,,,,,,,,,,,,,,,,,,,,,,,
1649886623.225051,23.000000,0.000000,4239.487305,4229.743652,4178.974121,4216.922852,4233.333496,0.000000,4.000000,86.000000,,,,0.000000,4.000000,4.000000,4.000000,1.000000,4.000000,75.000000,,,,,,,,,,,,,,,,,,,,,,,,,,,,,,,,,,,,,,,,,,,,,,,,,,,,,,,,,,,,,,,
1649886623.232866,24.000000,0.000000,4235.897461,4223.589844,4171.282227,4217.436035,4226.666504,0.000000,4.000000,86.000000,,,,0.000000,4.000000,4.000000,4.000000,1.000000,4.000000,75.000000,,,,,,,,,,,,,,,,,,,,,,,,,,,,,,,,,,,,,,,,,,,,,,,,,,,,,,,,,,,,,,,
1649886623.240780,25.000000,0.000000,4263.589844,4235.897461,4180.000000,4217.948730,4242.563965,0.000000,4.000000,86.000000,,,,0.000000,4.000000,4.000000,4.000000,1.000000,4.000000,75.000000,,,,,,,,,,,,,,,,,,,,,,,,,,,,,,,,,,,,,,,,,,,,,,,,,,,,,,,,,,,,,,,
1649886623.248595,26.000000,0.000000,4273.333496,4242.563965,4181.025879,4219.487305,4252.307617,0.000000,4.000000,86.000000,,,,0.000000,4.000000,4.000000,4.000000,1.000000,4.000000,75.000000,,,,,,,,,,,,,,,,,,,,,,,,,,,,,,,,,,,,,,,,,,,,,,,,,,,,,,,,,,,,,,,
1649886623.256509,27.000000,0.000000,4258.974121,4236.922852,4169.230957,4221.025879,4236.410156,0.000000,4.000000,86.000000,,,,0.000000,4.000000,4.000000,4.000000,1.000000,4.000000,75.000000,,,,,,,,,,,,,,,,,,,,,,,,,,,,,,,,,,,,,,,,,,,,,,,,,,,,,,,,,,,,,,,
1649886623.264323,28.000000,0.000000,4258.461426,4243.589844,4166.666504,4221.538574,4231.282227,0.000000,4.000000,86.000000,,,,0.000000,4.000000,4.000000,4.000000,1.000000,4.000000,75.000000,1.000000,66.666664,4.000000,4.000000,4.000000,0.000000,4.000000,,,,,,,,,,,,,,,,,,,,,,,,,,,,,,,,9.988834,2.704556,2.442375,1.403618,0.579952,2.428017,1.362782,1.055984,0.407102,0.288944,5.399006,4.073888,2.723343,0.586488,0.502562,0.320593,0.163603,0.113532,0.063446,0.054498,7.991649,3.395407,2.220141,1.654270,0.437376
1649886623.272238,29.000000,0.000000,4266.153809,4254.871582,4174.358887,4222.051270,4238.974121,0.000000,4.000000,86.000000,,,,0.000000,4.000000,4.000000,4.000000,1.000000,4.000000,75.000000,,,,,,,,,,,,,,,,,,,,,,,,,,,,,,,,,,,,,,,,,,,,,,,,,,,,,,,,,,,,,,,
1649886623.280152,30.000000,0.000000,4252.820313,4244.615234,4165.641113,4220.512695,4230.256348,0.000000,4.000000,86.000000,,,,0.000000,4.000000,4.000000,4.000000,1.000000,4.000000,75.000000,,,,,,,,,,,,,,,,,,,,,,,,,,,,,,,,,,,,,,,,,,,,,,,,,,,,,,,,,,,,,,,
1649886623.287966,31.000000,0.000000,4239.487305,4229.230957,4143.589844,4219.487305,4222.563965,0.000000,4.000000,86.000000,,,,0.000000,4.000000,4.000000,4.000000,1.000000,4.000000,75.000000,,,,,,,,,,,,,,,,,,,,,,,,,,,,,,,,,,,,,,,,,,,,,,,,,,,,,,,,,,,,,,,
1649886623.295881,32.000000,0.000000,4244.102539,4226.666504,4137.948730,4220.000000,4218.974121,0.000000,4.000000,86.000000,,,,0.000000,4.000000,4.000000,4.000000,1.000000,4.000000,75.000000,,,,,,,,,,,,,,,,,,,,,,,,,,,,,,,,,,,,,,,,,,,,,,,,,,,,,,,,,,,,,,,
1649886623.303695,33.000000,0.000000,4243.077148,4228.205078,4146.666504,4217.948730,4202.563965,0.000000,4.000000,86.000000,,,,0.000000,4.000000,4.000000,4.000000,1.000000,4.000000,75.000000,,,,,,,,,,,,,,,,,,,,,,,,,,,,,,,,,,,,,,,,,,,,,,,,,,,,,,,,,,,,,,,
1649886623.311509,34.000000,0.000000,4234.871582,4223.077148,4148.205078,4216.410156,4201.538574,0.000000,4.000000,86.000000,,,,0.000000,4.000000,4.000000,4.000000,1.000000,4.000000,75.000000,,,,,,,,,,,,,,,,,,,,,,,,,,,,,,,,,,,,,,,,,,,,,,,,,,,,,,,,,,,,,,,
1649886623.319424,35.000000,0.000000,4239.487305,4221.025879,4148.717773,4221.538574,4221.538574,0.000000,4.000000,86.000000,,,,0.000000,4.000000,4.000000,4.000000,1.000000,4.000000,75.000000,,,,,,,,,,,,,,,,,,,,,,,,,,,,,,,,,,,,,,,,,,,,,,,,,,,,,,,,,,,,,,,
1649886623.327338,36.000000,0.000000,4250.769043,4226.153809,4160.512695,4224.615234,4232.307617,0.000000,4.000000,86.000000,,,,0.000000,4.000000,4.000000,4.000000,1.000000,4.000000,75.000000,,,,,,,,,,,,,,,,,,,,,,,,,,,,,,,,,,,,,,,,,,,,,,,,,,,,,,,,,,,,,,,
1649886623.335152,37.000000,0.000000,4245.641113,4224.615234,4168.205078,4218.974121,4227.179688,0.000000,4.000000,86.000000,,,,0.000000,4.000000,4.000000,4.000000,1.000000,4.000000,75.000000,,,,,,,,,,,,,,,,,,,,,,,,,,,,,,,,,,,,,,,,,,,,,,,,,,,,,,,,,,,,,,,
1649886623.343067,38.000000,0.000000,4229.230957,4215.897461,4163.077148,4215.897461,4221.025879,0.000000,4.000000,86.000000,,,,0.000000,4.000000,4.000000,4.000000,1.000000,4.000000,75.000000,,,,,,,,,,,,,,,,,,,,,,,,,,,,,,,,,,,,,,,,,,,,,,,,,,,,,,,,,,,,,,,
1649886623.350881,39.000000,0.000000,4228.205078,4220.000000,4161.025879,4218.461426,4221.538574,0.000000,4.000000,86.000000,,,,0.000000,4.000000,4.000000,4.000000,1.000000,4.000000,75.000000,,,,,,,,,,,,,,,,,,,,,,,,,,,,,,,,,,,,,,,,,,,,,,,,,,,,,,,,,,,,,,,
1649886623.358795,40.000000,0.000000,4242.563965,4235.897461,4172.307617,4218.974121,4231.282227,0.000000,4.000000,86.000000,,,,0.000000,4.000000,4.000000,4.000000,1.000000,4.000000,75.000000,,,,,,,,,,,,,,,,,,,,,,,,,,,,,,,,,,,,,,,,,,,,,,,,,,,,,,,,,,,,,,,
1649886623.366610,41.000000,0.000000,4243.077148,4238.461426,4174.358887,4218.461426,4233.846191,0.000000,4.000000,86.000000,,,,0.000000,4.000000,4.000000,4.000000,1.000000,4.000000,75.000000,,,,,,,,,,,,,,,,,,,,,,,,,,,,,,,,,,,,,,,,,,,,,,,,,,,,,,,,,,,,,,,
1649886623.374524,42.000000,0.000000,4241.025879,4234.358887,4168.205078,4222.051270,4233.333496,0.000000,4.000000,86.000000,,,,0.000000,4.000000,4.000000,4.000000,1.000000,4.000000,75.000000,,,,,,,,,,,,,,,,,,,,,,,,,,,,,,,,,,,,,,,,,,,,,,,,,,,,,,,,,,,,,,,
1649886623.382339,43.000000,0.000000,4256.922852,4239.487305,4173.333496,4227.179688,4248.717773,0.000000,4.000000,86.000000,,,,0.000000,4.000000,4.000000,4.000000,1.000000,4.000000,75.000000,,,,,,,,,,,,,,,,,,,,,,,,,,,,,,,,,,,,,,,,,,,,,,,,,,,,,,,,,,,,,,,
1649886623.390253,44.000000,0.000000,4254.358887,4229.230957,4165.641113,4224.102539,4249.230957,0.000000,4.000000,86.000000,,,,0.000000,4.000000,4.000000,4.000000,1.000000,4.000000,75.000000,,,,,,,,,,,,,,,,,,,,,,,,,,,,,,,,,,,,,,,6.686805,3.100624,2.321015,1.328044,0.542209,2.255373,1.221812,1.049107,0.378795,0.284242,5.154425,3.619419,2.577967,0.565386,0.495178,0.319244,0.155534,0.109013,0.062111,0.054237,6.157609,3.374574,2.294961,1.660355,0.425956
1649886623.398067,45.000000,0.000000,4235.897461,4209.743652,4145.128418,4221.538574,4237.436035,0.000000,4.000000,86.000000,,,,0.000000,4.000000,4.000000,4.000000,1.000000,4.000000,75.000000,,,,,,,,,,,,,,,,,,,,,,,,,,,,,,,,,,,,,,,,,,,,,,,,,,,,,,,,,,,,,,,
1649886623.405982,46.000000,0.000000,4251.794922,4215.897461,4147.692383,4227.692383,4254.358887,0.000000,4.000000,86.000000,,,,0.000000,4.000000,4.000000,4.000000,1.000000,4.000000,75.000000,,,,,,,,,,,,,,,,,,,,,,,,,,,,,,,,,,,,,,,,,,,,,,,,,,,,,,,,,,,,,,,
1649886623.413796,47.000000,0.000000,4275.384766,4231.282227,4167.692383,4232.307617,4262.563965,0.000000,4.000000,86.000000,,,,0.000000,4.000000,4.000000,4.000000,1.000000,4.000000,75.000000,,,,,,,,,,,,,,,,,,,,,,,,,,,,,,,,,,,,,,,,,,,,,,,,,,,,,,,,,,,,,,,
1649886623.421710,48.000000,0.000000,4268.205078,4224.615234,4175.384766,4228.717773,4241.025879,0.000000,4.000000,86.000000,,,,0.000000,4.000000,4.000000,4.000000,1.000000,4.000000,75.000000,,,,,,,,,,,,,,,,,,,,,,,,,,,,,,,,,,,,,,,,,,,,,,,,,,,,,,,,,,,,,,,
1649886623.429525,49.000000,0.000000,4254.358887,4214.871582,4180.000000,4223.589844,4234.358887,0.000000,4.000000,86.000000,,,,0.000000,4.000000,4.000000,4.000000,1.000000,4.000000,75.000000,,,,,,,,,,,,,,,,,,,,,,,,,,,,,,,,,,,,,,,,,,,,,,,,,,,,,,,,,,,,,,,
1649886623.437439,50.000000,0.000000,4241.025879,4214.358887,4186.153809,4220.000000,4237.948730,0.000000,4.000000,86.000000,,,,0.000000,4.000000,4.000000,4.000000,1.000000,4.000000,75.000000,,,,,,,,,,,,,,,,,,,,,,,,,,,,,,,,,,,,,,,,,,,,,,,,,,,,,,,,,,,,,,,
1649886623.445253,51.000000,0.000000,4222.563965,4216.410156,4185.641113,4218.461426,4225.128418,0.000000,4.000000,86.000000,,,,0.000000,4.000000,4.000000,4.000000,1.000000,4.000000,75.000000,,,,,,,,,,,,,,,,,,,,,,,,,,,,,,,,,,,,,,,,,,,,,,,,,,,,,,,,,,,,,,,
1649886623.453168,52.000000,0.000000,4218.974121,4222.051270,4184.102539,4221.025879,4217.436035,0.000000,4.000000,86.000000,,,,0.000000,4.000000,4.000000,4.000000,1.000000,4.000000,75.000000,,,,,,,,,,,,,,,,,,,,,,,,,,,,,,,,,,,,,,,,,,,,,,,,,,,,,,,,,,,,,,,
1649886623.460982,53.000000,0.000000,4224.615234,4222.563965,4170.256348,4216.922852,4212.307617,0.000000,4.000000,86.000000,,,,0.000000,4.000000,4.000000,4.000000,1.000000,4.000000,75.000000,,,,,,,,,,,,,,,,,,,,,,,,,,,,,,,,,,,,,,,,,,,,,,,,,,,,,,,,,,,,,,,
1649886623.468896,54.000000,0.000000,4222.051270,4218.461426,4155.897461,4212.820313,4205.641113,0.000000,4.000000,86.000000,,,,0.000000,4.000000,4.000000,4.000000,1.000000,4.000000,75.000000,,,,,,,,,,,,,,,,,,,,,,,,,,,,,,,,,,,,,,,,,,,,,,,,,,,,,,,,,,,,,,,
1649886623.476811,55.000000,0.000000,4216.410156,4224.102539,4160.000000,4216.410156,4210.256348,0.000000,4.000000,86.000000,,,,0.000000,4.000000,4.000000,4.000000,1.000000,4.000000,75.000000,,,,,,,,,,,,,,,,,,,,,,,,,,,,,,,,,,,,,,,,,,,,,,,,,,,,,,,,,,,,,,,
1649886623.484625,56.000000,0.000000,4220.512695,4226.666504,4166.153809,4216.922852,4213.846191,0.000000,4.000000,86.000000,,,,0.000000,4.000000,4.000000,4.000000,1.000000,4.000000,75.000000,,,,,,,,,,,,,,,,,,,,,,,,,,,,,,,,,,,,,,,,,,,,,,,,,,,,,,,,,,,,,,,
1649886623.492539,57.000000,0.000000,4233.333496,4229.230957,4168.205078,4216.410156,4215.384766,0.000000,4.000000,86.000000,,,,0.000000,4.000000,4.000000,4.000000,1.000000,4.000000,75.000000,,,,,,,,,,,,,,,,,,,,,,,,,,,,,,,,,,,,,,,,,,,,,,,,,,,,,,,,,,,,,,,
1649886623.500354,58.000000,0.000000,4247.179688,4236.922852,4179.487305,4222.563965,4229.230957,0.000000,4.000000,86.000000,,,,0.000000,4.000000,4.000000,4.000000,1.000000,4.000000,75.000000,,,,,,,,,,,,,,,,,,,,,,,,,,,,,,,,,,,,,,,,,,,,,,,,,,,,,,,,,,,,,,,
1649886623.508268,59.000000,0.000000,4255.384766,4235.384766,4184.615234,4226.153809,4241.538574,0.000000,4.000000,86.000000,,,,0.000000,4.000000,4.000000,4.000000,1.000000,4.000000,75.000000,,,,,,,,,,,,,,,,,,,,,,,,,,,,,,,,,,,,,,,,,,,,,,,,,,,,,,,,,,,,,,,
1649886623.516083,60.000000,0.000000,4249.743652,4237.948730,4175.897461,4223.077148,4235.897461,0.000000,4.000000,86.000000,,,,0.000000,4.000000,4.000000,4.000000,1.000000,4.000000,75.000000,,,,,,,,,,,,,,,,,,,,,,,,,,,,,,,,,,,,,,,6.004586,3.502675,2.318300,1.288256,0.513232,1.983884,1.115312,0.981902,0.374204,0.282933,4.861393,3.600662,2.292325,0.604586,0.461119,0.316023,0.145147,0.113208,0.062411,0.053720,5.835421,3.281218,2.367866,1.631486,0.410069
1649886623.523997,61.000000,0.000000,4235.897461,4215.384766,4176.922852,4221.538574,4229.230957,0.000000,4.000000,86.000000,,,,0.000000,4.000000,4.000000,4.000000,1.000000,4.000000,75.000000,,,,,,,,,,,,,,,,,,,,,,,,,,,,,,,,,,,,,,,,,,,,,,,,,,,,,,,,,,,,,,,
1649886623.531811,62.000000,0.000000,4226.153809,4123.077148,4175.897461,4219.487305,4225.641113,0.000000,4.000000,86.000000,,,,0.000000,4.000000,4.000000,4.000000,1.000000,4.000000,75.000000,,,,,,,,,,,,,,,,,,,,,,,,,,,,,,,,,,,,,,,,,,,,,,,,,,,,,,,,,,,,,,,
1649886623.539726,63.000000,0.000000,4234.871582,4041.025635,4169.743652,4217.436035,4224.102539,0.000000,4.000000,86.000000,,,,0.000000,4.000000,4.000000,4.000000,1.000000,4.000000,75.000000,,,,,,,,,,,,,,,,,,,,,,,,,,,,,,,,,,,,,,,,,,,,,,,,,,,,,,,,,,,,,,,
1649886623.547540,64.000000,0.000000,4245.641113,4034.358887,4170.256348,4220.512695,4227.692383,450.000000,4.000000,86.000000,,,,0.000000,4.000000,4.000000,4.000000,1.000000,4.000000,75.000000,,,,,,,,,,,,,,,,,,,,,,,,,,,,,,,,,,,,,,,,,,,,,,,,,,,,,,,,,,,,,,,
1649886623.555454,65.000000,0.000000,4233.333496,4034.871826,4166.153809,4220.512695,4226.153809,450.000000,4.000000,86.000000,,,,0.000000,4.000000,4.000000,4.000000,1.000000,4.000000,75.000000,,,,,,,,,,,,,,,,,,,,,,,,,,,,,,,,,,,,,,,,,,,,,,,,,,,,,,,,,,,,,,,
1649886623.563269,66.000000,0.000000,4223.589844,4021.538574,4163.589844,4217.436035,4221.025879,16233.000000,4.000000,86.000000,,,,0.000000,4.000000,4.000000,4.000000,1.000000,4.000000,75.000000,,,,,,,,,,,,,,,,,,,,,,,,,,,,,,,,,,,,,,,,,,,,,,,,,,,,,,,,,,,,,,,
1649886623.571183,67.000000,0.000000,4233.846191,4029.230713,4173.846191,4218.461426,4218.974121,450.000000,4.000000,86.000000,,,,0.000000,4.000000,4.000000,4.000000,1.000000,4.000000,75.000000,,,,,,,,,,,,,,,,,,,,,,,,,,,,,,,,,,,,,,,,,,,,,,,,,,,,,,,,,,,,,,,
1649886623.578997,68.000000,0.000000,4237.436035,4033.333252,4172.820313,4217.948730,4215.897461,16214.000000,4.000000,86.000000,,,,0.000000,4.000000,4.000000,4.000000,1.000000,4.000000,75.000000,,,,,,,,,,,,,,,,,,,,,,,,,,,,,,,,,,,,,,,,,,,,,,,,,,,,,,,,,,,,,,,
1649886623.586912,69.000000,0.000000,4229.743652,4025.641113,4155.384766,4215.897461,4215.384766,450.000000,4.000000,86.000000,,,,0.000000,4.000000,4.000000,4.000000,1.000000,4.000000,75.000000,,,,,,,,,,,,,,,,,,,,,,,,,,,,,,,,,,,,,,,,,,,,,,,,,,,,,,,,,,,,,,,
1649886623.594726,70.000000,0.000000,4233.333496,4027.179443,4151.794922,4219.487305,4222.051270,16180.000000,4.000000,86.000000,,,,0.000000,4.000000,4.000000,4.000000,1.000000,4.000000,75.000000,,,,,,,,,,,,,,,,,,,,,,,,,,,,,,,,,,,,,,,,,,,,,,,,,,,,,,,,,,,,,,,
1649886623.602640,71.000000,0.000000,4242.563965,4029.743652,4156.922852,4223.077148,4228.205078,450.000000,4.000000,86.000000,,,,0.000000,4.000000,4.000000,4.000000,1.000000,4.000000,75.000000,,,,,,,,,,,,,,,,,,,,,,,,,,,,,,,,,,,,,,,,,,,,,,,,,,,,,,,,,,,,,,,
1649886623.610455,72.000000,0.000000,4241.538574,4024.102539,4150.769043,4218.974121,4224.102539,450.000000,4.000000,86.000000,,,,0.000000,4.000000,4.000000,4.000000,1.000000,4.000000,75.000000,,,,,,,,,,,,,,,,,,,,,,,,,,,,,,,,,,,,,,,,,,,,,,,,,,,,,,,,,,,,,,,
1649886623.618369,73.000000,0.000000,4238.461426,4025.641113,4150.769043,4219.487305,4222.051270,37.000000,4.000000,86.000000,,,,0.000000,4.000000,4.000000,4.000000,1.000000,4.000000,75.000000,,,,,,,,,,,,,,,,,,,,,,,,,,,,,,,,,,,,,,,,,,,,,,,,,,,,,,,,,,,,,,,
1649886623.626184,74.000000,0.000000,4240.000000,4043.589844,4166.153809,4222.051270,4232.307617,450.000000,4.000000,86.000000,,,,0.000000,4.000000,4.000000,4.000000,1.000000,4.000000,75.000000,,,,,,,,,,,,,,,,,,,,,,,,,,,,,,,,,,,,,,,,,,,,,,,,,,,,,,,,,,,,,,,
1649886623.634098,75.000000,0.000000,4252.820313,4060.512939,4181.538574,4222.051270,4251.282227,16199.000000,4.000000,86.000000,,,,0.000000,4.000000,4.000000,4.000000,1.000000,4.000000,75.000000,,,,,,,,,,,,,,,,,,,,,,,,,,,,,,,,,,,,,,,,,,,,,,,,,,,,,,,,,,,,,,,
1649886623.641912,76.000000,0.000000,4273.333496,4065.641113,4181.538574,4227.692383,4266.153809,450.000000,4.000000,86.000000,,,,0.000000,4.000000,4.000000,4.000000,1.000000,4.000000,75.000000,,,,,,,,,,,,,,,,,,,,,,,,,,,,,,,,,,,,,,,5.396904,3.596538,2.350727,1.261500,0.494739,1.724386,1.086465,0.882044,0.388738,0.281909,4.616649,3.890027,1.925375,0.694512,0.405993,0.302760,0.134297,0.126469,0.063648,0.052775,5.511344,3.038693,2.374073,1.528876,0.388958
1649886623.649827,77.000000,0.000000,4277.436035,4068.718018,4176.410156,4228.205078,4264.615234,450.000000,4.000000,86.000000,,,,0.000000,4.000000,4.000000,4.000000,1.000000,4.000000,75.000000,,,,,,,,,,,,,,,,,,,,,,,,,,,,,,,,,,,,,,,,,,,,,,,,,,,,,,,,,,,,,,,
1649886623.657641,78.000000,0.000000,4266.666504,4071.794922,4184.102539,4224.615234,4256.410156,450.000000,4.000000,86.000000,,,,0.000000,4.000000,4.000000,4.000000,1.000000,4.000000,75.000000,,,,,,,,,,,,,,,,,,,,,,,,,,,,,,,,,,,,,,,,,,,,,,,,,,,,,,,,,,,,,,,
1649886623.665355,79.000000,0.000000,4253.333496,4066.666748,4186.153809,4224.102539,4241.538574,16199.000000,4.000000,86.000000,,,,0.000000,4.000000,4.000000,4.000000,1.000000,4.000000,75.000000,,,,,,,,,,,,,,,,,,,,,,,,,,,,,,,,,,,,,,,,,,,,,,,,,,,,,,,,,,,,,,,
1649886623.673270,80.000000,0.000000,4241.025879,4054.358887,4171.282227,4223.589844,4226.666504,450.000000,4.000000,86.000000,,,,0.000000,4.000000,4.000000,4.000000,1.000000,4.000000,75.000000,,,,,,,,,,,,,,,,,,,,,,,,,,,,,,,,,,,,,,,,,,,,,,,,,,,,,,,,,,,,,,,
1649886623.681084,81.000000,0.000000,4245.128418,4049.743652,4164.615234,4222.051270,4230.769043,450.000000,4.000000,86.000000,,,,0.000000,4.000000,4.000000,4.000000,1.000000,4.000000,75.000000,,,,,,,,,,,,,,,,,,,,,,,,,,,,,,,,,,,,,,,,,,,,,,,,,,,,,,,,,,,,,,,
1649886623.688999,82.000000,0.000000,4259.487305,4054.871826,4171.282227,4223.077148,4240.000000,450.000000,4.000000,86.000000,,,,0.000000,4.000000,4.000000,4.000000,1.000000,4.000000,75.000000,,,,,,,,,,,,,,,,,,,,,,,,,,,,,,,,,,,,,,,,,,,,,,,,,,,,,,,,,,,,,,,
1649886623.696813,83.000000,0.000000,4263.589844,4060.000000,4174.871582,4225.641113,4241.538574,16199.000000,4.000000,86.000000,,,,0.000000,4.000000,4.000000,4.000000,1.000000,4.000000,75.000000,,,,,,,,,,,,,,,,,,,,,,,,,,,,,,,,,,,,,,,,,,,,,,,,,,,,,,,,,,,,,,,
1649886623.704727,84.000000,0.000000,4268.717773,4066.666748,4178.461426,4226.666504,4253.333496,450.000000,4.000000,86.000000,,,,0.000000,4.000000,4.000000,4.000000,1.000000,4.000000,75.000000,,,,,,,,,,,,,,,,,,,,,,,,,,,,,,,,,,,,,,,,,,,,,,,,,,,,,,,,,,,,,,,
1649886623.712542,85.000000,0.000000,4282.051270,4074.871826,4180.512695,4228.205078,4271.794922,450.000000,4.000000,86.000000,,,,0.000000,4.000000,4.000000,4.000000,1.000000,4.000000,75.000000,,,,,,,,,,,,,,,,,,,,,,,,,,,,,,,,,,,,,,,,,,,,,,,,,,,,,,,,,,,,,,,
1649886623.720456,86.000000,0.000000,4280.512695,4073.846191,4167.692383,4228.717773,4261.538574,450.000000,4.000000,86.000000,,,,0.000000,4.000000,4.000000,4.000000,1.000000,4.000000,75.000000,,,,,,,,,,,,,,,,,,,,,,,,,,,,,,,,,,,,,,,,,,,,,,,,,,,,,,,,,,,,,,,
1649886623.728270,87.000000,0.000000,4267.179688,4069.743652,4153.333496,4223.589844,4234.871582,16199.000000,4.000000,86.000000,,,,0.000000,4.000000,4.000000,4.000000,1.000000,4.000000,75.000000,,,,,,,,,,,,,,,,,,,,,,,,,,,,,,,,,,,,,,,,,,,,,,,,,,,,,,,,,,,,,,,
1649886623.736185,88.000000,0.000000,4264.102539,4082.564209,4156.410156,4219.487305,4232.820313,450.000000,4.000000,86.000000,,,,0.000000,4.000000,4.000000,4.000000,1.000000,4.000000,75.000000,,,,,,,,,,,,,,,,,,,,,,,,,,,,,,,,,,,,,,,,,,,,,,,,,,,,,,,,,,,,,,,
1649886623.743999,89.000000,0.000000,4269.230957,4097.948730,4164.615234,4222.051270,4247.692383,450.000000,4.000000,86.000000,,,,0.000000,4.000000,4.000000,4.000000,1.000000,4.000000,75.000000,,,,,,,,,,,,,,,,,,,,,,,,,,,,,,,,,,,,,,,,,,,,,,,,,,,,,,,,,,,,,,,
1649886623.751913,90.000000,0.000000,4272.820313,4095.384521,4161.025879,4224.102539,4253.846191,450.000000,4.000000,86.000000,,,,0.000000,4.000000,4.000000,4.000000,1.000000,4.000000,75.000000,,,,,,,,,,,,,,,,,,,,,,,,,,,,,,,,,,,,,,,,,,,,,,,,,,,,,,,,,,,,,,,
1649886623.759728,91.000000,0.000000,4265.128418,4090.256348,4158.461426,4221.538574,4245.128418,16199.000000,4.000000,86.000000,,,,0.000000,4.000000,4.000000,4.000000,1.000000,4.000000,75.000000,,,,,,,,,,,,,,,,,,,,,,,,,,,,,,,,,,,,,,,,,,,,,,,,,,,,,,,,,,,,,,,
1649886623.767642,92.000000,0.000000,4258.974121,4092.820557,4165.128418,4222.563965,4235.897461,450.000000,4.000000,86.000000,,,,0.000000,4.000000,4.000000,4.000000,1.000000,4.000000,75.000000,1.000000,58.333332,4.000000,3.000000,4.000000,0.000000,4.000000,,,,,,,,,,,,,,,,,,,,,,,,,,,,,,,,4.562773,3.378860,2.365809,1.231294,0.490637,2.167526,1.350198,0.909457,0.434815,0.286381,4.488621,4.290704,1.603756,0.804929,0.346570,0.285408,0.129746,0.148542,0.065144,0.051560,5.107570,2.693939,2.311262,1.344868,0.371014
1649886623.775456,93.000000,0.000000,4265.128418,4093.333252,4171.794922,4224.102539,4236.922852,450.000000,4.000000,86.000000,,,,0.000000,4.000000,4.000000,4.000000,1.000000,4.000000,75.000000,,,,,,,,,,,,,,,,,,,,,,,,,,,,,,,,,,,,,,,,,,,,,,,,,,,,,,,,,,,,,,,
1649886623.783371,94.000000,0.000000,4264.615234,4089.230713,4172.820313,4222.563965,4240.512695,450.000000,4.000000,86.000000,,,,0.000000,4.000000,4.000000,4.000000,1.000000,4.000000,75.000000,,,,,,,,,,,,,,,,,,,,,,,,,,,,,,,,,,,,,,,,,,,,,,,,,,,,,,,,,,,,,,,
1649886623.791185,95.000000,0.000000,4245.641113,4087.179443,4166.153809,4222.051270,4232.307617,16199.000000,4.000000,86.000000,,,,0.000000,4.000000,4.000000,4.000000,1.000000,4.000000,75.000000,,,,,,,,,,,,,,,,,,,,,,,,,,,,,,,,,,,,,,,,,,,,,,,,,,,,,,,,,,,,,,,
1649886623.799099,96.000000,0.000000,4240.000000,4090.256348,4161.538574,4223.077148,4228.205078,450.000000,4.000000,86.000000,,,,0.000000,4.000000,4.000000,4.000000,1.000000,4.000000,75.000000,,,,,,,,,,,,,,,,,,,,,,,,,,,,,,,,,,,,,,,,,,,,,,,,,,,,,,,,,,,,,,,
1649886623.806914,97.000000,0.000000,4257.436035,4095.384521,4162.051270,4224.615234,4238.974121,450.000000,4.000000,86.000000,,,,0.000000,4.000000,4.000000,4.000000,1.000000,4.000000,75.000000,,,,,,,,,,,,,,,,,,,,,,,,,,,,,,,,,,,,,,,,,,,,,,,,,,,,,,,,,,,,,,,
1649886623.814628,98.000000,0.000000,4263.589844,4097.948730,4154.871582,4222.563965,4244.615234,450.000000,4.000000,86.000000,,,,0.000000,4.000000,4.000000,4.000000,1.000000,4.000000,75.000000,,,,,,,,,,,,,,,,,,,,,,,,,,,,,,,,,,,,,,,,,,,,,,,,,,,,,,,,,,,,,,,
1649886623.822443,99.000000,0.000000,4260.000000,4097.948730,4146.153809,4221.538574,4243.589844,16199.000000,4.000000,86.000000,,,,0.000000,4.000000,4.000000,4.000000,1.000000,4.000000,75.000000,,,,,,,,,,,,,,,,,,,,,,,,,,,,,,,,,,,,,,,,,,,,,,,,,,,,,,,,,,,,,,,
1649886623.830157,100.000000,0.000000,4264.615234,4105.128418,4147.179688,4224.615234,4236.410156,450.000000,4.000000,86.000000,,,,0.000000,4.000000,4.000000,4.000000,1.000000,4.000000,75.000000,,,,,,,,,,,,,,,,,,,,,,,,,,,,,,,,,,,,,,,,,,,,,,,,,,,,,,,,,,,,,,,
1649886623.838072,101.000000,0.000000,4266.666504,4111.794922,4147.179688,4218.974121,4224.102539,450.000000,4.000000,86.000000,,,,0.000000,4.000000,4.000000,4.000000,1.000000,4.000000,75.000000,,,,,,,,,,,,,,,,,,,,,,,,,,,,,,,,,,,,,,,,,,,,,,,,,,,,,,,,,,,,,,,
1649886623.845886,102.000000,0.000000,4256.922852,4108.717773,4141.538574,4213.846191,4227.179688,450.000000,4.000000,86.000000,,,,0.000000,4.000000,4.000000,4.000000,1.000000,4.000000,75.000000,,,,,,,,,,,,,,,,,,,,,,,,,,,,,,,,,,,,,,,,,,,,,,,,,,,,,,,,,,,,,,,
1649886623.853800,103.000000,0.000000,4252.307617,4107.692383,4144.615234,4220.000000,4241.538574,16199.000000,4.000000,86.000000,,,,0.000000,4.000000,4.000000,4.000000,1.000000,4.000000,75.000000,,,,,,,,,,,,,,,,,,,,,,,,,,,,,,,,,,,,,,,,,,,,,,,,,,,,,,,,,,,,,,,
1649886623.861615,104.000000,0.000000,4251.794922,4109.743652,4145.128418,4220.512695,4235.897461,450.000000,4.000000,86.000000,,,,0.000000,4.000000,4.000000,4.000000,1.000000,4.000000,75.000000,,,,,,,,,,,,,,,,,,,,,,,,,,,,,,,,,,,,,,,,,,,,,,,,,,,,,,,,,,,,,,,
1649886623.869529,105.000000,0.000000,4244.102539,4100.512695,4134.871582,4213.846191,4220.000000,450.000000,4.000000,86.000000,,,,0.000000,4.000000,4.000000,4.000000,1.000000,4.000000,75.000000,,,,,,,,,,,,,,,,,,,,,,,,,,,,,,,,,,,,,,,,,,,,,,,,,,,,,,,,,,,,,,,
1649886623.877343,106.000000,0.000000,4248.205078,4097.948730,4146.153809,4220.000000,4228.205078,450.000000,4.000000,86.000000,,,,0.000000,4.000000,4.000000,4.000000,1.000000,4.000000,75.000000,,,,,,,,,,,,,,,,,,,,,,,,,,,,,,,,,,,,,,,,,,,,,,,,,,,,,,,,,,,,,,,
1649886623.885258,107.000000,0.000000,4265.128418,4110.256348,4166.153809,4229.230957,4247.692383,16199.000000,4.000000,86.000000,,,,0.000000,4.000000,4.000000,4.000000,1.000000,4.000000,75.000000,,,,,,,,,,,,,,,,,,,,,,,,,,,,,,,,,,,,,,,,,,,,,,,,,,,,,,,,,,,,,,,
1649886623.893072,108.000000,0.000000,4262.563965,4110.769043,4156.922852,4223.589844,4240.000000,450.000000,4.000000,86.000000,,,,0.000000,4.000000,4.000000,4.000000,1.000000,4.000000,75.000000,,,,,,,,,,,,,,,,,,,,,,,,,,,,,,,,,,,,,,,3.850977,2.948625,2.372884,1.192137,0.498862,4.520533,2.196532,1.314536,0.549931,0.308042,4.451051,4.611839,1.443636,0.896623,0.299632,0.273218,0.138220,0.175593,0.066499,0.050127,4.946836,2.326124,2.225931,1.109042,0.361826
1649886623.900986,109.000000,0.000000,4245.641113,4102.563965,4141.538574,4214.871582,4213.333496,450.000000,4.000000,86.000000,,,,0.000000,4.000000,4.000000,4.000000,1.000000,4.000000,75.000000,,,,,,,,,,,,,,,,,,,,,,,,,,,,,,,,,,,,,,,,,,,,,,,,,,,,,,,,,,,,,,,
1649886623.908801,110.000000,0.000000,4250.769043,4110.769043,4151.282227,4216.922852,4217.948730,450.000000,4.000000,86.000000,,,,0.000000,4.000000,4.000000,4.000000,1.000000,4.000000,75.000000,,,,,,,,,,,,,,,,,,,,,,,,,,,,,,,,,,,,,,,,,,,,,,,,,,,,,,,,,,,,,,,
1649886623.916615,111.000000,0.000000,4269.230957,4126.666504,4168.717773,4221.538574,4252.307617,16199.000000,4.000000,86.000000,,,,0.000000,4.000000,4.000000,4.000000,1.000000,4.000000,75.000000,,,,,,,,,,,,,,,,,,,,,,,,,,,,,,,,,,,,,,,,,,,,,,,,,,,,,,,,,,,,,,,
1649886623.924330,112.000000,0.000000,4274.358887,4135.384766,4181.538574,4223.589844,4267.692383,450.000000,4.000000,86.000000,,,,0.000000,4.000000,4.000000,4.000000,1.000000,4.000000,75.000000,,,,,,,,,,,,,,,,,,,,,,,,,,,,,,,,,,,,,,,,,,,,,,,,,,,,,,,,,,,,,,,
1649886623.932244,113.000000,0.000000,4272.307617,4136.922852,4185.128418,4225.128418,4260.512695,450.000000,4.000000,86.000000,,,,0.000000,4.000000,4.000000,4.000000,1.000000,4.000000,75.000000,,,,,,,,,,,,,,,,,,,,,,,,,,,,,,,,,,,,,,,,,,,,,,,,,,,,,,,,,,,,,,,
1649886623.940059,114.000000,0.000000,4271.282227,4132.820313,4171.282227,4220.512695,4247.692383,450.000000,4.000000,86.000000,,,,0.000000,4.000000,4.000000,4.000000,1.000000,4.000000,75.000000,,,,,,,,,,,,,,,,,,,,,,,,,,,,,,,,,,,,,,,,,,,,,,,,,,,,,,,,,,,,,,,
1649886623.947973,115.000000,0.000000,4271.794922,4132.820313,4164.615234,4214.871582,4243.589844,16199.000000,4.000000,86.000000,,,,0.000000,4.000000,4.000000,4.000000,1.000000,4.000000,75.000000,,,,,,,,,,,,,,,,,,,,,,,,,,,,,,,,,,,,,,,,,,,,,,,,,,,,,,,,,,,,,,,
1649886623.955787,116.000000,0.000000,4278.974121,4137.948730,4171.794922,4220.512695,4252.307617,450.000000,4.000000,86.000000,,,,0.000000,4.000000,4.000000,4.000000,1.000000,4.000000,75.000000,,,,,,,,,,,,,,,,,,,,,,,,,,,,,,,,,,,,,,,,,,,,,,,,,,,,,,,,,,,,,,,
1649886623.963702,117.000000,0.000000,4281.025879,4137.948730,4164.102539,4227.179688,4257.436035,450.000000,4.000000,86.000000,,,,0.000000,4.000000,4.000000,4.000000,1.000000,4.000000,75.000000,,,,,,,,,,,,,,,,,,,,,,,,,,,,,,,,,,,,,,,,,,,,,,,,,,,,,,,,,,,,,,,
1649886623.971516,118.000000,0.000000,4277.948730,4134.358887,4143.589844,4222.051270,4250.769043,450.000000,4.000000,86.000000,,,,0.000000,4.000000,4.000000,4.000000,1.000000,4.000000,75.000000,,,,,,,,,,,,,,,,,,,,,,,,,,,,,,,,,,,,,,,,,,,,,,,,,,,,,,,,,,,,,,,
1649886623.979430,119.000000,0.000000,4278.461426,4136.410156,4147.692383,4221.025879,4252.307617,16199.000000,4.000000,86.000000,,,,0.000000,4.000000,4.000000,4.000000,1.000000,4.000000,75.000000,,,,,,,,,,,,,,,,,,,,,,,,,,,,,,,,,,,,,,,,,,,,,,,,,,,,,,,,,,,,,,,
1649886623.987245,120.000000,0.000000,4272.820313,4139.487305,4165.128418,4226.666504,4252.820313,450.000000,4.000000,86.000000,,,,0.000000,4.000000,4.000000,4.000000,1.000000,4.000000,75.000000,,,,,,,,,,,,,,,,,,,,,,,,,,,,,,,,,,,,,,,,,,,,,,,,,,,,,,,,,,,,,,,
1649886623.995059,121.000000,0.000000,4269.743652,4137.948730,4160.000000,4223.589844,4241.025879,450.000000,4.000000,86.000000,,,,0.000000,4.000000,4.000000,4.000000,1.000000,4.000000,75.000000,,,,,,,,,,,,,,,,,,,,,,,,,,,,,,,,,,,,,,,,,,,,,,,,,,,,,,,,,,,,,,,
1649886624.002973,122.000000,0.000000,4284.615234,4141.538574,4152.307617,4219.487305,4245.128418,450.000000,4.000000,86.000000,,,,0.000000,4.000000,4.000000,4.000000,1.000000,4.000000,75.000000,,,,,,,,,,,,,,,,,,,,,,,,,,,,,,,,,,,,,,,,,,,,,,,,,,,,,,,,,,,,,,,
1649886624.010888,123.000000,0.000000,4289.230957,4147.692383,4157.436035,4220.000000,4252.820313,16199.000000,4.000000,86.000000,,,,0.000000,4.000000,4.000000,4.000000,1.000000,4.000000,75.000000,,,,,,,,,,,,,,,,,,,,,,,,,,,,,,,,,,,,,,,,,,,,,,,,,,,,,,,,,,,,,,,
1649886624.018702,124.000000,0.000000,4273.333496,4149.230957,4158.461426,4221.025879,4240.512695,450.000000,4.000000,86.000000,,,,0.000000,4.000000,4.000000,4.000000,1.000000,4.000000,75.000000,,,,,,,,,,,,,,,,,,,,,,,,,,,,,,,,,,,,,,,3.346394,2.507500,2.386199,1.149707,0.512885,10.126843,3.819528,2.284668,0.767953,0.356168,4.447755,4.728736,1.498747,0.939649,0.275619,0.267435,0.161514,0.198759,0.067572,0.048547,5.010602,2.039325,2.146630,0.885473,0.363696
1649886624.026616,125.000000,0.000000,4279.487305,4158.461426,4165.641113,4221.538574,4243.077148,450.000000,4.000000,86.000000,,,,0.000000,4.000000,4.000000,4.000000,1.000000,4.000000,75.000000,,,,,,,,,,,,,,,,,,,,,,,,,,,,,,,,,,,,,,,,,,,,,,,,,,,,,,,,,,,,,,,
1649886624.034431,126.000000,0.000000,4308.717773,4174.871582,4180.512695,4224.615234,4267.179688,450.000000,4.000000,86.000000,,,,0.000000,4.000000,4.000000,4.000000,1.000000,4.000000,75.000000,,,,,,,,,,,,,,,,,,,,,,,,,,,,,,,,,,,,,,,,,,,,,,,,,,,,,,,,,,,,,,,
1649886624.042345,127.000000,0.000000,4317.948730,4180.512695,4178.974121,4225.128418,4267.692383,241.000000,4.000000,86.000000,,,,0.000000,4.000000,4.000000,4.000000,1.000000,4.000000,75.000000,,,,,,,,,,,,,,,,,,,,,,,,,,,,,,,,,,,,,,,,,,,,,,,,,,,,,,,,,,,,,,,
1649886624.050160,0.000000,0.000000,4311.282227,4174.358887,4174.871582,4225.128418,4255.384766,450.000000,4.000000,86.000000,,,,0.000000,4.000000,4.000000,4.000000,1.000000,4.000000,75.000000,,,,,,,,,,,,,,,,,,,,,,,,,,,,,,,,,,,,,,,,,,,,,,,,,,,,,,,,,,,,,,,
1649886624.058074,1.000000,0.000000,4307.179688,4170.769043,4180.512695,4226.153809,4261.538574,450.000000,4.000000,86.000000,,,,0.000000,4.000000,4.000000,4.000000,1.000000,4.000000,75.000000,,,,,,,,,,,,,,,,,,,,,,,,,,,,,,,,,,,,,,,,,,,,,,,,,,,,,,,,,,,,,,,
1649886624.065888,2.000000,0.000000,4299.487305,4171.282227,4174.358887,4226.153809,4265.641113,16225.000000,4.000000,86.000000,,,,0.000000,4.000000,4.000000,4.000000,1.000000,4.000000,75.000000,,,,,,,,,,,,,,,,,,,,,,,,,,,,,,,,,,,,,,,,,,,,,,,,,,,,,,,,,,,,,,,
1649886624.073803,3.000000,0.000000,4290.256348,4171.794922,4169.230957,4225.641113,4257.436035,450.000000,4.000000,86.000000,,,,0.000000,4.000000,4.000000,4.000000,1.000000,4.000000,75.000000,,,,,,,,,,,,,,,,,,,,,,,,,,,,,,,,,,,,,,,,,,,,,,,,,,,,,,,,,,,,,,,
1649886624.081617,4.000000,0.000000,4281.538574,4170.769043,4177.436035,4221.538574,4243.589844,16208.000000,4.000000,86.000000,,,,0.000000,4.000000,4.000000,4.000000,1.000000,4.000000,75.000000,,,,,,,,,,,,,,,,,,,,,,,,,,,,,,,,,,,,,,,,,,,,,,,,,,,,,,,,,,,,,,,
1649886624.089531,5.000000,0.000000,4267.179688,4168.717773,4172.307617,4217.436035,4225.128418,450.000000,4.000000,86.000000,,,,0.000000,4.000000,4.000000,4.000000,1.000000,4.000000,75.000000,,,,,,,,,,,,,,,,,,,,,,,,,,,,,,,,,,,,,,,,,,,,,,,,,,,,,,,,,,,,,,,
1649886624.097346,6.000000,0.000000,4250.769043,4169.743652,4166.666504,4216.410156,4208.717773,16186.000000,4.000000,86.000000,,,,0.000000,4.000000,4.000000,4.000000,1.000000,4.000000,75.000000,,,,,,,,,,,,,,,,,,,,,,,,,,,,,,,,,,,,,,,,,,,,,,,,,,,,,,,,,,,,,,,
1649886624.105260,7.000000,0.000000,4241.538574,4164.102539,4181.025879,4214.358887,4197.436035,450.000000,4.000000,86.000000,,,,0.000000,4.000000,4.000000,4.000000,1.000000,4.000000,75.000000,,,,,,,,,,,,,,,,,,,,,,,,,,,,,,,,,,,,,,,,,,,,,,,,,,,,,,,,,,,,,,,
1649886624.113074,8.000000,0.000000,4234.358887,4153.333496,4185.641113,4212.307617,4189.230957,450.000000,4.000000,86.000000,,,,0.000000,4.000000,4.000000,4.000000,1.000000,4.000000,75.000000,,,,,,,,,,,,,,,,,,,,,,,,,,,,,,,,,,,,,,,,,,,,,,,,,,,,,,,,,,,,,,,
1649886624.120989,9.000000,0.000000,4234.871582,4150.769043,4171.282227,4211.282227,4192.307617,37.000000,4.000000,86.000000,,,,0.000000,4.000000,4.000000,4.000000,1.000000,4.000000,75.000000,,,,,,,,,,,,,,,,,,,,,,,,,,,,,,,,,,,,,,,,,,,,,,,,,,,,,,,,,,,,,,,
1649886624.128803,10.000000,0.000000,4253.846191,4158.461426,4165.128418,4214.358887,4206.666504,450.000000,4.000000,86.000000,,,,0.000000,4.000000,4.000000,4.000000,1.000000,4.000000,75.000000,,,,,,,,,,,,,,,,,,,,,,,,,,,,,,,,,,,,,,,,,,,,,,,,,,,,,,,,,,,,,,,
1649886624.136717,11.000000,0.000000,4271.794922,4166.153809,4163.589844,4219.487305,4219.487305,16201.000000,4.000000,86.000000,,,,0.000000,4.000000,4.000000,4.000000,1.000000,4.000000,75.000000,,,,,,,,,,,,,,,,,,,,,,,,,,,,,,,,,,,,,,,,,,,,,,,,,,,,,,,,,,,,,,,
1649886624.144632,12.000000,0.000000,4275.384766,4170.256348,4159.487305,4222.563965,4236.410156,450.000000,4.000000,86.000000,,,,0.000000,4.000000,4.000000,4.000000,1.000000,4.000000,75.000000,,,,,,,,,,,,,,,,,,,,,,,,,,,,,,,,,,,,,,,3.092048,2.248827,2.398054,1.112147,0.525814,18.642641,6.091510,3.763427,1.080942,0.428466,4.426043,4.568282,1.734323,0.921899,0.275552,0.265973,0.194444,0.208436,0.068831,0.047434,5.227593,1.904244,2.076522,0.743968,0.380151
1649886624.152446,13.000000,0.000000,4282.563965,4184.102539,4169.743652,4224.102539,4249.230957,450.000000,4.000000,86.000000,,,,0.000000,4.000000,4.000000,4.000000,1.000000,4.000000,75.000000,,,,,,,,,,,,,,,,,,,,,,,,,,,,,,,,,,,,,,,,,,,,,,,,,,,,,,,,,,,,,,,
1649886624.160360,14.000000,0.000000,4285.128418,4199.487305,4184.615234,4225.128418,4241.025879,450.000000,4.000000,86.000000,,,,0.000000,4.000000,4.000000,4.000000,1.000000,4.000000,75.000000,,,,,,,,,,,,,,,,,,,,,,,,,,,,,,,,,,,,,,,,,,,,,,,,,,,,,,,,,,,,,,,
1649886624.168175,15.000000,0.000000,4272.307617,4194.871582,4176.410156,4223.077148,4229.743652,16201.000000,4.000000,86.000000,,,,0.000000,4.000000,4.000000,4.000000,1.000000,4.000000,75.000000,,,,,,,,,,,,,,,,,,,,,,,,,,,,,,,,,,,,,,,,,,,,,,,,,,,,,,,,,,,,,,,
1649886624.176089,16.000000,0.000000,4264.615234,4177.948730,4162.051270,4219.487305,4232.307617,0.000000,4.000000,86.000000,,,,0.000000,4.000000,4.000000,4.000000,1.000000,4.000000,75.000000,,,,,,,,,,,,,,,,,,,,,,,,,,,,,,,,,,,,,,,,,,,,,,,,,,,,,,,,,,,,,,,
1649886624.183904,17.000000,0.000000,4270.769043,4173.333496,4165.128418,4220.512695,4233.333496,0.000000,4.000000,86.000000,,,,0.000000,4.000000,4.000000,4.000000,1.000000,4.000000,75.000000,,,,,,,,,,,,,,,,,,,,,,,,,,,,,,,,,,,,,,,,,,,,,,,,,,,,,,,,,,,,,,,
1649886624.191718,18.000000,0.000000,4277.948730,4178.974121,4177.948730,4221.538574,4229.743652,0.000000,4.000000,86.000000,,,,0.000000,4.000000,4.000000,4.000000,1.000000,4.000000,75.000000,,,,,,,,,,,,,,,,,,,,,,,,,,,,,,,,,,,,,,,,,,,,,,,,,,,,,,,,,,,,,,,
1649886624.199632,19.000000,0.000000,4284.615234,4184.102539,4190.769043,4222.563965,4235.384766,0.000000,4.000000,86.000000,,,,0.000000,4.000000,4.000000,4.000000,1.000000,4.000000,75.000000,,,,,,,,,,,,,,,,,,,,,,,,,,,,,,,,,,,,,,,,,,,,,,,,,,,,,,,,,,,,,,,
1649886624.207547,20.000000,0.000000,4285.641113,4189.230957,4192.820313,4226.153809,4241.025879,0.000000,4.000000,86.000000,,,,0.000000,4.000000,4.000000,4.000000,1.000000,4.000000,75.000000,,,,,,,,,,,,,,,,,,,,,,,,,,,,,,,,,,,,,,,,,,,,,,,,,,,,,,,,,,,,,,,
1649886624.215361,21.000000,0.000000,4267.692383,4182.563965,4174.358887,4223.077148,4229.230957,0.000000,4.000000,86.000000,,,,0.000000,4.000000,4.000000,4.000000,1.000000,4.000000,75.000000,,,,,,,,,,,,,,,,,,,,,,,,,,,,,,,,,,,,,,,,,,,,,,,,,,,,,,,,,,,,,,,
1649886624.223175,22.000000,0.000000,4258.974121,4168.205078,4158.461426,4216.922852,4216.410156,0.000000,4.000000,86.000000,,,,0.000000,4.000000,4.000000,4.000000,1.000000,4.000000,75.000000,,,,,,,,,,,,,,,,,,,,,,,,,,,,,,,,,,,,,,,,,,,,,,,,,,,,,,,,,,,,,,,
1649886624.231090,23.000000,0.000000,4276.410156,4168.717773,4166.666504,4220.512695,4227.179688,0.000000,4.000000,86.000000,,,,0.000000,4.000000,4.000000,4.000000,1.000000,4.000000,75.000000,,,,,,,,,,,,,,,,,,,,,,,,,,,,,,,,,,,,,,,,,,,,,,,,,,,,,,,,,,,,,,,
1649886624.239004,24.000000,0.000000,4290.256348,4176.410156,4172.820313,4223.077148,4249.230957,0.000000,4.000000,86.000000,,,,0.000000,4.000000,4.000000,4.000000,1.000000,4.000000,75.000000,,,,,,,,,,,,,,,,,,,,,,,,,,,,,,,,,,,,,,,,,,,,,,,,,,,,,,,,,,,,,,,
1649886624.246818,25.000000,0.000000,4279.487305,4179.487305,4167.179688,4217.948730,4245.641113,0.000000,4.000000,86.000000,,,,0.000000,4.000000,4.000000,4.000000,1.000000,4.000000,75.000000,,,,,,,,,,,,,,,,,,,,,,,,,,,,,,,,,,,,,,,,,,,,,,,,,,,,,,,,,,,,,,,
1649886624.254733,26.000000,0.000000,4262.051270,4183.589844,4170.769043,4217.436035,4222.051270,0.000000,4.000000,86.000000,,,,0.000000,4.000000,4.000000,4.000000,1.000000,4.000000,75.000000,,,,,,,,,,,,,,,,,,,,,,,,,,,,,,,,,,,,,,,,,,,,,,,,,,,,,,,,,,,,,,,
1649886624.262547,27.000000,0.000000,4266.153809,4190.769043,4176.410156,4220.000000,4221.538574,0.000000,4.000000,86.000000,,,,0.000000,4.000000,4.000000,4.000000,1.000000,4.000000,75.000000,,,,,,,,,,,,,,,,,,,,,,,,,,,,,,,,,,,,,,,,,,,,,,,,,,,,,,,,,,,,,,,
1649886624.270461,28.000000,0.000000,4277.948730,4194.871582,4168.717773,4220.512695,4238.974121,0.000000,4.000000,86.000000,,,,0.000000,4.000000,4.000000,4.000000,1.000000,4.000000,75.000000,1.000000,66.666664,4.000000,4.000000,4.000000,0.000000,4.000000,,,,,,,,,,,,,,,,,,,,,,,,,,,,,,,,2.959357,2.239879,2.385750,1.084474,0.531000,28.616344,8.492670,5.418533,1.422010,0.507784,4.371361,4.121921,2.020958,0.850808,0.293592,0.263215,0.225613,0.200038,0.071086,0.047921,5.341508,1.931593,2.011152,0.720710,0.415538
1649886624.278276,29.000000,0.000000,4276.410156,4195.897461,4160.512695,4220.000000,4244.615234,0.000000,4.000000,86.000000,,,,0.000000,4.000000,4.000000,4.000000,1.000000,4.000000,75.000000,,,,,,,,,,,,,,,,,,,,,,,,,,,,,,,,,,,,,,,,,,,,,,,,,,,,,,,,,,,,,,,
1649886624.286190,30.000000,0.000000,4270.769043,4193.333496,4155.897461,4218.461426,4236.410156,0.000000,4.000000,86.000000,,,,0.000000,4.000000,4.000000,4.000000,1.000000,4.000000,75.000000,,,,,,,,,,,,,,,,,,,,,,,,,,,,,,,,,,,,,,,,,,,,,,,,,,,,,,,,,,,,,,,
1649886624.294004,31.000000,0.000000,4263.077148,4187.692383,4147.179688,4217.436035,4228.717773,0.000000,4.000000,86.000000,,,,0.000000,4.000000,4.000000,4.000000,1.000000,4.000000,75.000000,,,,,,,,,,,,,,,,,,,,,,,,,,,,,,,,,,,,,,,,,,,,,,,,,,,,,,,,,,,,,,,
1649886624.301919,32.000000,0.000000,4260.512695,4187.692383,4145.128418,4217.436035,4229.743652,0.000000,4.000000,86.000000,,,,0.000000,4.000000,4.000000,4.000000,1.000000,4.000000,75.000000,,,,,,,,,,,,,,,,,,,,,,,,,,,,,,,,,,,,,,,,,,,,,,,,,,,,,,,,,,,,,,,
1649886624.309833,33.000000,0.000000,4267.692383,4192.820313,4150.769043,4217.436035,4230.769043,0.000000,4.000000,86.000000,,,,0.000000,4.000000,4.000000,4.000000,1.000000,4.000000,75.000000,,,,,,,,,,,,,,,,,,,,,,,,,,,,,,,,,,,,,,,,,,,,,,,,,,,,,,,,,,,,,,,
1649886624.317648,34.000000,0.000000,4262.563965,4196.922852,4155.897461,4216.410156,4223.589844,0.000000,4.000000,86.000000,,,,0.000000,4.000000,4.000000,4.000000,1.000000,4.000000,75.000000,,,,,,,,,,,,,,,,,,,,,,,,,,,,,,,,,,,,,,,,,,,,,,,,,,,,,,,,,,,,,,,
1649886624.325462,35.000000,0.000000,4251.794922,4199.487305,4164.615234,4216.410156,4221.025879,0.000000,4.000000,86.000000,,,,0.000000,4.000000,4.000000,4.000000,1.000000,4.000000,75.000000,,,,,,,,,,,,,,,,,,,,,,,,,,,,,,,,,,,,,,,,,,,,,,,,,,,,,,,,,,,,,,,
1649886624.333376,36.000000,0.000000,4263.077148,4198.974121,4176.410156,4216.922852,4224.615234,0.000000,4.000000,86.000000,,,,0.000000,4.000000,4.000000,4.000000,1.000000,4.000000,75.000000,,,,,,,,,,,,,,,,,,,,,,,,,,,,,,,,,,,,,,,,,,,,,,,,,,,,,,,,,,,,,,,
1649886624.341191,37.000000,0.000000,4269.230957,4195.384766,4177.436035,4214.358887,4217.948730,0.000000,4.000000,86.000000,,,,0.000000,4.000000,4.000000,4.000000,1.000000,4.000000,75.000000,,,,,,,,,,,,,,,,,,,,,,,,,,,,,,,,,,,,,,,,,,,,,,,,,,,,,,,,,,,,,,,
1649886624.349105,38.000000,0.000000,4251.282227,4192.307617,4167.692383,4212.307617,4205.641113,0.000000,4.000000,86.000000,,,,0.000000,4.000000,4.000000,4.000000,1.000000,4.000000,75.000000,,,,,,,,,,,,,,,,,,,,,,,,,,,,,,,,,,,,,,,,,,,,,,,,,,,,,,,,,,,,,,,
1649886624.357019,39.000000,0.000000,4253.333496,4198.461426,4170.256348,4215.384766,4210.256348,0.000000,4.000000,86.000000,,,,0.000000,4.000000,4.000000,4.000000,1.000000,4.000000,75.000000,,,,,,,,,,,,,,,,,,,,,,,,,,,,,,,,,,,,,,,,,,,,,,,,,,,,,,,,,,,,,,,
1649886624.364834,40.000000,0.000000,4273.846191,4210.769043,4183.589844,4218.974121,4224.615234,0.000000,4.000000,86.000000,,,,0.000000,4.000000,4.000000,4.000000,1.000000,4.000000,75.000000,,,,,,,,,,,,,,,,,,,,,,,,,,,,,,,,,,,,,,,,,,,,,,,,,,,,,,,,,,,,,,,
1649886624.372648,41.000000,0.000000,4274.358887,4220.000000,4188.205078,4219.487305,4235.384766,0.000000,4.000000,86.000000,,,,0.000000,4.000000,4.000000,4.000000,1.000000,4.000000,75.000000,,,,,,,,,,,,,,,,,,,,,,,,,,,,,,,,,,,,,,,,,,,,,,,,,,,,,,,,,,,,,,,
1649886624.380562,42.000000,0.000000,4262.563965,4219.487305,4181.538574,4221.538574,4237.436035,0.000000,4.000000,86.000000,,,,0.000000,4.000000,4.000000,4.000000,1.000000,4.000000,75.000000,,,,,,,,,,,,,,,,,,,,,,,,,,,,,,,,,,,,,,,,,,,,,,,,,,,,,,,,,,,,,,,
1649886624.388377,43.000000,0.000000,4258.461426,4212.820313,4171.794922,4220.512695,4231.794922,0.000000,4.000000,86.000000,,,,0.000000,4.000000,4.000000,4.000000,1.000000,4.000000,75.000000,,,,,,,,,,,,,,,,,,,,,,,,,,,,,,,,,,,,,,,,,,,,,,,,,,,,,,,,,,,,,,,
1649886624.396291,44.000000,0.000000,4273.846191,4216.922852,4173.846191,4218.461426,4234.358887,0.000000,4.000000,86.000000,,,,0.000000,4.000000,4.000000,4.000000,1.000000,4.000000,75.000000,,,,,,,,,,,,,,,,,,,,,,,,,,,,,,,,,,,,,,,2.939955,2.494201,2.323771,1.063896,0.525112,36.853619,10.337539,6.756975,1.694211,0.568078,4.292733,3.479389,2.212641,0.755268,0.322699,0.256481,0.246681,0.176297,0.074581,0.050915,5.244258,2.165619,1.942886,0.802047,0.471221
1649886624.404105,45.000000,0.000000,4289.230957,4230.256348,4187.692383,4223.077148,4247.179688,0.000000,4.000000,86.000000,,,,0.000000,4.000000,4.000000,4.000000,1.000000,4.000000,75.000000,,,,,,,,,,,,,,,,,,,,,,,,,,,,,,,,,,,,,,,,,,,,,,,,,,,,,,,,,,,,,,,
1649886624.412020,46.000000,0.000000,4277.436035,4230.769043,4191.282227,4223.077148,4239.487305,0.000000,4.000000,86.000000,,,,0.000000,4.000000,4.000000,4.000000,1.000000,4.000000,75.000000,,,,,,,,,,,,,,,,,,,,,,,,,,,,,,,,,,,,,,,,,,,,,,,,,,,,,,,,,,,,,,,
1649886624.419934,47.000000,0.000000,4266.153809,4222.563965,4185.641113,4219.487305,4222.563965,0.000000,4.000000,86.000000,,,,0.000000,4.000000,4.000000,4.000000,1.000000,4.000000,75.000000,,,,,,,,,,,,,,,,,,,,,,,,,,,,,,,,,,,,,,,,,,,,,,,,,,,,,,,,,,,,,,,
1649886624.427748,48.000000,0.000000,4278.974121,4228.717773,4187.179688,4223.077148,4236.922852,0.000000,4.000000,86.000000,,,,0.000000,4.000000,4.000000,4.000000,1.000000,4.000000,75.000000,,,,,,,,,,,,,,,,,,,,,,,,,,,,,,,,,,,,,,,,,,,,,,,,,,,,,,,,,,,,,,,
1649886624.435663,49.000000,0.000000,4280.512695,4229.743652,4181.025879,4222.563965,4250.256348,0.000000,4.000000,86.000000,,,,0.000000,4.000000,4.000000,4.000000,1.000000,4.000000,75.000000,,,,,,,,,,,,,,,,,,,,,,,,,,,,,,,,,,,,,,,,,,,,,,,,,,,,,,,,,,,,,,,
1649886624.443477,50.000000,0.000000,4276.410156,4221.025879,4175.897461,4218.974121,4242.051270,0.000000,4.000000,86.000000,,,,0.000000,4.000000,4.000000,4.000000,1.000000,4.000000,75.000000,,,,,,,,,,,,,,,,,,,,,,,,,,,,,,,,,,,,,,,,,,,,,,,,,,,,,,,,,,,,,,,
1649886624.451392,51.000000,0.000000,4296.922852,4234.358887,4194.358887,4223.077148,4254.871582,0.000000,4.000000,86.000000,,,,0.000000,4.000000,4.000000,4.000000,1.000000,4.000000,75.000000,,,,,,,,,,,,,,,,,,,,,,,,,,,,,,,,,,,,,,,,,,,,,,,,,,,,,,,,,,,,,,,
1649886624.459206,52.000000,0.000000,4316.410156,4248.205078,4200.512695,4228.717773,4275.384766,0.000000,4.000000,86.000000,,,,0.000000,4.000000,4.000000,4.000000,1.000000,4.000000,75.000000,,,,,,,,,,,,,,,,,,,,,,,,,,,,,,,,,,,,,,,,,,,,,,,,,,,,,,,,,,,,,,,
1649886624.467020,53.000000,0.000000,4297.948730,4232.307617,4176.410156,4226.666504,4257.948730,0.000000,4.000000,86.000000,,,,0.000000,4.000000,4.000000,4.000000,1.000000,4.000000,75.000000,,,,,,,,,,,,,,,,,,,,,,,,,,,,,,,,,,,,,,,,,,,,,,,,,,,,,,,,,,,,,,,
1649886624.474735,54.000000,0.000000,4269.230957,4218.461426,4165.128418,4221.538574,4229.230957,0.000000,4.000000,86.000000,,,,0.000000,4.000000,4.000000,4.000000,1.000000,4.000000,75.000000,,,,,,,,,,,,,,,,,,,,,,,,,,,,,,,,,,,,,,,,,,,,,,,,,,,,,,,,,,,,,,,
1649886624.482649,55.000000,0.000000,4271.794922,4227.179688,4179.487305,4221.025879,4228.717773,0.000000,4.000000,86.000000,,,,0.000000,4.000000,4.000000,4.000000,1.000000,4.000000,75.000000,,,,,,,,,,,,,,,,,,,,,,,,,,,,,,,,,,,,,,,,,,,,,,,,,,,,,,,,,,,,,,,
1649886624.490464,56.000000,0.000000,4293.846191,4233.333496,4190.256348,4226.666504,4247.692383,0.000000,4.000000,86.000000,,,,0.000000,4.000000,4.000000,4.000000,1.000000,4.000000,75.000000,,,,,,,,,,,,,,,,,,,,,,,,,,,,,,,,,,,,,,,,,,,,,,,,,,,,,,,,,,,,,,,
1649886624.498378,57.000000,0.000000,4301.025879,4232.307617,4186.666504,4228.205078,4259.487305,0.000000,4.000000,86.000000,,,,0.000000,4.000000,4.000000,4.000000,1.000000,4.000000,75.000000,,,,,,,,,,,,,,,,,,,,,,,,,,,,,,,,,,,,,,,,,,,,,,,,,,,,,,,,,,,,,,,
1649886624.506192,58.000000,0.000000,4288.717773,4235.897461,4180.512695,4220.512695,4251.794922,0.000000,4.000000,86.000000,,,,0.000000,4.000000,4.000000,4.000000,1.000000,4.000000,75.000000,,,,,,,,,,,,,,,,,,,,,,,,,,,,,,,,,,,,,,,,,,,,,,,,,,,,,,,,,,,,,,,
1649886624.514107,59.000000,0.000000,4264.615234,4233.846191,4169.230957,4216.410156,4227.179688,0.000000,4.000000,86.000000,,,,0.000000,4.000000,4.000000,4.000000,1.000000,4.000000,75.000000,,,,,,,,,,,,,,,,,,,,,,,,,,,,,,,,,,,,,,,,,,,,,,,,,,,,,,,,,,,,,,,
1649886624.521921,60.000000,0.000000,4250.256348,4228.205078,4156.410156,4215.384766,4217.436035,0.000000,4.000000,86.000000,,,,0.000000,4.000000,4.000000,4.000000,1.000000,4.000000,75.000000,,,,,,,,,,,,,,,,,,,,,,,,,,,,,,,,,,,,,,,3.070046,2.977397,2.195195,1.047350,0.513091,40.736050,11.055820,7.317647,1.818790,0.585884,4.203461,2.770012,2.212323,0.678463,0.356964,0.249273,0.256207,0.146506,0.079123,0.056219,4.959153,2.650929,1.869014,0.943525,0.542432
1649886624.529835,61.000000,0.000000,4266.153809,4234.871582,4160.512695,4214.871582,4232.307617,0.000000,4.000000,86.000000,,,,0.000000,4.000000,4.000000,4.000000,1.000000,4.000000,75.000000,,,,,,,,,,,,,,,,,,,,,,,,,,,,,,,,,,,,,,,,,,,,,,,,,,,,,,,,,,,,,,,
1649886624.537650,62.000000,0.000000,4271.794922,4242.051270,4175.384766,4215.897461,4231.282227,0.000000,4.000000,86.000000,,,,0.000000,4.000000,4.000000,4.000000,1.000000,4.000000,75.000000,,,,,,,,,,,,,,,,,,,,,,,,,,,,,,,,,,,,,,,,,,,,,,,,,,,,,,,,,,,,,,,
1649886624.545564,63.000000,0.000000,4256.922852,4234.871582,4181.538574,4217.436035,4219.487305,0.000000,4.000000,86.000000,,,,0.000000,4.000000,4.000000,4.000000,1.000000,4.000000,75.000000,,,,,,,,,,,,,,,,,,,,,,,,,,,,,,,,,,,,,,,,,,,,,,,,,,,,,,,,,,,,,,,
1649886624.553378,64.000000,0.000000,4262.051270,4228.205078,4186.666504,4220.000000,4233.846191,450.000000,4.000000,86.000000,,,,0.000000,4.000000,4.000000,4.000000,1.000000,4.000000,75.000000,,,,,,,,,,,,,,,,,,,,,,,,,,,,,,,,,,,,,,,,,,,,,,,,,,,,,,,,,,,,,,,
1649886624.561293,65.000000,0.000000,4283.589844,4232.820313,4201.025879,4225.128418,4264.615234,450.000000,4.000000,86.000000,,,,0.000000,4.000000,4.000000,4.000000,1.000000,4.000000,75.000000,,,,,,,,,,,,,,,,,,,,,,,,,,,,,,,,,,,,,,,,,,,,,,,,,,,,,,,,,,,,,,,
1649886624.569107,66.000000,0.000000,4292.820313,4234.871582,4199.487305,4227.692383,4277.948730,16203.000000,4.000000,86.000000,,,,0.000000,4.000000,4.000000,4.000000,1.000000,4.000000,75.000000,,,,,,,,,,,,,,,,,,,,,,,,,,,,,,,,,,,,,,,,,,,,,,,,,,,,,,,,,,,,,,,
1649886624.577021,67.000000,0.000000,4296.410156,4230.256348,4186.153809,4225.128418,4272.820313,450.000000,4.000000,86.000000,,,,0.000000,4.000000,4.000000,4.000000,1.000000,4.000000,75.000000,,,,,,,,,,,,,,,,,,,,,,,,,,,,,,,,,,,,,,,,,,,,,,,,,,,,,,,,,,,,,,,
1649886624.584836,68.000000,0.000000,4289.743652,4225.641113,4182.563965,4225.128418,4261.025879,16197.000000,4.000000,86.000000,,,,0.000000,4.000000,4.000000,4.000000,1.000000,4.000000,75.000000,,,,,,,,,,,,,,,,,,,,,,,,,,,,,,,,,,,,,,,,,,,,,,,,,,,,,,,,,,,,,,,
1649886624.592750,69.000000,0.000000,4269.743652,4222.563965,4177.948730,4224.615234,4248.717773,450.000000,4.000000,86.000000,,,,0.000000,4.000000,4.000000,4.000000,1.000000,4.000000,75.000000,,,,,,,,,,,,,,,,,,,,,,,,,,,,,,,,,,,,,,,,,,,,,,,,,,,,,,,,,,,,,,,
1649886624.600664,70.000000,0.000000,4260.000000,4226.153809,4173.846191,4224.102539,4250.769043,16163.000000,4.000000,86.000000,,,,0.000000,4.000000,4.000000,4.000000,1.000000,4.000000,75.000000,,,,,,,,,,,,,,,,,,,,,,,,,,,,,,,,,,,,,,,,,,,,,,,,,,,,,,,,,,,,,,,
1649886624.608479,71.000000,0.000000,4257.436035,4224.615234,4172.307617,4224.615234,4248.205078,450.000000,4.000000,86.000000,,,,0.000000,4.000000,4.000000,4.000000,1.000000,4.000000,75.000000,,,,,,,,,,,,,,,,,,,,,,,,,,,,,,,,,,,,,,,,,,,,,,,,,,,,,,,,,,,,,,,
1649886624.616393,72.000000,0.000000,4253.333496,4215.897461,4169.230957,4222.563965,4234.358887,450.000000,4.000000,86.000000,,,,0.000000,4.000000,4.000000,4.000000,1.000000,4.000000,75.000000,,,,,,,,,,,,,,,,,,,,,,,,,,,,,,,,,,,,,,,,,,,,,,,,,,,,,,,,,,,,,,,
1649886624.624208,73.000000,0.000000,4252.307617,4216.410156,4173.846191,4221.538574,4228.717773,37.000000,4.000000,86.000000,,,,0.000000,4.000000,4.000000,4.000000,1.000000,4.000000,75.000000,,,,,,,,,,,,,,,,,,,,,,,,,,,,,,,,,,,,,,,,,,,,,,,,,,,,,,,,,,,,,,,
1649886624.632122,74.000000,0.000000,4250.769043,4222.051270,4186.153809,4222.051270,4230.256348,450.000000,4.000000,86.000000,,,,0.000000,4.000000,4.000000,4.000000,1.000000,4.000000,75.000000,,,,,,,,,,,,,,,,,,,,,,,,,,,,,,,,,,,,,,,,,,,,,,,,,,,,,,,,,,,,,,,
1649886624.639936,75.000000,0.000000,4251.794922,4221.538574,4192.820313,4221.025879,4232.307617,16221.000000,4.000000,86.000000,,,,0.000000,4.000000,4.000000,4.000000,1.000000,4.000000,75.000000,,,,,,,,,,,,,,,,,,,,,,,,,,,,,,,,,,,,,,,,,,,,,,,,,,,,,,,,,,,,,,,
1649886624.647851,76.000000,0.000000,4261.538574,4221.538574,4198.461426,4219.487305,4237.436035,450.000000,4.000000,86.000000,,,,0.000000,4.000000,4.000000,4.000000,1.000000,4.000000,75.000000,,,,,,,,,,,,,,,,,,,,,,,,,,,,,,,,,,,,,,,3.497874,3.587674,2.007502,1.034732,0.506365,38.868546,10.451186,6.889120,1.765334,0.551182,4.117953,2.113463,2.020395,0.653955,0.390242,0.247050,0.257329,0.121382,0.083462,0.062226,4.701632,3.354560,1.803560,1.090819,0.618654
1649886624.655665,77.000000,0.000000,4268.205078,4219.487305,4204.615234,4219.487305,4243.077148,450.000000,4.000000,86.000000,,,,0.000000,4.000000,4.000000,4.000000,1.000000,4.000000,75.000000,,,,,,,,,,,,,,,,,,,,,,,,,,,,,,,,,,,,,,,,,,,,,,,,,,,,,,,,,,,,,,,
1649886624.663579,78.000000,0.000000,4269.230957,4217.436035,4202.563965,4218.974121,4240.000000,450.000000,4.000000,86.000000,,,,0.000000,4.000000,4.000000,4.000000,1.000000,4.000000,75.000000,,,,,,,,,,,,,,,,,,,,,,,,,,,,,,,,,,,,,,,,,,,,,,,,,,,,,,,,,,,,,,,
1649886624.671394,79.000000,0.000000,4268.205078,4223.589844,4195.384766,4217.948730,4230.769043,16221.000000,4.000000,86.000000,,,,0.000000,4.000000,4.000000,4.000000,1.000000,4.000000,75.000000,,,,,,,,,,,,,,,,,,,,,,,,,,,,,,,,,,,,,,,,,,,,,,,,,,,,,,,,,,,,,,,
1649886624.679308,80.000000,0.000000,4259.487305,4228.717773,4190.769043,4219.487305,4222.563965,450.000000,4.000000,86.000000,,,,0.000000,4.000000,4.000000,4.000000,1.000000,4.000000,75.000000,,,,,,,,,,,,,,,,,,,,,,,,,,,,,,,,,,,,,,,,,,,,,,,,,,,,,,,,,,,,,,,
1649886624.687122,81.000000,0.000000,4271.282227,4232.307617,4193.846191,4222.563965,4240.000000,450.000000,4.000000,86.000000,,,,0.000000,4.000000,4.000000,4.000000,1.000000,4.000000,75.000000,,,,,,,,,,,,,,,,,,,,,,,,,,,,,,,,,,,,,,,,,,,,,,,,,,,,,,,,,,,,,,,
1649886624.695037,82.000000,0.000000,4296.410156,4238.974121,4198.461426,4225.128418,4265.128418,450.000000,4.000000,86.000000,,,,0.000000,4.000000,4.000000,4.000000,1.000000,4.000000,75.000000,,,,,,,,,,,,,,,,,,,,,,,,,,,,,,,,,,,,,,,,,,,,,,,,,,,,,,,,,,,,,,,
1649886624.702851,83.000000,0.000000,4291.794922,4235.897461,4194.358887,4224.615234,4261.025879,16221.000000,4.000000,86.000000,,,,0.000000,4.000000,4.000000,4.000000,1.000000,4.000000,75.000000,,,,,,,,,,,,,,,,,,,,,,,,,,,,,,,,,,,,,,,,,,,,,,,,,,,,,,,,,,,,,,,
1649886624.710765,84.000000,0.000000,4278.461426,4230.769043,4195.384766,4225.128418,4260.512695,450.000000,4.000000,86.000000,,,,0.000000,4.000000,4.000000,4.000000,1.000000,4.000000,75.000000,,,,,,,,,,,,,,,,,,,,,,,,,,,,,,,,,,,,,,,,,,,,,,,,,,,,,,,,,,,,,,,
1649886624.718580,85.000000,0.000000,4281.538574,4230.256348,4202.563965,4224.615234,4277.436035,450.000000,4.000000,86.000000,,,,0.000000,4.000000,4.000000,4.000000,1.000000,4.000000,75.000000,,,,,,,,,,,,,,,,,,,,,,,,,,,,,,,,,,,,,,,,,,,,,,,,,,,,,,,,,,,,,,,
1649886624.726494,86.000000,0.000000,4274.358887,4225.641113,4201.538574,4217.436035,4266.153809,450.000000,4.000000,86.000000,,,,0.000000,4.000000,4.000000,4.000000,1.000000,4.000000,75.000000,,,,,,,,,,,,,,,,,,,,,,,,,,,,,,,,,,,,,,,,,,,,,,,,,,,,,,,,,,,,,,,
1649886624.734309,87.000000,0.000000,4257.436035,4221.025879,4190.769043,4213.846191,4232.307617,16221.000000,4.000000,86.000000,,,,0.000000,4.000000,4.000000,4.000000,1.000000,4.000000,75.000000,,,,,,,,,,,,,,,,,,,,,,,,,,,,,,,,,,,,,,,,,,,,,,,,,,,,,,,,,,,,,,,
1649886624.742223,88.000000,0.000000,4256.410156,4231.282227,4185.641113,4218.974121,4213.846191,450.000000,4.000000,86.000000,,,,0.000000,4.000000,4.000000,4.000000,1.000000,4.000000,75.000000,,,,,,,,,,,,,,,,,,,,,,,,,,,,,,,,,,,,,,,,,,,,,,,,,,,,,,,,,,,,,,,
1649886624.750037,89.000000,0.000000,4254.358887,4238.974121,4179.487305,4220.000000,4205.128418,450.000000,4.000000,86.000000,,,,0.000000,4.000000,4.000000,4.000000,1.000000,4.000000,75.000000,,,,,,,,,,,,,,,,,,,,,,,,,,,,,,,,,,,,,,,,,,,,,,,,,,,,,,,,,,,,,,,
1649886624.757952,90.000000,0.000000,4242.563965,4229.230957,4169.230957,4217.948730,4197.948730,450.000000,4.000000,86.000000,,,,0.000000,4.000000,4.000000,4.000000,1.000000,4.000000,75.000000,,,,,,,,,,,,,,,,,,,,,,,,,,,,,,,,,,,,,,,,,,,,,,,,,,,,,,,,,,,,,,,
1649886624.765766,91.000000,0.000000,4238.974121,4220.512695,4163.077148,4216.410156,4197.948730,16221.000000,4.000000,86.000000,,,,0.000000,4.000000,4.000000,4.000000,1.000000,4.000000,75.000000,,,,,,,,,,,,,,,,,,,,,,,,,,,,,,,,,,,,,,,,,,,,,,,,,,,,,,,,,,,,,,,
1649886624.773680,92.000000,0.000000,4237.948730,4219.487305,4156.922852,4217.948730,4201.025879,450.000000,4.000000,86.000000,,,,0.000000,4.000000,4.000000,4.000000,1.000000,4.000000,75.000000,1.000000,66.666664,4.000000,4.000000,4.000000,0.000000,4.000000,,,,,,,,,,,,,,,,,,,,,,,,,,,,,,,,4.267206,4.203250,1.793207,1.038690,0.516105,31.926382,8.778976,5.612469,1.568265,0.474269,4.047765,1.594082,1.724766,0.700678,0.416852,0.256742,0.255102,0.107462,0.086054,0.066760,4.704879,4.147036,1.776659,1.208381,0.688879
1649886624.781595,93.000000,0.000000,4240.000000,4216.410156,4152.820313,4217.948730,4212.820313,450.000000,4.000000,86.000000,,,,0.000000,4.000000,4.000000,4.000000,1.000000,4.000000,75.000000,,,,,,,,,,,,,,,,,,,,,,,,,,,,,,,,,,,,,,,,,,,,,,,,,,,,,,,,,,,,,,,
1649886624.789409,94.000000,0.000000,4253.846191,4216.922852,4164.102539,4215.384766,4235.897461,450.000000,4.000000,86.000000,,,,0.000000,4.000000,4.000000,4.000000,1.000000,4.000000,75.000000,,,,,,,,,,,,,,,,,,,,,,,,,,,,,,,,,,,,,,,,,,,,,,,,,,,,,,,,,,,,,,,
1649886624.797323,95.000000,0.000000,4264.102539,4221.538574,4178.461426,4214.358887,4242.563965,16221.000000,4.000000,86.000000,,,,0.000000,4.000000,4.000000,4.000000,1.000000,4.000000,75.000000,,,,,,,,,,,,,,,,,,,,,,,,,,,,,,,,,,,,,,,,,,,,,,,,,,,,,,,,,,,,,,,
1649886624.805138,96.000000,0.000000,4248.205078,4214.871582,4171.282227,4214.871582,4222.563965,450.000000,4.000000,86.000000,,,,0.000000,4.000000,4.000000,4.000000,1.000000,4.000000,75.000000,,,,,,,,,,,,,,,,,,,,,,,,,,,,,,,,,,,,,,,,,,,,,,,,,,,,,,,,,,,,,,,
1649886624.813052,97.000000,0.000000,4228.205078,4210.256348,4161.538574,4210.256348,4204.102539,450.000000,4.000000,86.000000,,,,0.000000,4.000000,4.000000,4.000000,1.000000,4.000000,75.000000,,,,,,,,,,,,,,,,,,,,,,,,,,,,,,,,,,,,,,,,,,,,,,,,,,,,,,,,,,,,,,,
1649886624.820866,98.000000,0.000000,4246.153809,4225.641113,4170.256348,4209.230957,4209.743652,450.000000,4.000000,86.000000,,,,0.000000,4.000000,4.000000,4.000000,1.000000,4.000000,75.000000,,,,,,,,,,,,,,,,,,,,,,,,,,,,,,,,,,,,,,,,,,,,,,,,,,,,,,,,,,,,,,,
1649886624.828781,99.000000,0.000000,4273.846191,4237.948730,4181.538574,4218.461426,4225.128418,16221.000000,4.000000,86.000000,,,,0.000000,4.000000,4.000000,4.000000,1.000000,4.000000,75.000000,,,,,,,,,,,,,,,,,,,,,,,,,,,,,,,,,,,,,,,,,,,,,,,,,,,,,,,,,,,,,,,
1649886624.836595,100.000000,0.000000,4270.769043,4237.436035,4185.128418,4222.051270,4231.282227,450.000000,4.000000,86.000000,,,,0.000000,4.000000,4.000000,4.000000,1.000000,4.000000,75.000000,,,,,,,,,,,,,,,,,,,,,,,,,,,,,,,,,,,,,,,,,,,,,,,,,,,,,,,,,,,,,,,
1649886624.844509,101.000000,0.000000,4251.794922,4236.410156,4187.692383,4218.461426,4225.128418,450.000000,4.000000,86.000000,,,,0.000000,4.000000,4.000000,4.000000,1.000000,4.000000,75.000000,,,,,,,,,,,,,,,,,,,,,,,,,,,,,,,,,,,,,,,,,,,,,,,,,,,,,,,,,,,,,,,
1649886624.852324,102.000000,0.000000,4245.128418,4232.820313,4189.230957,4218.461426,4214.358887,450.000000,4.000000,86.000000,,,,0.000000,4.000000,4.000000,4.000000,1.000000,4.000000,75.000000,,,,,,,,,,,,,,,,,,,,,,,,,,,,,,,,,,,,,,,,,,,,,,,,,,,,,,,,,,,,,,,
1649886624.860238,103.000000,0.000000,4247.692383,4228.205078,4187.179688,4218.974121,4209.743652,16221.000000,4.000000,86.000000,,,,0.000000,4.000000,4.000000,4.000000,1.000000,4.000000,75.000000,,,,,,,,,,,,,,,,,,,,,,,,,,,,,,,,,,,,,,,,,,,,,,,,,,,,,,,,,,,,,,,
1649886624.868053,104.000000,0.000000,4254.358887,4233.333496,4188.205078,4218.461426,4215.897461,450.000000,4.000000,86.000000,,,,0.000000,4.000000,4.000000,4.000000,1.000000,4.000000,75.000000,,,,,,,,,,,,,,,,,,,,,,,,,,,,,,,,,,,,,,,,,,,,,,,,,,,,,,,,,,,,,,,
1649886624.875967,105.000000,0.000000,4267.692383,4244.102539,4192.820313,4220.000000,4223.589844,450.000000,4.000000,86.000000,,,,0.000000,4.000000,4.000000,4.000000,1.000000,4.000000,75.000000,,,,,,,,,,,,,,,,,,,,,,,,,,,,,,,,,,,,,,,,,,,,,,,,,,,,,,,,,,,,,,,
1649886624.883781,106.000000,0.000000,4274.871582,4248.717773,4192.820313,4222.051270,4224.102539,450.000000,4.000000,86.000000,,,,0.000000,4.000000,4.000000,4.000000,1.000000,4.000000,75.000000,,,,,,,,,,,,,,,,,,,,,,,,,,,,,,,,,,,,,,,,,,,,,,,,,,,,,,,,,,,,,,,
1649886624.891696,107.000000,0.000000,4278.974121,4253.333496,4187.692383,4222.051270,4227.179688,16221.000000,4.000000,86.000000,,,,0.000000,4.000000,4.000000,4.000000,1.000000,4.000000,75.000000,,,,,,,,,,,,,,,,,,,,,,,,,,,,,,,,,,,,,,,,,,,,,,,,,,,,,,,,,,,,,,,
1649886624.899510,108.000000,0.000000,4275.384766,4251.794922,4180.000000,4219.487305,4233.846191,450.000000,4.000000,86.000000,,,,0.000000,4.000000,4.000000,4.000000,1.000000,4.000000,75.000000,,,,,,,,,,,,,,,,,,,,,,,,,,,,,,,,,,,,,,,5.317748,4.706758,1.603791,1.077647,0.548557,22.330608,6.609415,3.907716,1.307403,0.380644,3.994056,1.261060,1.443690,0.808334,0.431397,0.281992,0.254738,0.105152,0.085793,0.068100,5.088248,4.857434,1.847708,1.283747,0.745655
1649886624.907424,109.000000,0.000000,4252.307617,4238.974121,4165.128418,4214.358887,4221.025879,450.000000,4.000000,86.000000,,,,0.000000,4.000000,4.000000,4.000000,1.000000,4.000000,75.000000,,,,,,,,,,,,,,,,,,,,,,,,,,,,,,,,,,,,,,,,,,,,,,,,,,,,,,,,,,,,,,,
1649886624.915239,110.000000,0.000000,4237.436035,4230.769043,4152.820313,4211.282227,4202.563965,450.000000,4.000000,86.000000,,,,0.000000,4.000000,4.000000,4.000000,1.000000,4.000000,75.000000,,,,,,,,,,,,,,,,,,,,,,,,,,,,,,,,,,,,,,,,,,,,,,,,,,,,,,,,,,,,,,,
1649886624.923153,111.000000,0.000000,4254.871582,4235.897461,4157.948730,4216.410156,4216.410156,16221.000000,4.000000,86.000000,,,,0.000000,4.000000,4.000000,4.000000,1.000000,4.000000,75.000000,,,,,,,,,,,,,,,,,,,,,,,,,,,,,,,,,,,,,,,,,,,,,,,,,,,,,,,,,,,,,,,
1649886624.930967,112.000000,0.000000,4282.563965,4251.794922,4181.025879,4224.615234,4252.307617,450.000000,4.000000,86.000000,,,,0.000000,4.000000,4.000000,4.000000,1.000000,4.000000,75.000000,,,,,,,,,,,,,,,,,,,,,,,,,,,,,,,,,,,,,,,,,,,,,,,,,,,,,,,,,,,,,,,
1649886624.938882,113.000000,0.000000,4282.563965,4264.615234,4198.461426,4225.641113,4253.333496,450.000000,4.000000,86.000000,,,,0.000000,4.000000,4.000000,4.000000,1.000000,4.000000,75.000000,,,,,,,,,,,,,,,,,,,,,,,,,,,,,,,,,,,,,,,,,,,,,,,,,,,,,,,,,,,,,,,
1649886624.946796,114.000000,0.000000,4255.384766,4259.487305,4188.205078,4218.461426,4216.922852,450.000000,4.000000,86.000000,,,,0.000000,4.000000,4.000000,4.000000,1.000000,4.000000,75.000000,,,,,,,,,,,,,,,,,,,,,,,,,,,,,,,,,,,,,,,,,,,,,,,,,,,,,,,,,,,,,,,
1649886624.954610,115.000000,0.000000,4247.179688,4249.743652,4166.666504,4213.846191,4209.230957,16221.000000,4.000000,86.000000,,,,0.000000,4.000000,4.000000,4.000000,1.000000,4.000000,75.000000,,,,,,,,,,,,,,,,,,,,,,,,,,,,,,,,,,,,,,,,,,,,,,,,,,,,,,,,,,,,,,,
1649886624.962525,116.000000,0.000000,4269.230957,4254.358887,4161.538574,4216.410156,4241.538574,450.000000,4.000000,86.000000,,,,0.000000,4.000000,4.000000,4.000000,1.000000,4.000000,75.000000,,,,,,,,,,,,,,,,,,,,,,,,,,,,,,,,,,,,,,,,,,,,,,,,,,,,,,,,,,,,,,,
1649886624.970339,117.000000,0.000000,4279.487305,4260.000000,4165.641113,4216.410156,4254.358887,450.000000,4.000000,86.000000,,,,0.000000,4.000000,4.000000,4.000000,1.000000,4.000000,75.000000,,,,,,,,,,,,,,,,,,,,,,,,,,,,,,,,,,,,,,,,,,,,,,,,,,,,,,,,,,,,,,,
1649886624.978253,118.000000,0.000000,4271.282227,4257.948730,4167.179688,4216.922852,4240.512695,450.000000,4.000000,86.000000,,,,0.000000,4.000000,4.000000,4.000000,1.000000,4.000000,75.000000,,,,,,,,,,,,,,,,,,,,,,,,,,,,,,,,,,,,,,,,,,,,,,,,,,,,,,,,,,,,,,,
1649886624.986068,119.000000,0.000000,4265.128418,4254.871582,4169.230957,4218.461426,4235.897461,16221.000000,4.000000,86.000000,,,,0.000000,4.000000,4.000000,4.000000,1.000000,4.000000,75.000000,,,,,,,,,,,,,,,,,,,,,,,,,,,,,,,,,,,,,,,,,,,,,,,,,,,,,,,,,,,,,,,
1649886624.993982,120.000000,0.000000,4261.538574,4244.615234,4161.538574,4216.922852,4232.307617,450.000000,4.000000,86.000000,,,,0.000000,4.000000,4.000000,4.000000,1.000000,4.000000,75.000000,,,,,,,,,,,,,,,,,,,,,,,,,,,,,,,,,,,,,,,,,,,,,,,,,,,,,,,,,,,,,,,
1649886625.001797,121.000000,0.000000,4262.051270,4238.974121,4148.205078,4216.922852,4223.077148,450.000000,4.000000,86.000000,,,,0.000000,4.000000,4.000000,4.000000,1.000000,4.000000,75.000000,,,,,,,,,,,,,,,,,,,,,,,,,,,,,,,,,,,,,,,,,,,,,,,,,,,,,,,,,,,,,,,
1649886625.009711,122.000000,0.000000,4273.333496,4251.282227,4150.256348,4222.563965,4229.743652,450.000000,4.000000,86.000000,,,,0.000000,4.000000,4.000000,4.000000,1.000000,4.000000,75.000000,,,,,,,,,,,,,,,,,,,,,,,,,,,,,,,,,,,,,,,,,,,,,,,,,,,,,,,,,,,,,,,
1649886625.017525,123.000000,0.000000,4281.025879,4256.410156,4156.922852,4224.615234,4240.512695,16221.000000,4.000000,86.000000,,,,0.000000,4.000000,4.000000,4.000000,1.000000,4.000000,75.000000,,,,,,,,,,,,,,,,,,,,,,,,,,,,,,,,,,,,,,,,,,,,,,,,,,,,,,,,,,,,,,,
1649886625.025440,124.000000,0.000000,4262.051270,4236.922852,4145.641113,4216.922852,4223.077148,450.000000,4.000000,86.000000,,,,0.000000,4.000000,4.000000,4.000000,1.000000,4.000000,75.000000,,,,,,,,,,,,,,,,,,,,,,,,,,,,,,,,,,,,,,,6.426405,5.018431,1.482200,1.163223,0.599078,13.030665,4.559546,2.276047,1.066692,0.297602,3.959606,1.106743,1.277335,0.940112,0.429698,0.320664,0.256917,0.109271,0.082420,0.065633,5.829905,5.397482,2.076940,1.316208,0.785845
1649886625.033254,125.000000,0.000000,4251.794922,4229.743652,4140.512695,4211.282227,4215.897461,450.000000,4.000000,86.000000,,,,0.000000,4.000000,4.000000,4.000000,1.000000,4.000000,75.000000,,,,,,,,,,,,,,,,,,,,,,,,,,,,,,,,,,,,,,,,,,,,,,,,,,,,,,,,,,,,,,,
1649886625.041168,126.000000,0.000000,4274.871582,4250.256348,4159.487305,4217.948730,4248.205078,450.000000,4.000000,86.000000,,,,0.000000,4.000000,4.000000,4.000000,1.000000,4.000000,75.000000,,,,,,,,,,,,,,,,,,,,,,,,,,,,,,,,,,,,,,,,,,,,,,,,,,,,,,,,,,,,,,,
1649886625.048983,127.000000,0.000000,4289.230957,4265.641113,4170.769043,4226.666504,4266.666504,241.000000,4.000000,86.000000,,,,0.000000,4.000000,4.000000,4.000000,1.000000,4.000000,75.000000,,,,,,,,,,,,,,,,,,,,,,,,,,,,,,,,,,,,,,,,,,,,,,,,,,,,,,,,,,,,,,,
1649886625.056897,0.000000,0.000000,4269.743652,4260.000000,4154.871582,4225.128418,4246.153809,450.000000,4.000000,86.000000,,,,0.000000,4.000000,4.000000,4.000000,1.000000,4.000000,75.000000,,,,,,,,,,,,,,,,,,,,,,,,,,,,,,,,,,,,,,,,,,,,,,,,,,,,,,,,,,,,,,,
1649886625.064811,1.000000,0.000000,4254.871582,4253.333496,4143.077148,4218.974121,4229.743652,450.000000,4.000000,86.000000,,,,0.000000,4.000000,4.000000,4.000000,1.000000,4.000000,75.000000,,,,,,,,,,,,,,,,,,,,,,,,,,,,,,,,,,,,,,,,,,,,,,,,,,,,,,,,,,,,,,,
1649886625.072626,2.000000,0.000000,4259.487305,4254.871582,4151.794922,4218.461426,4225.641113,16228.000000,4.000000,86.000000,,,,0.000000,4.000000,4.000000,4.000000,1.000000,4.000000,75.000000,,,,,,,,,,,,,,,,,,,,,,,,,,,,,,,,,,,,,,,,,,,,,,,,,,,,,,,,,,,,,,,
1649886625.080440,3.000000,0.000000,4249.230957,4251.794922,4156.410156,4217.948730,4213.846191,450.000000,4.000000,86.000000,,,,0.000000,4.000000,4.000000,4.000000,1.000000,4.000000,75.000000,,,,,,,,,,,,,,,,,,,,,,,,,,,,,,,,,,,,,,,,,,,,,,,,,,,,,,,,,,,,,,,
1649886625.088354,4.000000,0.000000,4237.436035,4245.641113,4153.333496,4214.871582,4212.820313,16201.000000,4.000000,86.000000,,,,0.000000,4.000000,4.000000,4.000000,1.000000,4.000000,75.000000,,,,,,,,,,,,,,,,,,,,,,,,,,,,,,,,,,,,,,,,,,,,,,,,,,,,,,,,,,,,,,,
1649886625.096269,5.000000,0.000000,4236.922852,4243.589844,4158.461426,4215.384766,4215.897461,450.000000,4.000000,86.000000,,,,0.000000,4.000000,4.000000,4.000000,1.000000,4.000000,75.000000,,,,,,,,,,,,,,,,,,,,,,,,,,,,,,,,,,,,,,,,,,,,,,,,,,,,,,,,,,,,,,,
1649886625.104083,6.000000,0.000000,4224.102539,4233.333496,4158.461426,4215.897461,4195.897461,16180.000000,4.000000,86.000000,,,,0.000000,4.000000,4.000000,4.000000,1.000000,4.000000,75.000000,,,,,,,,,,,,,,,,,,,,,,,,,,,,,,,,,,,,,,,,,,,,,,,,,,,,,,,,,,,,,,,
1649886625.111997,7.000000,0.000000,4217.436035,4230.256348,4154.358887,4218.461426,4189.743652,450.000000,4.000000,86.000000,,,,0.000000,4.000000,4.000000,4.000000,1.000000,4.000000,75.000000,,,,,,,,,,,,,,,,,,,,,,,,,,,,,,,,,,,,,,,,,,,,,,,,,,,,,,,,,,,,,,,
1649886625.119812,8.000000,0.000000,4243.589844,4251.794922,4162.051270,4223.077148,4217.948730,450.000000,4.000000,86.000000,,,,0.000000,4.000000,4.000000,4.000000,1.000000,4.000000,75.000000,,,,,,,,,,,,,,,,,,,,,,,,,,,,,,,,,,,,,,,,,,,,,,,,,,,,,,,,,,,,,,,
1649886625.127726,9.000000,0.000000,4267.692383,4263.589844,4166.666504,4221.025879,4236.410156,35.000000,4.000000,86.000000,,,,0.000000,4.000000,4.000000,4.000000,1.000000,4.000000,75.000000,,,,,,,,,,,,,,,,,,,,,,,,,,,,,,,,,,,,,,,,,,,,,,,,,,,,,,,,,,,,,,,
1649886625.135541,10.000000,0.000000,4264.615234,4252.307617,4157.436035,4218.461426,4229.230957,450.000000,4.000000,86.000000,,,,0.000000,4.000000,4.000000,4.000000,1.000000,4.000000,75.000000,,,,,,,,,,,,,,,,,,,,,,,,,,,,,,,,,,,,,,,,,,,,,,,,,,,,,,,,,,,,,,,
1649886625.143455,11.000000,0.000000,4261.538574,4257.436035,4155.897461,4220.000000,4226.666504,16209.000000,4.000000,86.000000,,,,0.000000,4.000000,4.000000,4.000000,1.000000,4.000000,75.000000,,,,,,,,,,,,,,,,,,,,,,,,,,,,,,,,,,,,,,,,,,,,,,,,,,,,,,,,,,,,,,,
1649886625.151269,12.000000,0.000000,4265.128418,4271.794922,4158.974121,4218.461426,4229.230957,450.000000,4.000000,86.000000,,,,0.000000,4.000000,4.000000,4.000000,1.000000,4.000000,75.000000,,,,,,,,,,,,,,,,,,,,,,,,,,,,,,,,,,,,,,,7.327488,5.086239,1.434973,1.304534,0.659239,6.307285,3.016266,1.085541,0.899851,0.243617,4.006304,1.090446,1.276898,1.053574,0.411399,0.360779,0.258755,0.113618,0.078135,0.060265,6.691596,5.749812,2.493191,1.329308,0.815658
1649886625.159184,13.000000,0.000000,4264.102539,4265.641113,4151.794922,4216.922852,4222.563965,450.000000,4.000000,86.000000,,,,0.000000,4.000000,4.000000,4.000000,1.000000,4.000000,75.000000,,,,,,,,,,,,,,,,,,,,,,,,,,,,,,,,,,,,,,,,,,,,,,,,,,,,,,,,,,,,,,,
1649886625.166998,14.000000,0.000000,4253.333496,4255.384766,4148.717773,4216.922852,4214.871582,450.000000,4.000000,86.000000,,,,0.000000,4.000000,4.000000,4.000000,1.000000,4.000000,75.000000,,,,,,,,,,,,,,,,,,,,,,,,,,,,,,,,,,,,,,,,,,,,,,,,,,,,,,,,,,,,,,,
1649886625.174812,15.000000,0.000000,4237.436035,4257.948730,4156.922852,4214.358887,4218.974121,16209.000000,4.000000,86.000000,,,,0.000000,4.000000,4.000000,4.000000,1.000000,4.000000,75.000000,,,,,,,,,,,,,,,,,,,,,,,,,,,,,,,,,,,,,,,,,,,,,,,,,,,,,,,,,,,,,,,
1649886625.182527,16.000000,0.000000,4240.000000,4258.461426,4164.615234,4216.410156,4221.025879,0.000000,4.000000,86.000000,,,,0.000000,4.000000,4.000000,4.000000,1.000000,4.000000,75.000000,,,,,,,,,,,,,,,,,,,,,,,,,,,,,,,,,,,,,,,,,,,,,,,,,,,,,,,,,,,,,,,
1649886625.190341,17.000000,0.000000,4245.128418,4249.743652,4156.922852,4220.000000,4205.641113,0.000000,4.000000,86.000000,,,,0.000000,4.000000,4.000000,4.000000,1.000000,4.000000,75.000000,,,,,,,,,,,,,,,,,,,,,,,,,,,,,,,,,,,,,,,,,,,,,,,,,,,,,,,,,,,,,,,
1649886625.198056,18.000000,0.000000,4222.563965,4235.384766,4140.000000,4211.794922,4185.641113,0.000000,4.000000,86.000000,,,,0.000000,4.000000,4.000000,4.000000,1.000000,4.000000,75.000000,,,,,,,,,,,,,,,,,,,,,,,,,,,,,,,,,,,,,,,,,,,,,,,,,,,,,,,,,,,,,,,
1649886625.205970,19.000000,0.000000,4217.948730,4235.897461,4144.102539,4206.153809,4190.256348,0.000000,4.000000,86.000000,,,,0.000000,4.000000,4.000000,4.000000,1.000000,4.000000,75.000000,,,,,,,,,,,,,,,,,,,,,,,,,,,,,,,,,,,,,,,,,,,,,,,,,,,,,,,,,,,,,,,
1649886625.213785,20.000000,0.000000,4250.256348,4257.948730,4165.128418,4214.871582,4213.846191,0.000000,4.000000,86.000000,,,,0.000000,4.000000,4.000000,4.000000,1.000000,4.000000,75.000000,,,,,,,,,,,,,,,,,,,,,,,,,,,,,,,,,,,,,,,,,,,,,,,,,,,,,,,,,,,,,,,
1649886625.221699,21.000000,0.000000,4261.538574,4268.717773,4167.179688,4220.512695,4226.153809,0.000000,4.000000,86.000000,,,,0.000000,4.000000,4.000000,4.000000,1.000000,4.000000,75.000000,,,,,,,,,,,,,,,,,,,,,,,,,,,,,,,,,,,,,,,,,,,,,,,,,,,,,,,,,,,,,,,
1649886625.229513,22.000000,0.000000,4252.307617,4255.897461,4155.897461,4216.922852,4223.077148,0.000000,4.000000,86.000000,,,,0.000000,4.000000,4.000000,4.000000,1.000000,4.000000,75.000000,,,,,,,,,,,,,,,,,,,,,,,,,,,,,,,,,,,,,,,,,,,,,,,,,,,,,,,,,,,,,,,
1649886625.237428,23.000000,0.000000,4251.794922,4246.153809,4153.846191,4215.384766,4213.846191,0.000000,4.000000,86.000000,,,,0.000000,4.000000,4.000000,4.000000,1.000000,4.000000,75.000000,,,,,,,,,,,,,,,,,,,,,,,,,,,,,,,,,,,,,,,,,,,,,,,,,,,,,,,,,,,,,,,
1649886625.245342,24.000000,0.000000,4253.846191,4249.743652,4150.256348,4217.948730,4208.717773,0.000000,4.000000,86.000000,,,,0.000000,4.000000,4.000000,4.000000,1.000000,4.000000,75.000000,,,,,,,,,,,,,,,,,,,,,,,,,,,,,,,,,,,,,,,,,,,,,,,,,,,,,,,,,,,,,,,
1649886625.253156,25.000000,0.000000,4256.410156,4253.846191,4140.000000,4216.922852,4212.820313,0.000000,4.000000,86.000000,,,,0.000000,4.000000,4.000000,4.000000,1.000000,4.000000,75.000000,,,,,,,,,,,,,,,,,,,,,,,,,,,,,,,,,,,,,,,,,,,,,,,,,,,,,,,,,,,,,,,
1649886625.261071,26.000000,0.000000,4255.897461,4253.333496,4135.384766,4211.794922,4220.000000,0.000000,4.000000,86.000000,,,,0.000000,4.000000,4.000000,4.000000,1.000000,4.000000,75.000000,,,,,,,,,,,,,,,,,,,,,,,,,,,,,,,,,,,,,,,,,,,,,,,,,,,,,,,,,,,,,,,
1649886625.268885,27.000000,0.000000,4243.077148,4253.846191,4139.487305,4209.743652,4221.538574,0.000000,4.000000,86.000000,,,,0.000000,4.000000,4.000000,4.000000,1.000000,4.000000,75.000000,,,,,,,,,,,,,,,,,,,,,,,,,,,,,,,,,,,,,,,,,,,,,,,,,,,,,,,,,,,,,,,
1649886625.276799,28.000000,0.000000,4240.512695,4256.410156,4149.743652,4214.358887,4222.051270,0.000000,4.000000,86.000000,,,,0.000000,4.000000,4.000000,4.000000,1.000000,4.000000,75.000000,1.000000,58.333332,4.000000,3.000000,4.000000,0.000000,4.000000,,,,,,,,,,,,,,,,,,,,,,,,,,,,,,,,7.767487,4.909355,1.460396,1.496457,0.723067,2.806276,2.048968,0.448048,0.815431,0.223175,4.195354,1.176203,1.417829,1.122362,0.383170,0.388079,0.254971,0.115887,0.077246,0.054194,7.322669,5.962687,3.074383,1.353214,0.850838
1649886625.284614,29.000000,0.000000,4255.384766,4260.000000,4163.589844,4217.436035,4224.615234,0.000000,4.000000,86.000000,,,,0.000000,4.000000,4.000000,4.000000,1.000000,4.000000,75.000000,,,,,,,,,,,,,,,,,,,,,,,,,,,,,,,,,,,,,,,,,,,,,,,,,,,,,,,,,,,,,,,
1649886625.292428,30.000000,0.000000,4252.307617,4253.846191,4167.692383,4216.410156,4215.384766,0.000000,4.000000,86.000000,,,,0.000000,4.000000,4.000000,4.000000,1.000000,4.000000,75.000000,,,,,,,,,,,,,,,,,,,,,,,,,,,,,,,,,,,,,,,,,,,,,,,,,,,,,,,,,,,,,,,
1649886625.300143,31.000000,0.000000,4240.000000,4244.615234,4156.410156,4214.871582,4205.128418,0.000000,4.000000,86.000000,,,,0.000000,4.000000,4.000000,4.000000,1.000000,4.000000,75.000000,,,,,,,,,,,,,,,,,,,,,,,,,,,,,,,,,,,,,,,,,,,,,,,,,,,,,,,,,,,,,,,
1649886625.307957,32.000000,0.000000,4253.846191,4252.307617,4155.897461,4216.410156,4216.922852,0.000000,4.000000,86.000000,,,,0.000000,4.000000,4.000000,4.000000,1.000000,4.000000,75.000000,,,,,,,,,,,,,,,,,,,,,,,,,,,,,,,,,,,,,,,,,,,,,,,,,,,,,,,,,,,,,,,
1649886625.315671,33.000000,0.000000,4268.205078,4261.025879,4164.102539,4218.461426,4233.333496,0.000000,4.000000,86.000000,,,,0.000000,4.000000,4.000000,4.000000,1.000000,4.000000,75.000000,,,,,,,,,,,,,,,,,,,,,,,,,,,,,,,,,,,,,,,,,,,,,,,,,,,,,,,,,,,,,,,
1649886625.323486,34.000000,0.000000,4256.922852,4260.000000,4156.922852,4220.000000,4229.230957,0.000000,4.000000,86.000000,,,,0.000000,4.000000,4.000000,4.000000,1.000000,4.000000,75.000000,,,,,,,,,,,,,,,,,,,,,,,,,,,,,,,,,,,,,,,,,,,,,,,,,,,,,,,,,,,,,,,
1649886625.331200,35.000000,0.000000,4241.025879,4254.358887,4145.128418,4217.436035,4209.230957,0.000000,4.000000,86.000000,,,,0.000000,4.000000,4.000000,4.000000,1.000000,4.000000,75.000000,,,,,,,,,,,,,,,,,,,,,,,,,,,,,,,,,,,,,,,,,,,,,,,,,,,,,,,,,,,,,,,
1649886625.339115,36.000000,0.000000,4234.871582,4247.692383,4142.563965,4208.205078,4194.871582,0.000000,4.000000,86.000000,,,,0.000000,4.000000,4.000000,4.000000,1.000000,4.000000,75.000000,,,,,,,,,,,,,,,,,,,,,,,,,,,,,,,,,,,,,,,,,,,,,,,,,,,,,,,,,,,,,,,
1649886625.346929,37.000000,0.000000,4229.743652,4244.102539,4147.692383,4206.666504,4194.871582,0.000000,4.000000,86.000000,,,,0.000000,4.000000,4.000000,4.000000,1.000000,4.000000,75.000000,,,,,,,,,,,,,,,,,,,,,,,,,,,,,,,,,,,,,,,,,,,,,,,,,,,,,,,,,,,,,,,
1649886625.354843,38.000000,0.000000,4225.128418,4249.230957,4157.948730,4212.820313,4197.436035,0.000000,4.000000,86.000000,,,,0.000000,4.000000,4.000000,4.000000,1.000000,4.000000,75.000000,,,,,,,,,,,,,,,,,,,,,,,,,,,,,,,,,,,,,,,,,,,,,,,,,,,,,,,,,,,,,,,
1649886625.362658,39.000000,0.000000,4224.102539,4253.846191,4161.025879,4212.307617,4197.948730,0.000000,4.000000,86.000000,,,,0.000000,4.000000,4.000000,4.000000,1.000000,4.000000,75.000000,,,,,,,,,,,,,,,,,,,,,,,,,,,,,,,,,,,,,,,,,,,,,,,,,,,,,,,,,,,,,,,
1649886625.370572,40.000000,0.000000,4232.307617,4254.358887,4155.384766,4210.256348,4205.641113,0.000000,4.000000,86.000000,,,,0.000000,4.000000,4.000000,4.000000,1.000000,4.000000,75.000000,,,,,,,,,,,,,,,,,,,,,,,,,,,,,,,,,,,,,,,,,,,,,,,,,,,,,,,,,,,,,,,
1649886625.378387,41.000000,0.000000,4257.436035,4262.051270,4160.000000,4215.384766,4213.333496,0.000000,4.000000,86.000000,,,,0.000000,4.000000,4.000000,4.000000,1.000000,4.000000,75.000000,,,,,,,,,,,,,,,,,,,,,,,,,,,,,,,,,,,,,,,,,,,,,,,,,,,,,,,,,,,,,,,
1649886625.386301,42.000000,0.000000,4269.230957,4266.153809,4169.743652,4218.974121,4214.358887,0.000000,4.000000,86.000000,,,,0.000000,4.000000,4.000000,4.000000,1.000000,4.000000,75.000000,,,,,,,,,,,,,,,,,,,,,,,,,,,,,,,,,,,,,,,,,,,,,,,,,,,,,,,,,,,,,,,
1649886625.394115,43.000000,0.000000,4250.769043,4261.538574,4170.256348,4213.333496,4217.948730,0.000000,4.000000,86.000000,,,,0.000000,4.000000,4.000000,4.000000,1.000000,4.000000,75.000000,,,,,,,,,,,,,,,,,,,,,,,,,,,,,,,,,,,,,,,,,,,,,,,,,,,,,,,,,,,,,,,
1649886625.402030,44.000000,0.000000,4237.948730,4256.922852,4172.307617,4212.307617,4222.563965,0.000000,4.000000,86.000000,,,,0.000000,4.000000,4.000000,4.000000,1.000000,4.000000,75.000000,,,,,,,,,,,,,,,,,,,,,,,,,,,,,,,,,,,,,,,7.598999,4.560306,1.539824,1.706147,0.787305,1.715445,1.484665,0.252503,0.784435,0.230971,4.564888,1.328274,1.616417,1.144153,0.356145,0.390593,0.241369,0.116884,0.083783,0.050081,7.386672,6.099309,3.714187,1.409089,0.905057
1649886625.409844,45.000000,0.000000,4255.897461,4264.102539,4178.974121,4220.512695,4230.256348,0.000000,4.000000,86.000000,,,,0.000000,4.000000,4.000000,4.000000,1.000000,4.000000,75.000000,,,,,,,,,,,,,,,,,,,,,,,,,,,,,,,,,,,,,,,,,,,,,,,,,,,,,,,,,,,,,,,
1649886625.417758,46.000000,0.000000,4275.897461,4274.871582,4177.436035,4226.153809,4249.743652,0.000000,4.000000,86.000000,,,,0.000000,4.000000,4.000000,4.000000,1.000000,4.000000,75.000000,,,,,,,,,,,,,,,,,,,,,,,,,,,,,,,,,,,,,,,,,,,,,,,,,,,,,,,,,,,,,,,
1649886625.425573,47.000000,0.000000,4272.820313,4264.615234,4166.666504,4221.025879,4257.436035,0.000000,4.000000,86.000000,,,,0.000000,4.000000,4.000000,4.000000,1.000000,4.000000,75.000000,,,,,,,,,,,,,,,,,,,,,,,,,,,,,,,,,,,,,,,,,,,,,,,,,,,,,,,,,,,,,,,
1649886625.433487,48.000000,0.000000,4265.641113,4253.333496,4164.615234,4215.384766,4244.102539,0.000000,4.000000,86.000000,,,,0.000000,4.000000,4.000000,4.000000,1.000000,4.000000,75.000000,,,,,,,,,,,,,,,,,,,,,,,,,,,,,,,,,,,,,,,,,,,,,,,,,,,,,,,,,,,,,,,
1649886625.441301,49.000000,0.000000,4271.282227,4267.692383,4182.051270,4219.487305,4240.000000,0.000000,4.000000,86.000000,,,,0.000000,4.000000,4.000000,4.000000,1.000000,4.000000,75.000000,,,,,,,,,,,,,,,,,,,,,,,,,,,,,,,,,,,,,,,,,,,,,,,,,,,,,,,,,,,,,,,
1649886625.449116,50.000000,0.000000,4278.461426,4275.897461,4193.846191,4222.563965,4244.615234,0.000000,4.000000,86.000000,,,,0.000000,4.000000,4.000000,4.000000,1.000000,4.000000,75.000000,,,,,,,,,,,,,,,,,,,,,,,,,,,,,,,,,,,,,,,,,,,,,,,,,,,,,,,,,,,,,,,
1649886625.456930,51.000000,0.000000,4269.743652,4262.563965,4176.410156,4218.461426,4237.948730,0.000000,4.000000,86.000000,,,,0.000000,4.000000,4.000000,4.000000,1.000000,4.000000,75.000000,,,,,,,,,,,,,,,,,,,,,,,,,,,,,,,,,,,,,,,,,,,,,,,,,,,,,,,,,,,,,,,
1649886625.464645,52.000000,0.000000,4268.717773,4267.179688,4168.717773,4220.000000,4241.538574,0.000000,4.000000,86.000000,,,,0.000000,4.000000,4.000000,4.000000,1.000000,4.000000,75.000000,,,,,,,,,,,,,,,,,,,,,,,,,,,,,,,,,,,,,,,,,,,,,,,,,,,,,,,,,,,,,,,
1649886625.472459,53.000000,0.000000,4295.897461,4280.512695,4180.512695,4227.692383,4264.102539,0.000000,4.000000,86.000000,,,,0.000000,4.000000,4.000000,4.000000,1.000000,4.000000,75.000000,,,,,,,,,,,,,,,,,,,,,,,,,,,,,,,,,,,,,,,,,,,,,,,,,,,,,,,,,,,,,,,
1649886625.480174,54.000000,0.000000,4324.615234,4269.230957,4170.256348,4227.179688,4280.000000,0.000000,4.000000,86.000000,,,,0.000000,4.000000,4.000000,4.000000,1.000000,4.000000,75.000000,,,,,,,,,,,,,,,,,,,,,,,,,,,,,,,,,,,,,,,,,,,,,,,,,,,,,,,,,,,,,,,
1649886625.487988,55.000000,0.000000,4337.948730,4252.820313,4145.128418,4219.487305,4285.641113,0.000000,4.000000,86.000000,,,,0.000000,4.000000,4.000000,4.000000,1.000000,4.000000,75.000000,,,,,,,,,,,,,,,,,,,,,,,,,,,,,,,,,,,,,,,,,,,,,,,,,,,,,,,,,,,,,,,
1649886625.495703,56.000000,0.000000,4352.307617,4253.333496,4142.563965,4215.897461,4294.358887,0.000000,4.000000,86.000000,,,,0.000000,4.000000,4.000000,4.000000,1.000000,4.000000,75.000000,,,,,,,,,,,,,,,,,,,,,,,,,,,,,,,,,,,,,,,,,,,,,,,,,,,,,,,,,,,,,,,
1649886625.503517,57.000000,0.000000,4372.307617,4258.974121,4152.820313,4218.974121,4312.307617,0.000000,4.000000,86.000000,,,,0.000000,4.000000,4.000000,4.000000,1.000000,4.000000,75.000000,,,,,,,,,,,,,,,,,,,,,,,,,,,,,,,,,,,,,,,,,,,,,,,,,,,,,,,,,,,,,,,
1649886625.511231,58.000000,0.000000,4393.333496,4262.563965,4157.948730,4223.589844,4339.487305,0.000000,4.000000,86.000000,,,,0.000000,4.000000,4.000000,4.000000,1.000000,4.000000,75.000000,,,,,,,,,,,,,,,,,,,,,,,,,,,,,,,,,,,,,,,,,,,,,,,,,,,,,,,,,,,,,,,
1649886625.519146,59.000000,0.000000,4428.205078,4273.846191,4168.717773,4227.179688,4373.333496,0.000000,4.000000,86.000000,,,,0.000000,4.000000,4.000000,4.000000,1.000000,4.000000,75.000000,,,,,,,,,,,,,,,,,,,,,,,,,,,,,,,,,,,,,,,,,,,,,,,,,,,,,,,,,,,,,,,
1649886625.526960,60.000000,0.000000,4460.512695,4280.000000,4182.563965,4229.230957,4396.922852,0.000000,4.000000,86.000000,,,,0.000000,4.000000,4.000000,4.000000,1.000000,4.000000,75.000000,,,,,,,,,,,,,,,,,,,,,,,,,,,,,,,,,,,,,,,6.914771,4.213375,1.634638,1.887418,0.850605,1.644856,1.133104,0.296146,0.771856,0.259159,5.016157,1.482150,1.771421,1.136686,0.341444,0.366783,0.218934,0.116450,0.099432,0.050134,6.818490,6.255085,4.231843,1.501740,0.977917
1649886625.534775,61.000000,0.000000,4464.102539,4276.410156,4181.538574,4231.794922,4397.948730,0.000000,4.000000,86.000000,,,,0.000000,4.000000,4.000000,4.000000,1.000000,4.000000,75.000000,,,,,,,,,,,,,,,,,,,,,,,,,,,,,,,,,,,,,,,,,,,,,,,,,,,,,,,,,,,,,,,
1649886625.542489,62.000000,0.000000,4454.358887,4270.256348,4178.974121,4231.282227,4396.410156,0.000000,4.000000,86.000000,,,,0.000000,4.000000,4.000000,4.000000,1.000000,4.000000,75.000000,,,,,,,,,,,,,,,,,,,,,,,,,,,,,,,,,,,,,,,,,,,,,,,,,,,,,,,,,,,,,,,
1649886625.550403,63.000000,0.000000,4466.666504,4273.846191,4195.384766,4229.230957,4408.205078,0.000000,4.000000,86.000000,,,,0.000000,4.000000,4.000000,4.000000,1.000000,4.000000,75.000000,,,,,,,,,,,,,,,,,,,,,,,,,,,,,,,,,,,,,,,,,,,,,,,,,,,,,,,,,,,,,,,
1649886625.558218,64.000000,0.000000,4476.410156,4285.641113,4209.230957,4229.743652,4411.282227,450.000000,4.000000,86.000000,,,,0.000000,4.000000,4.000000,4.000000,1.000000,4.000000,75.000000,,,,,,,,,,,,,,,,,,,,,,,,,,,,,,,,,,,,,,,,,,,,,,,,,,,,,,,,,,,,,,,
1649886625.566132,65.000000,0.000000,4448.717773,4287.692383,4195.897461,4231.282227,4392.820313,450.000000,4.000000,86.000000,,,,0.000000,4.000000,4.000000,4.000000,1.000000,4.000000,75.000000,,,,,,,,,,,,,,,,,,,,,,,,,,,,,,,,,,,,,,,,,,,,,,,,,,,,,,,,,,,,,,,
1649886625.573947,66.000000,0.000000,4425.641113,4273.846191,4179.487305,4230.256348,4376.922852,16302.000000,4.000000,86.000000,,,,0.000000,4.000000,4.000000,4.000000,1.000000,4.000000,75.000000,,,,,,,,,,,,,,,,,,,,,,,,,,,,,,,,,,,,,,,,,,,,,,,,,,,,,,,,,,,,,,,
1649886625.581861,67.000000,0.000000,4427.692383,4260.512695,4172.307617,4228.205078,4373.846191,450.000000,4.000000,86.000000,,,,0.000000,4.000000,4.000000,4.000000,1.000000,4.000000,75.000000,,,,,,,,,,,,,,,,,,,,,,,,,,,,,,,,,,,,,,,,,,,,,,,,,,,,,,,,,,,,,,,
1649886625.589675,68.000000,0.000000,4416.922852,4267.179688,4163.077148,4228.717773,4365.128418,16194.000000,4.000000,86.000000,,,,0.000000,4.000000,4.000000,4.000000,1.000000,4.000000,75.000000,,,,,,,,,,,,,,,,,,,,,,,,,,,,,,,,,,,,,,,,,,,,,,,,,,,,,,,,,,,,,,,
1649886625.597590,69.000000,0.000000,4381.025879,4275.384766,4151.282227,4225.641113,4334.871582,450.000000,4.000000,86.000000,,,,0.000000,4.000000,4.000000,4.000000,1.000000,4.000000,75.000000,,,,,,,,,,,,,,,,,,,,,,,,,,,,,,,,,,,,,,,,,,,,,,,,,,,,,,,,,,,,,,,
1649886625.605404,70.000000,0.000000,4348.717773,4264.102539,4145.128418,4218.974121,4297.436035,16302.000000,4.000000,86.000000,,,,0.000000,4.000000,4.000000,4.000000,1.000000,4.000000,75.000000,,,,,,,,,,,,,,,,,,,,,,,,,,,,,,,,,,,,,,,,,,,,,,,,,,,,,,,,,,,,,,,
1649886625.613318,71.000000,0.000000,4331.282227,4257.436035,4147.179688,4220.000000,4284.102539,450.000000,4.000000,86.000000,,,,0.000000,4.000000,4.000000,4.000000,1.000000,4.000000,75.000000,,,,,,,,,,,,,,,,,,,,,,,,,,,,,,,,,,,,,,,,,,,,,,,,,,,,,,,,,,,,,,,
1649886625.621133,72.000000,0.000000,4313.846191,4261.025879,4146.153809,4221.538574,4277.436035,450.000000,4.000000,86.000000,,,,0.000000,4.000000,4.000000,4.000000,1.000000,4.000000,75.000000,,,,,,,,,,,,,,,,,,,,,,,,,,,,,,,,,,,,,,,,,,,,,,,,,,,,,,,,,,,,,,,
1649886625.629047,73.000000,0.000000,4294.871582,4258.461426,4147.692383,4217.436035,4257.948730,27.000000,4.000000,86.000000,,,,0.000000,4.000000,4.000000,4.000000,0.000000,4.000000,66.666664,,,,,,,,,,,,,,,,,,,,,,,,,,,,,,,,,,,,,,,,,,,,,,,,,,,,,,,,,,,,,,,
1649886625.636861,74.000000,0.000000,4291.794922,4261.025879,4167.179688,4216.410156,4256.410156,450.000000,4.000000,86.000000,,,,0.000000,4.000000,4.000000,4.000000,0.000000,4.000000,66.666664,,,,,,,,,,,,,,,,,,,,,,,,,,,,,,,,,,,,,,,,,,,,,,,,,,,,,,,,,,,,,,,
1649886625.644776,75.000000,0.000000,4298.461426,4270.769043,4192.307617,4223.077148,4270.256348,16167.000000,4.000000,86.000000,,,,0.000000,4.000000,4.000000,4.000000,0.000000,4.000000,66.666664,,,,,,,,,,,,,,,,,,,,,,,,,,,,,,,,,,,,,,,,,,,,,,,,,,,,,,,,,,,,,,,
1649886625.652590,76.000000,0.000000,4290.256348,4270.256348,4201.025879,4225.128418,4266.153809,450.000000,4.000000,86.000000,,,,0.000000,4.000000,4.000000,4.000000,0.000000,4.000000,66.666664,,,,,,,,,,,,,,,,,,,,,,,,,,,,,,,,,,,,,,,6.018541,4.022853,1.714644,1.998606,0.911753,1.731866,0.973434,0.428656,0.761958,0.302194,5.307596,1.585212,1.814884,1.118154,0.344837,0.322562,0.193472,0.113772,0.121661,0.055290,5.816682,6.411948,4.437019,1.621005,1.050547
1649886625.660305,77.000000,0.000000,4286.153809,4269.230957,4198.974121,4223.077148,4261.025879,450.000000,4.000000,86.000000,,,,0.000000,4.000000,4.000000,4.000000,0.000000,4.000000,66.666664,,,,,,,,,,,,,,,,,,,,,,,,,,,,,,,,,,,,,,,,,,,,,,,,,,,,,,,,,,,,,,,
1649886625.668119,78.000000,0.000000,4292.307617,4274.358887,4193.846191,4225.641113,4266.666504,450.000000,4.000000,86.000000,,,,0.000000,4.000000,4.000000,4.000000,0.000000,4.000000,66.666664,,,,,,,,,,,,,,,,,,,,,,,,,,,,,,,,,,,,,,,,,,,,,,,,,,,,,,,,,,,,,,,
1649886625.675834,79.000000,0.000000,4275.897461,4270.256348,4176.410156,4224.615234,4252.820313,16167.000000,4.000000,86.000000,,,,0.000000,4.000000,4.000000,4.000000,0.000000,4.000000,66.666664,,,,,,,,,,,,,,,,,,,,,,,,,,,,,,,,,,,,,,,,,,,,,,,,,,,,,,,,,,,,,,,
1649886625.683648,80.000000,0.000000,4263.589844,4258.974121,4164.102539,4220.000000,4237.948730,450.000000,4.000000,86.000000,,,,0.000000,4.000000,4.000000,4.000000,0.000000,4.000000,66.666664,,,,,,,,,,,,,,,,,,,,,,,,,,,,,,,,,,,,,,,,,,,,,,,,,,,,,,,,,,,,,,,
1649886625.691362,81.000000,0.000000,4271.794922,4250.256348,4165.641113,4217.948730,4240.512695,450.000000,4.000000,86.000000,,,,0.000000,4.000000,4.000000,4.000000,0.000000,4.000000,66.666664,,,,,,,,,,,,,,,,,,,,,,,,,,,,,,,,,,,,,,,,,,,,,,,,,,,,,,,,,,,,,,,
1649886625.699177,82.000000,0.000000,4259.487305,4244.102539,4159.487305,4215.897461,4228.205078,450.000000,4.000000,86.000000,,,,0.000000,4.000000,4.000000,4.000000,0.000000,4.000000,66.666664,,,,,,,,,,,,,,,,,,,,,,,,,,,,,,,,,,,,,,,,,,,,,,,,,,,,,,,,,,,,,,,
1649886625.706891,83.000000,0.000000,4233.333496,4248.717773,4147.179688,4212.307617,4209.230957,16167.000000,4.000000,86.000000,,,,0.000000,4.000000,4.000000,4.000000,0.000000,4.000000,66.666664,,,,,,,,,,,,,,,,,,,,,,,,,,,,,,,,,,,,,,,,,,,,,,,,,,,,,,,,,,,,,,,
1649886625.714806,84.000000,0.000000,4224.102539,4255.897461,4142.563965,4211.282227,4208.205078,450.000000,4.000000,86.000000,,,,0.000000,4.000000,4.000000,4.000000,0.000000,4.000000,66.666664,,,,,,,,,,,,,,,,,,,,,,,,,,,,,,,,,,,,,,,,,,,,,,,,,,,,,,,,,,,,,,,
1649886625.722620,85.000000,0.000000,4216.410156,4246.153809,4138.974121,4207.692383,4203.589844,450.000000,4.000000,86.000000,,,,0.000000,4.000000,4.000000,4.000000,0.000000,4.000000,66.666664,,,,,,,,,,,,,,,,,,,,,,,,,,,,,,,,,,,,,,,,,,,,,,,,,,,,,,,,,,,,,,,
1649886625.730534,86.000000,0.000000,4204.102539,4233.846191,4136.410156,4206.666504,4185.641113,450.000000,4.000000,86.000000,,,,0.000000,4.000000,4.000000,4.000000,0.000000,4.000000,66.666664,,,,,,,,,,,,,,,,,,,,,,,,,,,,,,,,,,,,,,,,,,,,,,,,,,,,,,,,,,,,,,,
1649886625.738349,87.000000,0.000000,4200.000000,4237.436035,4147.692383,4210.769043,4178.461426,16167.000000,4.000000,86.000000,,,,0.000000,4.000000,4.000000,4.000000,0.000000,4.000000,66.666664,,,,,,,,,,,,,,,,,,,,,,,,,,,,,,,,,,,,,,,,,,,,,,,,,,,,,,,,,,,,,,,
1649886625.746263,88.000000,0.000000,4207.179688,4251.282227,4169.230957,4214.871582,4190.769043,450.000000,4.000000,86.000000,,,,0.000000,4.000000,4.000000,4.000000,0.000000,4.000000,66.666664,,,,,,,,,,,,,,,,,,,,,,,,,,,,,,,,,,,,,,,,,,,,,,,,,,,,,,,,,,,,,,,
1649886625.754077,89.000000,0.000000,4223.077148,4261.538574,4183.077148,4218.461426,4210.769043,450.000000,4.000000,86.000000,,,,0.000000,4.000000,4.000000,4.000000,0.000000,4.000000,66.666664,,,,,,,,,,,,,,,,,,,,,,,,,,,,,,,,,,,,,,,,,,,,,,,,,,,,,,,,,,,,,,,
1649886625.761992,90.000000,0.000000,4242.563965,4267.179688,4187.692383,4221.538574,4226.153809,450.000000,4.000000,86.000000,,,,0.000000,4.000000,4.000000,4.000000,0.000000,4.000000,66.666664,,,,,,,,,,,,,,,,,,,,,,,,,,,,,,,,,,,,,,,,,,,,,,,,,,,,,,,,,,,,,,,
1649886625.769806,91.000000,0.000000,4264.615234,4280.000000,4196.410156,4224.615234,4240.000000,16167.000000,4.000000,86.000000,,,,0.000000,4.000000,4.000000,4.000000,0.000000,4.000000,66.666664,,,,,,,,,,,,,,,,,,,,,,,,,,,,,,,,,,,,,,,,,,,,,,,,,,,,,,,,,,,,,,,
1649886625.777721,92.000000,0.000000,4277.436035,4287.692383,4201.538574,4225.641113,4252.307617,450.000000,4.000000,86.000000,,,,0.000000,4.000000,4.000000,4.000000,0.000000,4.000000,66.666664,1.000000,66.666664,4.000000,4.000000,4.000000,0.000000,4.000000,,,,,,,,,,,,,,,,,,,,,,,,,,,,,,,,5.642419,4.137882,1.766572,2.010017,0.965941,1.667072,1.036838,0.589402,0.753717,0.354579,5.234882,1.680939,1.738121,1.096467,0.365928,0.268728,0.170246,0.109228,0.144885,0.064718,5.010841,6.601090,4.231142,1.743992,1.091562
1649886625.785535,93.000000,0.000000,4267.179688,4281.025879,4194.871582,4223.589844,4250.256348,450.000000,4.000000,86.000000,,,,0.000000,4.000000,4.000000,4.000000,0.000000,4.000000,66.666664,,,,,,,,,,,,,,,,,,,,,,,,,,,,,,,,,,,,,,,,,,,,,,,,,,,,,,,,,,,,,,,
1649886625.793449,94.000000,0.000000,4252.307617,4281.538574,4194.358887,4223.077148,4240.512695,450.000000,4.000000,86.000000,,,,0.000000,4.000000,4.000000,4.000000,0.000000,4.000000,66.666664,,,,,,,,,,,,,,,,,,,,,,,,,,,,,,,,,,,,,,,,,,,,,,,,,,,,,,,,,,,,,,,
1649886625.801264,95.000000,0.000000,4255.897461,4290.769043,4209.743652,4224.615234,4243.077148,16167.000000,4.000000,86.000000,,,,0.000000,4.000000,4.000000,4.000000,0.000000,4.000000,66.666664,,,,,,,,,,,,,,,,,,,,,,,,,,,,,,,,,,,,,,,,,,,,,,,,,,,,,,,,,,,,,,,
1649886625.809178,96.000000,0.000000,4265.641113,4293.333496,4215.897461,4223.589844,4245.128418,450.000000,4.000000,86.000000,,,,0.000000,4.000000,4.000000,4.000000,0.000000,4.000000,66.666664,,,,,,,,,,,,,,,,,,,,,,,,,,,,,,,,,,,,,,,,,,,,,,,,,,,,,,,,,,,,,,,
1649886625.816992,97.000000,0.000000,4265.128418,4294.358887,4205.641113,4223.589844,4236.410156,450.000000,4.000000,86.000000,,,,0.000000,4.000000,4.000000,4.000000,0.000000,4.000000,66.666664,,,,,,,,,,,,,,,,,,,,,,,,,,,,,,,,,,,,,,,,,,,,,,,,,,,,,,,,,,,,,,,
1649886625.824907,98.000000,0.000000,4251.794922,4296.410156,4192.820313,4221.538574,4220.000000,450.000000,4.000000,86.000000,,,,0.000000,4.000000,4.000000,4.000000,0.000000,4.000000,66.666664,,,,,,,,,,,,,,,,,,,,,,,,,,,,,,,,,,,,,,,,,,,,,,,,,,,,,,,,,,,,,,,
1649886625.832721,99.000000,0.000000,4236.410156,4288.717773,4185.641113,4214.871582,4206.153809,16167.000000,4.000000,86.000000,,,,0.000000,4.000000,4.000000,4.000000,0.000000,4.000000,66.666664,,,,,,,,,,,,,,,,,,,,,,,,,,,,,,,,,,,,,,,,,,,,,,,,,,,,,,,,,,,,,,,
1649886625.840436,100.000000,0.000000,4222.563965,4276.410156,4184.102539,4215.384766,4196.410156,450.000000,4.000000,86.000000,,,,0.000000,4.000000,4.000000,4.000000,0.000000,4.000000,66.666664,,,,,,,,,,,,,,,,,,,,,,,,,,,,,,,,,,,,,,,,,,,,,,,,,,,,,,,,,,,,,,,
1649886625.848250,101.000000,0.000000,4207.179688,4268.205078,4183.589844,4218.461426,4194.358887,450.000000,4.000000,86.000000,,,,0.000000,4.000000,4.000000,4.000000,0.000000,4.000000,66.666664,,,,,,,,,,,,,,,,,,,,,,,,,,,,,,,,,,,,,,,,,,,,,,,,,,,,,,,,,,,,,,,
1649886625.855964,102.000000,0.000000,4210.256348,4263.077148,4185.128418,4215.897461,4202.051270,450.000000,4.000000,86.000000,,,,0.000000,4.000000,4.000000,4.000000,0.000000,4.000000,66.666664,,,,,,,,,,,,,,,,,,,,,,,,,,,,,,,,,,,,,,,,,,,,,,,,,,,,,,,,,,,,,,,
1649886625.863779,103.000000,0.000000,4232.820313,4267.179688,4193.333496,4217.948730,4216.410156,16167.000000,4.000000,86.000000,,,,0.000000,4.000000,4.000000,4.000000,0.000000,4.000000,66.666664,,,,,,,,,,,,,,,,,,,,,,,,,,,,,,,,,,,,,,,,,,,,,,,,,,,,,,,,,,,,,,,
1649886625.871493,104.000000,0.000000,4248.205078,4273.333496,4193.846191,4225.128418,4225.641113,450.000000,4.000000,86.000000,,,,0.000000,4.000000,4.000000,4.000000,0.000000,4.000000,66.666664,,,,,,,,,,,,,,,,,,,,,,,,,,,,,,,,,,,,,,,,,,,,,,,,,,,,,,,,,,,,,,,
1649886625.879408,105.000000,0.000000,4246.666504,4272.307617,4186.153809,4224.102539,4226.153809,450.000000,4.000000,86.000000,,,,0.000000,4.000000,4.000000,4.000000,0.000000,4.000000,66.666664,,,,,,,,,,,,,,,,,,,,,,,,,,,,,,,,,,,,,,,,,,,,,,,,,,,,,,,,,,,,,,,
1649886625.887222,106.000000,0.000000,4252.307617,4280.512695,4197.948730,4223.077148,4233.333496,450.000000,4.000000,86.000000,,,,0.000000,4.000000,4.000000,4.000000,0.000000,4.000000,66.666664,,,,,,,,,,,,,,,,,,,,,,,,,,,,,,,,,,,,,,,,,,,,,,,,,,,,,,,,,,,,,,,
