title:david_g_Right, start timestamp:1656263502.427170, stop timestamp:1656263507.449637, headset type:INSIGHT, headset serial:A2D201AE, headset firmware:932, channels:84, sampling rate:eeg_128;pm_0.1;pow_8, samples:644       , version:2.1, 
Timestamp,EEG.Counter,EEG.Interpolated,EEG.AF3,EEG.T7,EEG.Pz,EEG.T8,EEG.AF4,EEG.RawCq,EEG.Battery,EEG.BatteryPercent,MarkerIndex,MarkerType,MarkerValueInt,EEG.MarkerHardware,CQ.AF3,CQ.T7,CQ.Pz,CQ.T8,CQ.AF4,CQ.Overall,EQ.SampleRateQuality,EQ.OVERALL,EQ.AF3,EQ.T7,EQ.Pz,EQ.T8,EQ.AF4,PM.Engagement.IsActive,PM.Engagement.Scaled,PM.Engagement.Raw,PM.Engagement.Min,PM.Engagement.Max,PM.Excitement.IsActive,PM.Excitement.Scaled,PM.Excitement.Raw,PM.Excitement.Min,PM.Excitement.Max,PM.LongTermExcitement,PM.Stress.IsActive,PM.Stress.Scaled,PM.Stress.Raw,PM.Stress.Min,PM.Stress.Max,PM.Relaxation.IsActive,PM.Relaxation.Scaled,PM.Relaxation.Raw,PM.Relaxation.Min,PM.Relaxation.Max,PM.Interest.IsActive,PM.Interest.Scaled,PM.Interest.Raw,PM.Interest.Min,PM.Interest.Max,PM.Focus.IsActive,PM.Focus.Scaled,PM.Focus.Raw,PM.Focus.Min,PM.Focus.Max,POW.AF3.Theta,POW.AF3.Alpha,POW.AF3.BetaL,POW.AF3.BetaH,POW.AF3.Gamma,POW.T7.Theta,POW.T7.Alpha,POW.T7.BetaL,POW.T7.BetaH,POW.T7.Gamma,POW.Pz.Theta,POW.Pz.Alpha,POW.Pz.BetaL,POW.Pz.BetaH,POW.Pz.Gamma,POW.T8.Theta,POW.T8.Alpha,POW.T8.BetaL,POW.T8.BetaH,POW.T8.Gamma,POW.AF4.Theta,POW.AF4.Alpha,POW.AF4.BetaL,POW.AF4.BetaH,POW.AF4.Gamma
1656263502.427170,49.000000,0.000000,4265.128418,4229.743652,4105.128418,4102.051270,4214.871582,0.000000,4.000000,95.000000,,,,0.000000,4.000000,4.000000,4.000000,4.000000,4.000000,100.000000,,,,,,,,,,,,,,,,,,,,,,,,,,,,,,,,,,,,,,,,,,,,,,,,,,,,,,,,,,,,,,,
1656263502.435085,50.000000,0.000000,4267.692383,4241.538574,4083.589844,4109.230957,4224.615234,0.000000,4.000000,95.000000,,,,0.000000,4.000000,4.000000,4.000000,4.000000,4.000000,100.000000,,,,,,,,,,,,,,,,,,,,,,,,,,,,,,,,,,,,,,,,,,,,,,,,,,,,,,,,,,,,,,,
1656263502.442999,51.000000,0.000000,4261.025879,4236.410156,4070.769287,4101.538574,4227.179688,0.000000,4.000000,95.000000,,,,0.000000,4.000000,4.000000,4.000000,4.000000,4.000000,100.000000,,,,,,,,,,,,,,,,,,,,,,,,,,,,,,,,,,,,,,,,,,,,,,,,,,,,,,,,,,,,,,,
1656263502.450813,52.000000,0.000000,4271.794922,4230.256348,4083.589844,4101.025879,4232.820313,0.000000,4.000000,95.000000,,,,0.000000,4.000000,4.000000,4.000000,4.000000,4.000000,100.000000,,,,,,,,,,,,,,,,,,,,,,,,,,,,,,,,,,,,,,,,,,,,,,,,,,,,,,,,,,,,,,,
1656263502.458628,53.000000,0.000000,4282.051270,4237.948730,4096.410156,4108.717773,4233.846191,0.000000,4.000000,95.000000,,,,0.000000,4.000000,4.000000,4.000000,4.000000,4.000000,100.000000,,,,,,,,,,,,,,,,,,,,,,,,,,,,,,,,,,,,,,,,,,,,,,,,,,,,,,,,,,,,,,,
1656263502.466442,54.000000,0.000000,4281.025879,4234.358887,4121.538574,4103.077148,4230.256348,0.000000,4.000000,95.000000,,,,0.000000,4.000000,4.000000,4.000000,4.000000,4.000000,100.000000,,,,,,,,,,,,,,,,,,,,,,,,,,,,,,,,,,,,,,,,,,,,,,,,,,,,,,,,,,,,,,,
1656263502.474356,55.000000,0.000000,4288.717773,4230.256348,4165.128418,4094.358887,4235.384766,0.000000,4.000000,95.000000,,,,0.000000,4.000000,4.000000,4.000000,4.000000,4.000000,100.000000,,,,,,,,,,,,,,,,,,,,,,,,,,,,,,,,,,,,,,,,,,,,,,,,,,,,,,,,,,,,,,,
1656263502.482171,56.000000,0.000000,4277.436035,4241.538574,4183.077148,4093.846191,4230.256348,0.000000,4.000000,95.000000,,,,0.000000,4.000000,4.000000,4.000000,4.000000,4.000000,100.000000,,,,,,,,,,,,,,,,,,,,,,,,,,,,,,,,,,,,,,,5.953683,1.463360,0.979283,1.363005,0.659879,1.278846,0.625906,0.541913,0.333551,0.448842,19.262760,7.674489,2.825674,1.932937,1.205132,3.473605,0.898133,0.742649,1.153039,0.479588,5.370859,1.518055,0.592186,1.465337,0.598140
1656263502.490085,57.000000,0.000000,4262.051270,4250.256348,4170.256348,4100.512695,4218.461426,0.000000,4.000000,95.000000,,,,0.000000,4.000000,4.000000,4.000000,4.000000,4.000000,100.000000,,,,,,,,,,,,,,,,,,,,,,,,,,,,,,,,,,,,,,,,,,,,,,,,,,,,,,,,,,,,,,,
1656263502.497900,58.000000,0.000000,4277.948730,4243.077148,4156.410156,4100.512695,4214.871582,0.000000,4.000000,95.000000,,,,0.000000,4.000000,4.000000,4.000000,4.000000,4.000000,100.000000,,,,,,,,,,,,,,,,,,,,,,,,,,,,,,,,,,,,,,,,,,,,,,,,,,,,,,,,,,,,,,,
1656263502.505814,59.000000,0.000000,4278.974121,4232.307617,4140.000000,4090.256348,4207.179688,0.000000,4.000000,95.000000,,,,0.000000,4.000000,4.000000,4.000000,4.000000,4.000000,100.000000,,,,,,,,,,,,,,,,,,,,,,,,,,,,,,,,,,,,,,,,,,,,,,,,,,,,,,,,,,,,,,,
1656263502.513628,60.000000,0.000000,4257.948730,4235.384766,4114.358887,4095.897461,4208.717773,0.000000,4.000000,95.000000,,,,0.000000,4.000000,4.000000,4.000000,4.000000,4.000000,100.000000,,,,,,,,,,,,,,,,,,,,,,,,,,,,,,,,,,,,,,,,,,,,,,,,,,,,,,,,,,,,,,,
1656263502.521543,61.000000,0.000000,4259.487305,4241.538574,4103.589844,4109.743652,4228.205078,0.000000,4.000000,95.000000,,,,0.000000,4.000000,4.000000,4.000000,4.000000,4.000000,100.000000,,,,,,,,,,,,,,,,,,,,,,,,,,,,,,,,,,,,,,,,,,,,,,,,,,,,,,,,,,,,,,,
1656263502.529357,62.000000,0.000000,4273.333496,4237.436035,4120.000000,4108.205078,4240.512695,0.000000,4.000000,95.000000,,,,0.000000,4.000000,4.000000,4.000000,4.000000,4.000000,100.000000,,,,,,,,,,,,,,,,,,,,,,,,,,,,,,,,,,,,,,,,,,,,,,,,,,,,,,,,,,,,,,,
1656263502.537271,63.000000,0.000000,4281.538574,4228.205078,4147.179688,4102.563965,4241.538574,0.000000,4.000000,95.000000,,,,0.000000,4.000000,4.000000,4.000000,4.000000,4.000000,100.000000,,,,,,,,,,,,,,,,,,,,,,,,,,,,,,,,,,,,,,,,,,,,,,,,,,,,,,,,,,,,,,,
1656263502.545086,64.000000,0.000000,4280.512695,4227.692383,4153.846191,4100.512695,4239.487305,450.000000,4.000000,95.000000,,,,0.000000,4.000000,4.000000,4.000000,4.000000,4.000000,100.000000,,,,,,,,,,,,,,,,,,,,,,,,,,,,,,,,,,,,,,,,,,,,,,,,,,,,,,,,,,,,,,,
1656263502.553000,65.000000,0.000000,4256.410156,4228.205078,4136.410156,4089.230713,4216.410156,450.000000,4.000000,95.000000,,,,0.000000,4.000000,4.000000,4.000000,4.000000,4.000000,100.000000,,,,,,,,,,,,,,,,,,,,,,,,,,,,,,,,,,,,,,,,,,,,,,,,,,,,,,,,,,,,,,,
1656263502.560814,66.000000,0.000000,4232.820313,4228.717773,4142.051270,4081.025635,4191.794922,16163.000000,4.000000,95.000000,,,,0.000000,4.000000,4.000000,4.000000,4.000000,4.000000,100.000000,,,,,,,,,,,,,,,,,,,,,,,,,,,,,,,,,,,,,,,,,,,,,,,,,,,,,,,,,,,,,,,
1656263502.568729,67.000000,0.000000,4242.563965,4238.461426,4173.846191,4090.769287,4202.051270,450.000000,4.000000,95.000000,,,,0.000000,4.000000,4.000000,4.000000,4.000000,4.000000,100.000000,,,,,,,,,,,,,,,,,,,,,,,,,,,,,,,,,,,,,,,,,,,,,,,,,,,,,,,,,,,,,,,
1656263502.576543,68.000000,0.000000,4269.743652,4242.563965,4176.922852,4096.922852,4228.717773,16113.000000,4.000000,95.000000,,,,0.000000,4.000000,4.000000,4.000000,4.000000,4.000000,100.000000,,,,,,,,,,,,,,,,,,,,,,,,,,,,,,,,,,,,,,,,,,,,,,,,,,,,,,,,,,,,,,,
1656263502.584457,69.000000,0.000000,4275.384766,4235.384766,4149.230957,4085.128174,4228.717773,450.000000,4.000000,95.000000,,,,0.000000,4.000000,4.000000,4.000000,4.000000,4.000000,100.000000,,,,,,,,,,,,,,,,,,,,,,,,,,,,,,,,,,,,,,,,,,,,,,,,,,,,,,,,,,,,,,,
1656263502.592272,70.000000,0.000000,4265.641113,4238.974121,4140.000000,4085.128174,4210.769043,16132.000000,4.000000,95.000000,,,,0.000000,4.000000,4.000000,4.000000,4.000000,4.000000,100.000000,,,,,,,,,,,,,,,,,,,,,,,,,,,,,,,,,,,,,,,,,,,,,,,,,,,,,,,,,,,,,,,
1656263502.600186,71.000000,0.000000,4263.077148,4251.794922,4151.282227,4098.461426,4214.871582,450.000000,4.000000,95.000000,,,,0.000000,4.000000,4.000000,4.000000,4.000000,4.000000,100.000000,,,,,,,,,,,,,,,,,,,,,,,,,,,,,,,,,,,,,,,,,,,,,,,,,,,,,,,,,,,,,,,
1656263502.608001,72.000000,0.000000,4260.000000,4245.128418,4152.820313,4096.410156,4224.102539,450.000000,4.000000,95.000000,,,,0.000000,4.000000,4.000000,4.000000,4.000000,4.000000,100.000000,,,,,,,,,,,,,,,,,,,,,,,,,,,,,,,,,,,,,,,5.404919,1.874277,0.970114,1.419795,0.620516,1.280225,0.546042,0.458286,0.398766,0.458207,17.615248,9.847670,2.356407,1.981297,1.224784,3.850849,1.144481,0.776189,1.132026,0.482981,5.058742,1.775928,0.581381,1.438716,0.637075
1656263502.615915,73.000000,0.000000,4250.769043,4229.230957,4135.384766,4092.307617,4213.333496,16119.000000,4.000000,95.000000,,,,0.000000,4.000000,4.000000,4.000000,4.000000,4.000000,100.000000,,,,,,,,,,,,,,,,,,,,,,,,,,,,,,,,,,,,,,,,,,,,,,,,,,,,,,,,,,,,,,,
1656263502.623729,74.000000,0.000000,4253.333496,4237.436035,4117.948730,4095.897461,4204.615234,450.000000,4.000000,95.000000,,,,0.000000,4.000000,4.000000,4.000000,4.000000,4.000000,100.000000,,,,,,,,,,,,,,,,,,,,,,,,,,,,,,,,,,,,,,,,,,,,,,,,,,,,,,,,,,,,,,,
1656263502.631644,75.000000,1.000000,4255.954590,4237.549805,4126.552734,4096.125488,4208.661133,16221.000000,4.000000,95.000000,,,,0.000000,4.000000,4.000000,4.000000,4.000000,4.000000,100.000000,,,,,,,,,,,,,,,,,,,,,,,,,,,,,,,,,,,,,,,,,,,,,,,,,,,,,,,,,,,,,,,
1656263502.639458,76.000000,1.000000,4258.575684,4237.663574,4135.156738,4096.353516,4212.706543,450.000000,4.000000,95.000000,,,,0.000000,4.000000,4.000000,4.000000,4.000000,4.000000,100.000000,,,,,,,,,,,,,,,,,,,,,,,,,,,,,,,,,,,,,,,,,,,,,,,,,,,,,,,,,,,,,,,
1656263502.647272,77.000000,1.000000,4261.196777,4237.777832,4143.760742,4096.581055,4216.751953,450.000000,4.000000,95.000000,,,,0.000000,4.000000,4.000000,4.000000,4.000000,4.000000,100.000000,,,,,,,,,,,,,,,,,,,,,,,,,,,,,,,,,,,,,,,,,,,,,,,,,,,,,,,,,,,,,,,
1656263502.655087,78.000000,1.000000,4263.817871,4237.891602,4152.364746,4096.809082,4220.797852,450.000000,4.000000,95.000000,,,,0.000000,4.000000,4.000000,4.000000,4.000000,4.000000,100.000000,,,,,,,,,,,,,,,,,,,,,,,,,,,,,,,,,,,,,,,,,,,,,,,,,,,,,,,,,,,,,,,
1656263502.662901,79.000000,1.000000,4266.438965,4238.005859,4160.968750,4097.037109,4224.843262,16221.000000,4.000000,95.000000,,,,0.000000,4.000000,4.000000,4.000000,4.000000,4.000000,100.000000,,,,,,,,,,,,,,,,,,,,,,,,,,,,,,,,,,,,,,,,,,,,,,,,,,,,,,,,,,,,,,,
1656263502.670716,80.000000,1.000000,4269.060059,4238.119629,4169.572754,4097.265137,4228.888672,10984.666992,4.000000,95.000000,,,,0.000000,4.000000,4.000000,4.000000,4.000000,4.000000,100.000000,,,,,,,,,,,,,,,,,,,,,,,,,,,,,,,,,,,,,,,,,,,,,,,,,,,,,,,,,,,,,,,
1656263502.678530,81.000000,1.000000,4271.681152,4238.233398,4178.176758,4097.492676,4232.934570,12740.444336,4.000000,95.000000,,,,0.000000,4.000000,4.000000,4.000000,4.000000,4.000000,100.000000,,,,,,,,,,,,,,,,,,,,,,,,,,,,,,,,,,,,,,,,,,,,,,,,,,,,,,,,,,,,,,,
1656263502.686344,82.000000,1.000000,4274.301758,4238.347656,4186.780762,4097.720703,4236.979980,14496.222656,4.000000,95.000000,,,,0.000000,4.000000,4.000000,4.000000,4.000000,4.000000,100.000000,,,,,,,,,,,,,,,,,,,,,,,,,,,,,,,,,,,,,,,,,,,,,,,,,,,,,,,,,,,,,,,
1656263502.694159,83.000000,0.000000,4276.922852,4238.461426,4195.384766,4097.948730,4241.025879,16252.000000,4.000000,95.000000,,,,0.000000,4.000000,4.000000,4.000000,4.000000,4.000000,100.000000,,,,,,,,,,,,,,,,,,,,,,,,,,,,,,,,,,,,,,,,,,,,,,,,,,,,,,,,,,,,,,,
1656263502.701873,84.000000,0.000000,4300.000000,4237.436035,4197.436035,4127.692383,4245.128418,450.000000,4.000000,95.000000,,,,0.000000,4.000000,4.000000,4.000000,4.000000,4.000000,100.000000,,,,,,,,,,,,,,,,,,,,,,,,,,,,,,,,,,,,,,,,,,,,,,,,,,,,,,,,,,,,,,,
1656263502.709688,85.000000,0.000000,4274.871582,4249.743652,4179.487305,4121.538574,4243.077148,450.000000,4.000000,95.000000,,,,0.000000,4.000000,4.000000,4.000000,4.000000,4.000000,100.000000,,,,,,,,,,,,,,,,,,,,,,,,,,,,,,,,,,,,,,,,,,,,,,,,,,,,,,,,,,,,,,,
1656263502.717402,86.000000,0.000000,4261.025879,4254.358887,4160.000000,4106.666504,4246.666504,450.000000,4.000000,95.000000,,,,0.000000,4.000000,4.000000,4.000000,4.000000,4.000000,100.000000,,,,,,,,,,,,,,,,,,,,,,,,,,,,,,,,,,,,,,,,,,,,,,,,,,,,,,,,,,,,,,,
1656263502.725217,87.000000,0.000000,4274.358887,4257.436035,4141.538574,4113.846191,4254.871582,16252.000000,4.000000,95.000000,,,,0.000000,4.000000,4.000000,4.000000,4.000000,4.000000,100.000000,,,,,,,,,,,,,,,,,,,,,,,,,,,,,,,,,,,,,,,,,,,,,,,,,,,,,,,,,,,,,,,
1656263502.732931,88.000000,0.000000,4288.717773,4267.692383,4133.846191,4117.436035,4260.000000,450.000000,4.000000,95.000000,,,,0.000000,4.000000,4.000000,4.000000,4.000000,4.000000,100.000000,,,,,,,,,,,,,,,,,,,,,,,,,,,,,,,,,,,,,,,4.424991,2.255085,0.935380,1.526052,0.564104,1.287711,0.541670,0.404695,0.484402,0.481820,16.380821,12.654111,1.969007,2.252796,1.213274,3.923090,1.503035,0.859913,1.101647,0.503812,4.509751,2.100331,0.608577,1.386753,0.672840
1656263502.740746,89.000000,0.000000,4283.077148,4262.051270,4116.922852,4109.230957,4252.820313,450.000000,4.000000,95.000000,,,,0.000000,4.000000,4.000000,4.000000,4.000000,4.000000,100.000000,,,,,,,,,,,,,,,,,,,,,,,,,,,,,,,,,,,,,,,,,,,,,,,,,,,,,,,,,,,,,,,
1656263502.748460,90.000000,0.000000,4265.128418,4250.256348,4095.384521,4109.230957,4240.000000,450.000000,4.000000,95.000000,,,,0.000000,4.000000,4.000000,4.000000,4.000000,4.000000,100.000000,,,,,,,,,,,,,,,,,,,,,,,,,,,,,,,,,,,,,,,,,,,,,,,,,,,,,,,,,,,,,,,
1656263502.756275,91.000000,0.000000,4268.717773,4262.051270,4106.666504,4115.897461,4241.538574,16252.000000,4.000000,95.000000,,,,0.000000,4.000000,4.000000,4.000000,4.000000,4.000000,100.000000,,,,,,,,,,,,,,,,,,,,,,,,,,,,,,,,,,,,,,,,,,,,,,,,,,,,,,,,,,,,,,,
1656263502.763989,92.000000,0.000000,4266.153809,4271.282227,4128.205078,4114.871582,4241.538574,450.000000,4.000000,95.000000,,,,0.000000,4.000000,4.000000,4.000000,4.000000,4.000000,100.000000,,,,,,,,,,,,,,,,,,,,,,,,,,,,,,,,,,,,,,,,,,,,,,,,,,,,,,,,,,,,,,,
1656263502.771803,93.000000,0.000000,4247.692383,4256.410156,4135.897461,4109.230957,4223.077148,450.000000,4.000000,95.000000,,,,0.000000,4.000000,4.000000,4.000000,4.000000,4.000000,100.000000,,,,,,,,,,,,,,,,,,,,,,,,,,,,,,,,,,,,,,,,,,,,,,,,,,,,,,,,,,,,,,,
1656263502.779518,94.000000,0.000000,4253.333496,4240.000000,4157.948730,4102.563965,4211.282227,450.000000,4.000000,95.000000,,,,0.000000,4.000000,4.000000,4.000000,4.000000,4.000000,100.000000,,,,,,,,,,,,,,,,,,,,,,,,,,,,,,,,,,,,,,,,,,,,,,,,,,,,,,,,,,,,,,,
1656263502.787332,95.000000,0.000000,4277.948730,4241.025879,4190.256348,4109.230957,4226.666504,16252.000000,4.000000,95.000000,,,,0.000000,4.000000,4.000000,4.000000,4.000000,4.000000,100.000000,,,,,,,,,,,,,,,,,,,,,,,,,,,,,,,,,,,,,,,,,,,,,,,,,,,,,,,,,,,,,,,
1656263502.795047,96.000000,0.000000,4284.615234,4249.743652,4204.102539,4128.717773,4245.641113,450.000000,4.000000,95.000000,,,,0.000000,4.000000,4.000000,4.000000,4.000000,4.000000,100.000000,,,,,,,,,,,,,,,,,,,,,,,,,,,,,,,,,,,,,,,,,,,,,,,,,,,,,,,,,,,,,,,
1656263502.802861,97.000000,0.000000,4271.794922,4257.436035,4204.102539,4127.692383,4244.102539,450.000000,4.000000,95.000000,,,,0.000000,4.000000,4.000000,4.000000,4.000000,4.000000,100.000000,,,,,,,,,,,,,,,,,,,,,,,,,,,,,,,,,,,,,,,,,,,,,,,,,,,,,,,,,,,,,,,
1656263502.810576,98.000000,0.000000,4271.794922,4263.589844,4202.563965,4117.948730,4237.436035,450.000000,4.000000,95.000000,,,,0.000000,4.000000,4.000000,4.000000,4.000000,4.000000,100.000000,,,,,,,,,,,,,,,,,,,,,,,,,,,,,,,,,,,,,,,,,,,,,,,,,,,,,,,,,,,,,,,
1656263502.818390,99.000000,0.000000,4278.974121,4254.358887,4190.769043,4135.897461,4242.051270,16252.000000,4.000000,95.000000,,,,0.000000,4.000000,4.000000,4.000000,4.000000,4.000000,100.000000,,,,,,,,,,,,,,,,,,,,,,,,,,,,,,,,,,,,,,,,,,,,,,,,,,,,,,,,,,,,,,,
1656263502.826105,100.000000,0.000000,4276.410156,4238.974121,4171.794922,4138.461426,4250.256348,450.000000,4.000000,95.000000,,,,0.000000,4.000000,4.000000,4.000000,4.000000,4.000000,100.000000,,,,,,,,,,,,,,,,,,,,,,,,,,,,,,,,,,,,,,,,,,,,,,,,,,,,,,,,,,,,,,,
1656263502.833919,101.000000,0.000000,4278.461426,4240.000000,4161.538574,4109.230957,4255.384766,450.000000,4.000000,95.000000,,,,0.000000,4.000000,4.000000,4.000000,4.000000,4.000000,100.000000,,,,,,,,,,,,,,,,,,,,,,,,,,,,,,,,,,,,,,,,,,,,,,,,,,,,,,,,,,,,,,,
1656263502.841634,102.000000,0.000000,4280.000000,4249.230957,4155.384766,4100.000000,4254.358887,450.000000,4.000000,95.000000,,,,0.000000,4.000000,4.000000,4.000000,4.000000,4.000000,100.000000,,,,,,,,,,,,,,,,,,,,,,,,,,,,,,,,,,,,,,,,,,,,,,,,,,,,,,,,,,,,,,,
1656263502.849348,103.000000,0.000000,4271.794922,4249.230957,4157.436035,4114.871582,4242.051270,16252.000000,4.000000,95.000000,,,,0.000000,4.000000,4.000000,4.000000,4.000000,4.000000,100.000000,,,,,,,,,,,,,,,,,,,,,,,,,,,,,,,,,,,,,,,,,,,,,,,,,,,,,,,,,,,,,,,
1656263502.857163,104.000000,0.000000,4275.384766,4242.563965,4165.641113,4117.948730,4237.436035,450.000000,4.000000,95.000000,,,,0.000000,4.000000,4.000000,4.000000,4.000000,4.000000,100.000000,0.968750,100.000000,4.000000,4.000000,4.000000,4.000000,4.000000,,,,,,,,,,,,,,,,,,,,,,,,,,,,,,,,3.317729,2.533568,0.868441,1.690793,0.503011,1.320687,0.592041,0.390358,0.568091,0.504057,16.103134,15.812778,1.794178,2.651364,1.166326,3.685449,1.894511,1.010202,1.075132,0.531345,3.989163,2.430365,0.734448,1.340929,0.684056
1656263502.864877,105.000000,0.000000,4288.717773,4249.743652,4186.666504,4119.487305,4247.179688,450.000000,4.000000,95.000000,,,,0.000000,4.000000,4.000000,4.000000,4.000000,4.000000,100.000000,,,,,,,,,,,,,,,,,,,,,,,,,,,,,,,,,,,,,,,,,,,,,,,,,,,,,,,,,,,,,,,
1656263502.872691,106.000000,0.000000,4288.717773,4263.077148,4216.410156,4134.871582,4243.077148,450.000000,4.000000,95.000000,,,,0.000000,4.000000,4.000000,4.000000,4.000000,4.000000,100.000000,,,,,,,,,,,,,,,,,,,,,,,,,,,,,,,,,,,,,,,,,,,,,,,,,,,,,,,,,,,,,,,
1656263502.880406,107.000000,0.000000,4286.153809,4263.589844,4215.897461,4135.384766,4234.871582,16252.000000,4.000000,95.000000,,,,0.000000,4.000000,4.000000,4.000000,4.000000,4.000000,100.000000,,,,,,,,,,,,,,,,,,,,,,,,,,,,,,,,,,,,,,,,,,,,,,,,,,,,,,,,,,,,,,,
1656263502.888220,108.000000,0.000000,4290.769043,4257.948730,4185.641113,4124.615234,4252.820313,450.000000,4.000000,95.000000,,,,0.000000,4.000000,4.000000,4.000000,4.000000,4.000000,100.000000,,,,,,,,,,,,,,,,,,,,,,,,,,,,,,,,,,,,,,,,,,,,,,,,,,,,,,,,,,,,,,,
1656263502.895935,109.000000,0.000000,4289.743652,4256.410156,4172.820313,4132.820313,4263.589844,450.000000,4.000000,95.000000,,,,0.000000,4.000000,4.000000,4.000000,4.000000,4.000000,100.000000,,,,,,,,,,,,,,,,,,,,,,,,,,,,,,,,,,,,,,,,,,,,,,,,,,,,,,,,,,,,,,,
1656263502.903749,110.000000,0.000000,4288.717773,4252.307617,4174.358887,4140.000000,4248.717773,450.000000,4.000000,95.000000,,,,0.000000,4.000000,4.000000,4.000000,4.000000,4.000000,100.000000,,,,,,,,,,,,,,,,,,,,,,,,,,,,,,,,,,,,,,,,,,,,,,,,,,,,,,,,,,,,,,,
1656263502.911464,111.000000,0.000000,4297.436035,4248.717773,4169.230957,4124.102539,4247.692383,16252.000000,4.000000,95.000000,,,,0.000000,4.000000,4.000000,4.000000,4.000000,4.000000,100.000000,,,,,,,,,,,,,,,,,,,,,,,,,,,,,,,,,,,,,,,,,,,,,,,,,,,,,,,,,,,,,,,
1656263502.919278,112.000000,0.000000,4299.487305,4251.794922,4171.794922,4112.307617,4254.358887,450.000000,4.000000,95.000000,,,,0.000000,4.000000,4.000000,4.000000,4.000000,4.000000,100.000000,,,,,,,,,,,,,,,,,,,,,,,,,,,,,,,,,,,,,,,,,,,,,,,,,,,,,,,,,,,,,,,
1656263502.926993,113.000000,0.000000,4286.666504,4251.794922,4169.743652,4119.487305,4242.051270,450.000000,4.000000,95.000000,,,,0.000000,4.000000,4.000000,4.000000,4.000000,4.000000,100.000000,,,,,,,,,,,,,,,,,,,,,,,,,,,,,,,,,,,,,,,,,,,,,,,,,,,,,,,,,,,,,,,
1656263502.934707,114.000000,0.000000,4278.974121,4244.102539,4158.974121,4109.743652,4233.333496,450.000000,4.000000,95.000000,,,,0.000000,4.000000,4.000000,4.000000,4.000000,4.000000,100.000000,,,,,,,,,,,,,,,,,,,,,,,,,,,,,,,,,,,,,,,,,,,,,,,,,,,,,,,,,,,,,,,
1656263502.942522,115.000000,0.000000,4284.615234,4236.410156,4149.230957,4095.897461,4229.743652,16252.000000,4.000000,95.000000,,,,0.000000,4.000000,4.000000,4.000000,4.000000,4.000000,100.000000,,,,,,,,,,,,,,,,,,,,,,,,,,,,,,,,,,,,,,,,,,,,,,,,,,,,,,,,,,,,,,,
1656263502.950236,116.000000,0.000000,4286.153809,4240.512695,4131.282227,4112.307617,4225.641113,450.000000,4.000000,95.000000,,,,0.000000,4.000000,4.000000,4.000000,4.000000,4.000000,100.000000,,,,,,,,,,,,,,,,,,,,,,,,,,,,,,,,,,,,,,,,,,,,,,,,,,,,,,,,,,,,,,,
1656263502.957951,117.000000,0.000000,4281.538574,4252.307617,4117.436035,4125.641113,4226.666504,450.000000,4.000000,95.000000,,,,0.000000,4.000000,4.000000,4.000000,4.000000,4.000000,100.000000,,,,,,,,,,,,,,,,,,,,,,,,,,,,,,,,,,,,,,,,,,,,,,,,,,,,,,,,,,,,,,,
1656263502.965765,118.000000,0.000000,4276.410156,4253.846191,4121.025879,4117.436035,4227.692383,450.000000,4.000000,95.000000,,,,0.000000,4.000000,4.000000,4.000000,4.000000,4.000000,100.000000,,,,,,,,,,,,,,,,,,,,,,,,,,,,,,,,,,,,,,,,,,,,,,,,,,,,,,,,,,,,,,,
1656263502.973480,119.000000,0.000000,4274.871582,4257.436035,4124.615234,4114.871582,4230.769043,16252.000000,4.000000,95.000000,,,,0.000000,4.000000,4.000000,4.000000,4.000000,4.000000,100.000000,,,,,,,,,,,,,,,,,,,,,,,,,,,,,,,,,,,,,,,,,,,,,,,,,,,,,,,,,,,,,,,
1656263502.981194,120.000000,0.000000,4267.692383,4257.436035,4125.641113,4114.358887,4216.922852,450.000000,4.000000,95.000000,,,,0.000000,4.000000,4.000000,4.000000,4.000000,4.000000,100.000000,,,,,,,,,,,,,,,,,,,,,,,,,,,,,,,,,,,,,,,2.459300,2.648923,0.777457,1.913965,0.459379,1.388706,0.656234,0.413993,0.629114,0.511026,16.714861,19.032171,1.914962,3.061349,1.094349,3.203653,2.224892,1.198392,1.057985,0.552819,3.810643,2.676774,0.984439,1.324945,0.661541
1656263502.989008,121.000000,0.000000,4264.615234,4251.282227,4141.538574,4109.230957,4209.230957,450.000000,4.000000,95.000000,,,,0.000000,4.000000,4.000000,4.000000,4.000000,4.000000,100.000000,,,,,,,,,,,,,,,,,,,,,,,,,,,,,,,,,,,,,,,,,,,,,,,,,,,,,,,,,,,,,,,
1656263502.996723,122.000000,0.000000,4283.589844,4247.692383,4154.358887,4117.436035,4234.358887,450.000000,4.000000,95.000000,,,,0.000000,4.000000,4.000000,4.000000,4.000000,4.000000,100.000000,,,,,,,,,,,,,,,,,,,,,,,,,,,,,,,,,,,,,,,,,,,,,,,,,,,,,,,,,,,,,,,
1656263503.004537,123.000000,0.000000,4302.051270,4247.179688,4157.948730,4130.256348,4255.384766,16252.000000,4.000000,95.000000,,,,0.000000,4.000000,4.000000,4.000000,4.000000,4.000000,100.000000,,,,,,,,,,,,,,,,,,,,,,,,,,,,,,,,,,,,,,,,,,,,,,,,,,,,,,,,,,,,,,,
1656263503.012252,124.000000,0.000000,4293.846191,4254.358887,4153.846191,4123.077148,4245.128418,450.000000,4.000000,95.000000,,,,0.000000,4.000000,4.000000,4.000000,4.000000,4.000000,100.000000,,,,,,,,,,,,,,,,,,,,,,,,,,,,,,,,,,,,,,,,,,,,,,,,,,,,,,,,,,,,,,,
1656263503.020066,125.000000,0.000000,4269.743652,4256.922852,4135.897461,4104.102539,4223.589844,450.000000,4.000000,95.000000,,,,0.000000,4.000000,4.000000,4.000000,4.000000,4.000000,100.000000,,,,,,,,,,,,,,,,,,,,,,,,,,,,,,,,,,,,,,,,,,,,,,,,,,,,,,,,,,,,,,,
1656263503.027781,126.000000,0.000000,4268.717773,4254.358887,4124.102539,4107.179688,4221.025879,450.000000,4.000000,95.000000,,,,0.000000,4.000000,4.000000,4.000000,4.000000,4.000000,100.000000,,,,,,,,,,,,,,,,,,,,,,,,,,,,,,,,,,,,,,,,,,,,,,,,,,,,,,,,,,,,,,,
1656263503.035595,127.000000,0.000000,4291.282227,4253.333496,4131.282227,4120.000000,4230.769043,243.000000,4.000000,95.000000,,,,0.000000,4.000000,4.000000,4.000000,4.000000,4.000000,100.000000,,,,,,,,,,,,,,,,,,,,,,,,,,,,,,,,,,,,,,,,,,,,,,,,,,,,,,,,,,,,,,,
1656263503.043410,0.000000,0.000000,4301.025879,4261.538574,4151.282227,4121.025879,4238.974121,450.000000,4.000000,95.000000,,,,0.000000,4.000000,4.000000,4.000000,4.000000,4.000000,100.000000,,,,,,,,,,,,,,,,,,,,,,,,,,,,,,,,,,,,,,,,,,,,,,,,,,,,,,,,,,,,,,,
1656263503.051124,1.000000,0.000000,4291.282227,4264.102539,4165.641113,4129.743652,4243.077148,450.000000,4.000000,95.000000,,,,0.000000,4.000000,4.000000,4.000000,4.000000,4.000000,100.000000,,,,,,,,,,,,,,,,,,,,,,,,,,,,,,,,,,,,,,,,,,,,,,,,,,,,,,,,,,,,,,,
1656263503.058839,2.000000,0.000000,4276.410156,4255.384766,4167.179688,4128.205078,4230.256348,16156.000000,4.000000,95.000000,,,,0.000000,4.000000,4.000000,4.000000,4.000000,4.000000,100.000000,,,,,,,,,,,,,,,,,,,,,,,,,,,,,,,,,,,,,,,,,,,,,,,,,,,,,,,,,,,,,,,
1656263503.066653,3.000000,0.000000,4271.282227,4244.615234,4163.589844,4105.641113,4224.615234,450.000000,4.000000,95.000000,,,,0.000000,4.000000,4.000000,4.000000,4.000000,4.000000,100.000000,,,,,,,,,,,,,,,,,,,,,,,,,,,,,,,,,,,,,,,,,,,,,,,,,,,,,,,,,,,,,,,
1656263503.074368,4.000000,0.000000,4290.769043,4242.563965,4155.384766,4116.410156,4240.000000,16180.000000,4.000000,95.000000,,,,0.000000,4.000000,4.000000,4.000000,4.000000,4.000000,100.000000,,,,,,,,,,,,,,,,,,,,,,,,,,,,,,,,,,,,,,,,,,,,,,,,,,,,,,,,,,,,,,,
1656263503.082182,5.000000,0.000000,4297.948730,4248.205078,4141.025879,4147.692383,4247.179688,450.000000,4.000000,95.000000,,,,0.000000,4.000000,4.000000,4.000000,4.000000,4.000000,100.000000,,,,,,,,,,,,,,,,,,,,,,,,,,,,,,,,,,,,,,,,,,,,,,,,,,,,,,,,,,,,,,,
1656263503.089996,6.000000,0.000000,4277.436035,4247.179688,4124.102539,4141.538574,4234.871582,16122.000000,4.000000,95.000000,,,,0.000000,4.000000,4.000000,4.000000,4.000000,4.000000,100.000000,,,,,,,,,,,,,,,,,,,,,,,,,,,,,,,,,,,,,,,,,,,,,,,,,,,,,,,,,,,,,,,
1656263503.097711,7.000000,0.000000,4279.487305,4238.974121,4100.512695,4123.077148,4231.794922,450.000000,4.000000,95.000000,,,,0.000000,4.000000,4.000000,4.000000,4.000000,4.000000,100.000000,,,,,,,,,,,,,,,,,,,,,,,,,,,,,,,,,,,,,,,,,,,,,,,,,,,,,,,,,,,,,,,
1656263503.105525,8.000000,0.000000,4305.128418,4241.025879,4079.487061,4123.077148,4238.461426,450.000000,4.000000,95.000000,,,,0.000000,4.000000,4.000000,4.000000,4.000000,4.000000,100.000000,,,,,,,,,,,,,,,,,,,,,,,,,,,,,,,,,,,,,,,2.068948,2.564389,0.683065,2.158632,0.449708,1.470743,0.691206,0.469204,0.657496,0.497417,17.695917,22.120018,2.373784,3.364070,1.015528,2.578216,2.414425,1.361258,1.041182,0.560619,4.059373,2.760391,1.326132,1.340734,0.612875
1656263503.113240,9.000000,0.000000,4293.846191,4257.436035,4083.076904,4124.102539,4233.846191,16145.000000,4.000000,95.000000,,,,0.000000,4.000000,4.000000,4.000000,4.000000,4.000000,100.000000,,,,,,,,,,,,,,,,,,,,,,,,,,,,,,,,,,,,,,,,,,,,,,,,,,,,,,,,,,,,,,,
1656263503.121154,10.000000,0.000000,4263.077148,4265.128418,4089.230713,4118.974121,4231.794922,450.000000,4.000000,95.000000,,,,0.000000,4.000000,4.000000,4.000000,4.000000,4.000000,100.000000,,,,,,,,,,,,,,,,,,,,,,,,,,,,,,,,,,,,,,,,,,,,,,,,,,,,,,,,,,,,,,,
1656263503.128969,11.000000,0.000000,4274.871582,4255.897461,4094.358887,4124.615234,4237.436035,16209.000000,4.000000,95.000000,,,,0.000000,4.000000,4.000000,4.000000,4.000000,4.000000,100.000000,,,,,,,,,,,,,,,,,,,,,,,,,,,,,,,,,,,,,,,,,,,,,,,,,,,,,,,,,,,,,,,
1656263503.136783,12.000000,0.000000,4292.307617,4243.077148,4102.051270,4129.230957,4230.256348,450.000000,4.000000,95.000000,,,,0.000000,4.000000,4.000000,4.000000,4.000000,4.000000,100.000000,,,,,,,,,,,,,,,,,,,,,,,,,,,,,,,,,,,,,,,,,,,,,,,,,,,,,,,,,,,,,,,
1656263503.144497,13.000000,0.000000,4272.307617,4234.358887,4098.974121,4115.384766,4211.794922,450.000000,4.000000,95.000000,,,,0.000000,4.000000,4.000000,4.000000,4.000000,4.000000,100.000000,,,,,,,,,,,,,,,,,,,,,,,,,,,,,,,,,,,,,,,,,,,,,,,,,,,,,,,,,,,,,,,
1656263503.152312,14.000000,0.000000,4257.948730,4241.025879,4103.077148,4108.205078,4209.230957,450.000000,4.000000,95.000000,,,,0.000000,4.000000,4.000000,4.000000,4.000000,4.000000,100.000000,,,,,,,,,,,,,,,,,,,,,,,,,,,,,,,,,,,,,,,,,,,,,,,,,,,,,,,,,,,,,,,
1656263503.160126,15.000000,0.000000,4268.717773,4247.179688,4131.794922,4114.358887,4218.461426,16209.000000,4.000000,95.000000,,,,0.000000,4.000000,4.000000,4.000000,4.000000,4.000000,100.000000,,,,,,,,,,,,,,,,,,,,,,,,,,,,,,,,,,,,,,,,,,,,,,,,,,,,,,,,,,,,,,,
1656263503.167841,16.000000,0.000000,4280.000000,4244.102539,4156.922852,4125.128418,4217.436035,0.000000,4.000000,95.000000,,,,0.000000,4.000000,4.000000,4.000000,4.000000,4.000000,100.000000,,,,,,,,,,,,,,,,,,,,,,,,,,,,,,,,,,,,,,,,,,,,,,,,,,,,,,,,,,,,,,,
1656263503.175655,17.000000,0.000000,4276.410156,4250.256348,4148.717773,4136.922852,4219.487305,0.000000,4.000000,95.000000,,,,0.000000,4.000000,4.000000,4.000000,4.000000,4.000000,100.000000,,,,,,,,,,,,,,,,,,,,,,,,,,,,,,,,,,,,,,,,,,,,,,,,,,,,,,,,,,,,,,,
1656263503.183370,18.000000,0.000000,4265.128418,4263.077148,4127.692383,4135.897461,4221.025879,0.000000,4.000000,95.000000,,,,0.000000,4.000000,4.000000,4.000000,4.000000,4.000000,100.000000,,,,,,,,,,,,,,,,,,,,,,,,,,,,,,,,,,,,,,,,,,,,,,,,,,,,,,,,,,,,,,,
1656263503.191184,19.000000,0.000000,4267.692383,4259.487305,4127.179688,4124.615234,4213.846191,0.000000,4.000000,95.000000,,,,0.000000,4.000000,4.000000,4.000000,4.000000,4.000000,100.000000,,,,,,,,,,,,,,,,,,,,,,,,,,,,,,,,,,,,,,,,,,,,,,,,,,,,,,,,,,,,,,,
1656263503.198899,20.000000,0.000000,4283.077148,4250.769043,4127.692383,4126.153809,4216.922852,0.000000,4.000000,95.000000,,,,0.000000,4.000000,4.000000,4.000000,4.000000,4.000000,100.000000,,,,,,,,,,,,,,,,,,,,,,,,,,,,,,,,,,,,,,,,,,,,,,,,,,,,,,,,,,,,,,,
1656263503.206713,21.000000,0.000000,4281.538574,4263.589844,4120.512695,4129.230957,4219.487305,0.000000,4.000000,95.000000,,,,0.000000,4.000000,4.000000,4.000000,4.000000,4.000000,100.000000,,,,,,,,,,,,,,,,,,,,,,,,,,,,,,,,,,,,,,,,,,,,,,,,,,,,,,,,,,,,,,,
1656263503.214428,22.000000,0.000000,4264.615234,4268.205078,4133.846191,4110.256348,4203.077148,0.000000,4.000000,95.000000,,,,0.000000,4.000000,4.000000,4.000000,4.000000,4.000000,100.000000,,,,,,,,,,,,,,,,,,,,,,,,,,,,,,,,,,,,,,,,,,,,,,,,,,,,,,,,,,,,,,,
1656263503.222142,23.000000,0.000000,4270.769043,4255.384766,4156.922852,4110.256348,4211.794922,0.000000,4.000000,95.000000,,,,0.000000,4.000000,4.000000,4.000000,4.000000,4.000000,100.000000,,,,,,,,,,,,,,,,,,,,,,,,,,,,,,,,,,,,,,,,,,,,,,,,,,,,,,,,,,,,,,,
1656263503.229956,24.000000,0.000000,4291.794922,4255.384766,4150.769043,4133.846191,4241.538574,0.000000,4.000000,95.000000,,,,0.000000,4.000000,4.000000,4.000000,4.000000,4.000000,100.000000,,,,,,,,,,,,,,,,,,,,,,,,,,,,,,,,,,,,,,,2.117887,2.289961,0.609959,2.350863,0.474909,1.554652,0.676958,0.555709,0.657270,0.465758,18.563389,24.887751,3.156474,3.462589,0.942122,1.956979,2.440616,1.437629,1.006752,0.554362,4.585828,2.658190,1.672127,1.362777,0.557665
1656263503.237771,25.000000,0.000000,4282.563965,4255.384766,4126.666504,4125.128418,4227.179688,0.000000,4.000000,95.000000,,,,0.000000,4.000000,4.000000,4.000000,4.000000,4.000000,100.000000,,,,,,,,,,,,,,,,,,,,,,,,,,,,,,,,,,,,,,,,,,,,,,,,,,,,,,,,,,,,,,,
1656263503.245485,26.000000,0.000000,4272.820313,4246.666504,4124.102539,4100.512695,4205.128418,0.000000,4.000000,95.000000,,,,0.000000,4.000000,4.000000,4.000000,4.000000,4.000000,100.000000,,,,,,,,,,,,,,,,,,,,,,,,,,,,,,,,,,,,,,,,,,,,,,,,,,,,,,,,,,,,,,,
1656263503.253200,27.000000,0.000000,4282.563965,4244.615234,4135.897461,4095.384521,4220.000000,0.000000,4.000000,95.000000,,,,0.000000,4.000000,4.000000,4.000000,4.000000,4.000000,100.000000,,,,,,,,,,,,,,,,,,,,,,,,,,,,,,,,,,,,,,,,,,,,,,,,,,,,,,,,,,,,,,,
1656263503.261014,28.000000,0.000000,4277.436035,4247.179688,4143.077148,4101.025879,4218.461426,0.000000,4.000000,95.000000,,,,0.000000,4.000000,4.000000,4.000000,4.000000,4.000000,100.000000,,,,,,,,,,,,,,,,,,,,,,,,,,,,,,,,,,,,,,,,,,,,,,,,,,,,,,,,,,,,,,,
1656263503.268829,29.000000,0.000000,4269.743652,4252.307617,4146.666504,4111.282227,4203.589844,0.000000,4.000000,95.000000,,,,0.000000,4.000000,4.000000,4.000000,4.000000,4.000000,100.000000,,,,,,,,,,,,,,,,,,,,,,,,,,,,,,,,,,,,,,,,,,,,,,,,,,,,,,,,,,,,,,,
1656263503.276543,30.000000,0.000000,4272.820313,4254.358887,4144.615234,4117.948730,4209.743652,0.000000,4.000000,95.000000,,,,0.000000,4.000000,4.000000,4.000000,4.000000,4.000000,100.000000,,,,,,,,,,,,,,,,,,,,,,,,,,,,,,,,,,,,,,,,,,,,,,,,,,,,,,,,,,,,,,,
1656263503.284258,31.000000,0.000000,4286.666504,4261.025879,4153.333496,4117.948730,4220.512695,0.000000,4.000000,95.000000,,,,0.000000,4.000000,4.000000,4.000000,4.000000,4.000000,100.000000,,,,,,,,,,,,,,,,,,,,,,,,,,,,,,,,,,,,,,,,,,,,,,,,,,,,,,,,,,,,,,,
1656263503.292072,32.000000,0.000000,4306.666504,4270.256348,4172.820313,4116.922852,4217.948730,0.000000,4.000000,95.000000,,,,0.000000,4.000000,4.000000,4.000000,4.000000,4.000000,100.000000,,,,,,,,,,,,,,,,,,,,,,,,,,,,,,,,,,,,,,,,,,,,,,,,,,,,,,,,,,,,,,,
1656263503.299787,33.000000,0.000000,4308.205078,4257.436035,4164.102539,4111.282227,4215.897461,0.000000,4.000000,95.000000,,,,0.000000,4.000000,4.000000,4.000000,4.000000,4.000000,100.000000,,,,,,,,,,,,,,,,,,,,,,,,,,,,,,,,,,,,,,,,,,,,,,,,,,,,,,,,,,,,,,,
1656263503.307601,34.000000,0.000000,4292.820313,4245.128418,4135.384766,4109.743652,4229.230957,0.000000,4.000000,95.000000,,,,0.000000,4.000000,4.000000,4.000000,4.000000,4.000000,100.000000,,,,,,,,,,,,,,,,,,,,,,,,,,,,,,,,,,,,,,,,,,,,,,,,,,,,,,,,,,,,,,,
1656263503.315316,35.000000,0.000000,4281.538574,4256.922852,4127.692383,4104.102539,4235.384766,0.000000,4.000000,95.000000,,,,0.000000,4.000000,4.000000,4.000000,4.000000,4.000000,100.000000,,,,,,,,,,,,,,,,,,,,,,,,,,,,,,,,,,,,,,,,,,,,,,,,,,,,,,,,,,,,,,,
1656263503.323130,36.000000,0.000000,4273.846191,4260.000000,4135.897461,4086.666748,4218.461426,0.000000,4.000000,95.000000,,,,0.000000,4.000000,4.000000,4.000000,4.000000,4.000000,100.000000,,,,,,,,,,,,,,,,,,,,,,,,,,,,,,,,,,,,,,,,,,,,,,,,,,,,,,,,,,,,,,,
1656263503.330844,37.000000,0.000000,4272.820313,4240.512695,4121.538574,4081.025635,4209.230957,0.000000,4.000000,95.000000,,,,0.000000,4.000000,4.000000,4.000000,4.000000,4.000000,100.000000,,,,,,,,,,,,,,,,,,,,,,,,,,,,,,,,,,,,,,,,,,,,,,,,,,,,,,,,,,,,,,,
1656263503.338659,38.000000,0.000000,4272.307617,4223.077148,4098.461426,4081.538574,4206.153809,0.000000,4.000000,95.000000,,,,0.000000,4.000000,4.000000,4.000000,4.000000,4.000000,100.000000,,,,,,,,,,,,,,,,,,,,,,,,,,,,,,,,,,,,,,,,,,,,,,,,,,,,,,,,,,,,,,,
1656263503.346373,39.000000,0.000000,4267.692383,4234.358887,4110.256348,4082.051270,4195.897461,0.000000,4.000000,95.000000,,,,0.000000,4.000000,4.000000,4.000000,4.000000,4.000000,100.000000,,,,,,,,,,,,,,,,,,,,,,,,,,,,,,,,,,,,,,,,,,,,,,,,,,,,,,,,,,,,,,,
1656263503.354188,40.000000,0.000000,4265.641113,4254.358887,4129.743652,4092.307617,4198.974121,0.000000,4.000000,95.000000,,,,0.000000,4.000000,4.000000,4.000000,4.000000,4.000000,100.000000,0.968750,100.000000,4.000000,4.000000,4.000000,4.000000,4.000000,,,,,,,,,,,,,,,,,,,,,,,,,,,,,,,,2.403425,1.896049,0.572726,2.414224,0.525856,1.619861,0.617812,0.674765,0.640759,0.424962,19.094549,27.051046,4.152668,3.329287,0.877179,1.426828,2.343797,1.404993,0.948437,0.542444,5.084468,2.418842,1.916167,1.356693,0.518830
1656263503.361902,41.000000,0.000000,4267.179688,4257.948730,4126.666504,4097.948730,4212.820313,0.000000,4.000000,95.000000,,,,0.000000,4.000000,4.000000,4.000000,4.000000,4.000000,100.000000,,,,,,,,,,,,,,,,,,,,,,,,,,,,,,,,,,,,,,,,,,,,,,,,,,,,,,,,,,,,,,,
1656263503.369717,42.000000,0.000000,4271.282227,4261.025879,4125.641113,4097.948730,4217.436035,0.000000,4.000000,95.000000,,,,0.000000,4.000000,4.000000,4.000000,4.000000,4.000000,100.000000,,,,,,,,,,,,,,,,,,,,,,,,,,,,,,,,,,,,,,,,,,,,,,,,,,,,,,,,,,,,,,,
1656263503.377431,43.000000,0.000000,4273.846191,4256.410156,4139.487305,4096.922852,4216.922852,0.000000,4.000000,95.000000,,,,0.000000,4.000000,4.000000,4.000000,4.000000,4.000000,100.000000,,,,,,,,,,,,,,,,,,,,,,,,,,,,,,,,,,,,,,,,,,,,,,,,,,,,,,,,,,,,,,,
1656263503.385146,44.000000,0.000000,4269.743652,4230.769043,4140.000000,4092.307617,4217.948730,0.000000,4.000000,95.000000,,,,0.000000,4.000000,4.000000,4.000000,4.000000,4.000000,100.000000,,,,,,,,,,,,,,,,,,,,,,,,,,,,,,,,,,,,,,,,,,,,,,,,,,,,,,,,,,,,,,,
1656263503.392960,45.000000,0.000000,4267.179688,4233.333496,4135.897461,4097.436035,4221.538574,0.000000,4.000000,95.000000,,,,0.000000,4.000000,4.000000,4.000000,4.000000,4.000000,100.000000,,,,,,,,,,,,,,,,,,,,,,,,,,,,,,,,,,,,,,,,,,,,,,,,,,,,,,,,,,,,,,,
1656263503.400775,46.000000,0.000000,4273.333496,4264.102539,4161.538574,4109.230957,4225.641113,0.000000,4.000000,95.000000,,,,0.000000,4.000000,4.000000,4.000000,4.000000,4.000000,100.000000,,,,,,,,,,,,,,,,,,,,,,,,,,,,,,,,,,,,,,,,,,,,,,,,,,,,,,,,,,,,,,,
1656263503.408489,47.000000,0.000000,4273.846191,4258.461426,4182.051270,4102.563965,4220.000000,0.000000,4.000000,95.000000,,,,0.000000,4.000000,4.000000,4.000000,4.000000,4.000000,100.000000,,,,,,,,,,,,,,,,,,,,,,,,,,,,,,,,,,,,,,,,,,,,,,,,,,,,,,,,,,,,,,,
1656263503.416204,48.000000,0.000000,4275.897461,4233.333496,4161.538574,4097.948730,4217.948730,0.000000,4.000000,95.000000,,,,0.000000,4.000000,4.000000,4.000000,4.000000,4.000000,100.000000,,,,,,,,,,,,,,,,,,,,,,,,,,,,,,,,,,,,,,,,,,,,,,,,,,,,,,,,,,,,,,,
1656263503.424018,49.000000,0.000000,4288.205078,4244.102539,4140.512695,4110.769043,4233.333496,0.000000,4.000000,95.000000,,,,0.000000,4.000000,4.000000,4.000000,4.000000,4.000000,100.000000,,,,,,,,,,,,,,,,,,,,,,,,,,,,,,,,,,,,,,,,,,,,,,,,,,,,,,,,,,,,,,,
1656263503.431732,50.000000,0.000000,4288.205078,4261.025879,4138.974121,4104.102539,4236.922852,0.000000,4.000000,95.000000,,,,0.000000,4.000000,4.000000,4.000000,4.000000,4.000000,100.000000,,,,,,,,,,,,,,,,,,,,,,,,,,,,,,,,,,,,,,,,,,,,,,,,,,,,,,,,,,,,,,,
1656263503.439547,51.000000,0.000000,4273.846191,4245.641113,4143.589844,4089.743652,4223.589844,0.000000,4.000000,95.000000,,,,0.000000,4.000000,4.000000,4.000000,4.000000,4.000000,100.000000,,,,,,,,,,,,,,,,,,,,,,,,,,,,,,,,,,,,,,,,,,,,,,,,,,,,,,,,,,,,,,,
1656263503.447261,52.000000,0.000000,4270.256348,4227.692383,4155.384766,4102.563965,4220.512695,0.000000,4.000000,95.000000,,,,0.000000,4.000000,4.000000,4.000000,4.000000,4.000000,100.000000,,,,,,,,,,,,,,,,,,,,,,,,,,,,,,,,,,,,,,,,,,,,,,,,,,,,,,,,,,,,,,,
1656263503.455076,53.000000,0.000000,4280.512695,4242.051270,4163.077148,4116.410156,4223.077148,0.000000,4.000000,95.000000,,,,0.000000,4.000000,4.000000,4.000000,4.000000,4.000000,100.000000,,,,,,,,,,,,,,,,,,,,,,,,,,,,,,,,,,,,,,,,,,,,,,,,,,,,,,,,,,,,,,,
1656263503.462790,54.000000,0.000000,4284.615234,4255.897461,4154.871582,4110.256348,4222.563965,0.000000,4.000000,95.000000,,,,0.000000,4.000000,4.000000,4.000000,4.000000,4.000000,100.000000,,,,,,,,,,,,,,,,,,,,,,,,,,,,,,,,,,,,,,,,,,,,,,,,,,,,,,,,,,,,,,,
1656263503.470605,55.000000,0.000000,4283.077148,4232.820313,4138.974121,4105.128418,4228.205078,0.000000,4.000000,95.000000,,,,0.000000,4.000000,4.000000,4.000000,4.000000,4.000000,100.000000,,,,,,,,,,,,,,,,,,,,,,,,,,,,,,,,,,,,,,,,,,,,,,,,,,,,,,,,,,,,,,,
1656263503.478319,56.000000,0.000000,4279.487305,4214.358887,4128.717773,4106.666504,4229.230957,0.000000,4.000000,95.000000,,,,0.000000,4.000000,4.000000,4.000000,4.000000,4.000000,100.000000,,,,,,,,,,,,,,,,,,,,,,,,,,,,,,,,,,,,,,,2.687920,1.486129,0.566869,2.311982,0.592456,1.657195,0.535052,0.821924,0.623394,0.386488,19.184151,28.302721,5.177419,3.029219,0.813319,1.057114,2.193511,1.278457,0.888089,0.539313,5.304721,2.132926,1.976632,1.299705,0.512481
1656263503.486134,57.000000,0.000000,4276.410156,4239.487305,4137.436035,4108.717773,4223.077148,0.000000,4.000000,95.000000,,,,0.000000,4.000000,4.000000,4.000000,4.000000,4.000000,100.000000,,,,,,,,,,,,,,,,,,,,,,,,,,,,,,,,,,,,,,,,,,,,,,,,,,,,,,,,,,,,,,,
1656263503.493848,58.000000,0.000000,4274.358887,4257.948730,4151.794922,4106.153809,4225.641113,0.000000,4.000000,95.000000,,,,0.000000,4.000000,4.000000,4.000000,4.000000,4.000000,100.000000,,,,,,,,,,,,,,,,,,,,,,,,,,,,,,,,,,,,,,,,,,,,,,,,,,,,,,,,,,,,,,,
1656263503.501663,59.000000,0.000000,4271.282227,4241.025879,4140.000000,4092.307617,4228.205078,0.000000,4.000000,95.000000,,,,0.000000,4.000000,4.000000,4.000000,4.000000,4.000000,100.000000,,,,,,,,,,,,,,,,,,,,,,,,,,,,,,,,,,,,,,,,,,,,,,,,,,,,,,,,,,,,,,,
1656263503.509377,60.000000,0.000000,4273.333496,4231.282227,4116.922852,4095.384521,4216.922852,0.000000,4.000000,95.000000,,,,0.000000,4.000000,4.000000,4.000000,4.000000,4.000000,100.000000,,,,,,,,,,,,,,,,,,,,,,,,,,,,,,,,,,,,,,,,,,,,,,,,,,,,,,,,,,,,,,,
1656263503.517191,61.000000,0.000000,4274.871582,4239.487305,4110.769043,4110.769043,4212.820313,0.000000,4.000000,95.000000,,,,0.000000,4.000000,4.000000,4.000000,4.000000,4.000000,100.000000,,,,,,,,,,,,,,,,,,,,,,,,,,,,,,,,,,,,,,,,,,,,,,,,,,,,,,,,,,,,,,,
1656263503.524906,62.000000,0.000000,4276.410156,4236.410156,4115.384766,4101.538574,4222.563965,0.000000,4.000000,95.000000,,,,0.000000,4.000000,4.000000,4.000000,4.000000,4.000000,100.000000,,,,,,,,,,,,,,,,,,,,,,,,,,,,,,,,,,,,,,,,,,,,,,,,,,,,,,,,,,,,,,,
1656263503.532620,63.000000,0.000000,4272.307617,4234.358887,4112.307617,4090.256348,4223.077148,0.000000,4.000000,95.000000,,,,0.000000,4.000000,4.000000,4.000000,4.000000,4.000000,100.000000,,,,,,,,,,,,,,,,,,,,,,,,,,,,,,,,,,,,,,,,,,,,,,,,,,,,,,,,,,,,,,,
1656263503.540435,64.000000,0.000000,4264.102539,4246.666504,4101.538574,4095.384521,4219.487305,450.000000,4.000000,95.000000,,,,0.000000,4.000000,4.000000,4.000000,4.000000,4.000000,100.000000,,,,,,,,,,,,,,,,,,,,,,,,,,,,,,,,,,,,,,,,,,,,,,,,,,,,,,,,,,,,,,,
1656263503.548249,65.000000,0.000000,4271.282227,4253.333496,4102.563965,4097.948730,4225.641113,450.000000,4.000000,95.000000,,,,0.000000,4.000000,4.000000,4.000000,4.000000,4.000000,100.000000,,,,,,,,,,,,,,,,,,,,,,,,,,,,,,,,,,,,,,,,,,,,,,,,,,,,,,,,,,,,,,,
1656263503.555964,66.000000,0.000000,4285.641113,4250.769043,4115.897461,4101.025879,4223.077148,16193.000000,4.000000,95.000000,,,,0.000000,4.000000,4.000000,4.000000,4.000000,4.000000,100.000000,,,,,,,,,,,,,,,,,,,,,,,,,,,,,,,,,,,,,,,,,,,,,,,,,,,,,,,,,,,,,,,
1656263503.563678,67.000000,0.000000,4289.743652,4258.461426,4112.307617,4112.307617,4226.666504,450.000000,4.000000,95.000000,,,,0.000000,4.000000,4.000000,4.000000,4.000000,4.000000,100.000000,,,,,,,,,,,,,,,,,,,,,,,,,,,,,,,,,,,,,,,,,,,,,,,,,,,,,,,,,,,,,,,
1656263503.571493,68.000000,0.000000,4290.769043,4260.512695,4105.128418,4108.717773,4248.205078,16145.000000,4.000000,95.000000,,,,0.000000,4.000000,4.000000,4.000000,4.000000,4.000000,100.000000,,,,,,,,,,,,,,,,,,,,,,,,,,,,,,,,,,,,,,,,,,,,,,,,,,,,,,,,,,,,,,,
1656263503.579307,69.000000,0.000000,4288.205078,4247.692383,4114.871582,4097.948730,4248.205078,450.000000,4.000000,95.000000,,,,0.000000,4.000000,4.000000,4.000000,4.000000,4.000000,100.000000,,,,,,,,,,,,,,,,,,,,,,,,,,,,,,,,,,,,,,,,,,,,,,,,,,,,,,,,,,,,,,,
1656263503.587022,70.000000,0.000000,4282.051270,4251.794922,4121.538574,4113.846191,4234.871582,16172.000000,4.000000,95.000000,,,,0.000000,4.000000,4.000000,4.000000,4.000000,4.000000,100.000000,,,,,,,,,,,,,,,,,,,,,,,,,,,,,,,,,,,,,,,,,,,,,,,,,,,,,,,,,,,,,,,
1656263503.594736,71.000000,0.000000,4287.179688,4267.179688,4117.948730,4126.666504,4239.487305,450.000000,4.000000,95.000000,,,,0.000000,4.000000,4.000000,4.000000,4.000000,4.000000,100.000000,,,,,,,,,,,,,,,,,,,,,,,,,,,,,,,,,,,,,,,,,,,,,,,,,,,,,,,,,,,,,,,
1656263503.602551,72.000000,0.000000,4291.794922,4258.461426,4123.589844,4120.512695,4241.538574,450.000000,4.000000,95.000000,,,,0.000000,4.000000,4.000000,4.000000,4.000000,4.000000,100.000000,,,,,,,,,,,,,,,,,,,,,,,,,,,,,,,,,,,,,,,2.839293,1.175407,0.581900,2.068495,0.666826,1.643286,0.476726,0.988624,0.619481,0.362429,19.105017,28.331217,6.003513,2.676581,0.744913,0.824540,2.072955,1.105671,0.853427,0.553713,5.137383,1.893800,1.847694,1.192436,0.540380
1656263503.610265,73.000000,0.000000,4286.666504,4241.538574,4134.358887,4121.538574,4229.743652,16130.000000,4.000000,95.000000,,,,0.000000,4.000000,4.000000,4.000000,4.000000,4.000000,100.000000,,,,,,,,,,,,,,,,,,,,,,,,,,,,,,,,,,,,,,,,,,,,,,,,,,,,,,,,,,,,,,,
1656263503.618079,74.000000,0.000000,4280.512695,4234.358887,4124.615234,4120.512695,4223.077148,450.000000,4.000000,95.000000,,,,0.000000,4.000000,4.000000,4.000000,4.000000,4.000000,100.000000,,,,,,,,,,,,,,,,,,,,,,,,,,,,,,,,,,,,,,,,,,,,,,,,,,,,,,,,,,,,,,,
1656263503.625794,75.000000,0.000000,4275.897461,4230.256348,4101.025879,4105.641113,4222.051270,16196.000000,4.000000,95.000000,,,,0.000000,4.000000,4.000000,4.000000,4.000000,4.000000,100.000000,,,,,,,,,,,,,,,,,,,,,,,,,,,,,,,,,,,,,,,,,,,,,,,,,,,,,,,,,,,,,,,
1656263503.633708,76.000000,0.000000,4271.282227,4232.820313,4093.333252,4096.922852,4213.333496,450.000000,4.000000,95.000000,,,,0.000000,4.000000,4.000000,4.000000,4.000000,4.000000,100.000000,,,,,,,,,,,,,,,,,,,,,,,,,,,,,,,,,,,,,,,,,,,,,,,,,,,,,,,,,,,,,,,
1656263503.641523,77.000000,0.000000,4267.179688,4228.717773,4110.256348,4100.512695,4206.153809,450.000000,4.000000,95.000000,,,,0.000000,4.000000,4.000000,4.000000,4.000000,4.000000,100.000000,,,,,,,,,,,,,,,,,,,,,,,,,,,,,,,,,,,,,,,,,,,,,,,,,,,,,,,,,,,,,,,
1656263503.649337,78.000000,0.000000,4265.128418,4221.025879,4121.538574,4109.230957,4210.256348,450.000000,4.000000,95.000000,,,,0.000000,4.000000,4.000000,4.000000,4.000000,4.000000,100.000000,,,,,,,,,,,,,,,,,,,,,,,,,,,,,,,,,,,,,,,,,,,,,,,,,,,,,,,,,,,,,,,
1656263503.657251,79.000000,0.000000,4268.717773,4229.743652,4112.307617,4111.794922,4221.025879,16196.000000,4.000000,95.000000,,,,0.000000,4.000000,4.000000,4.000000,4.000000,4.000000,100.000000,,,,,,,,,,,,,,,,,,,,,,,,,,,,,,,,,,,,,,,,,,,,,,,,,,,,,,,,,,,,,,,
1656263503.665066,80.000000,0.000000,4277.948730,4238.461426,4127.179688,4111.282227,4232.820313,450.000000,4.000000,95.000000,,,,0.000000,4.000000,4.000000,4.000000,4.000000,4.000000,100.000000,,,,,,,,,,,,,,,,,,,,,,,,,,,,,,,,,,,,,,,,,,,,,,,,,,,,,,,,,,,,,,,
1656263503.672980,81.000000,0.000000,4275.897461,4230.769043,4155.897461,4118.461426,4231.282227,450.000000,4.000000,95.000000,,,,0.000000,4.000000,4.000000,4.000000,4.000000,4.000000,100.000000,,,,,,,,,,,,,,,,,,,,,,,,,,,,,,,,,,,,,,,,,,,,,,,,,,,,,,,,,,,,,,,
1656263503.680894,82.000000,0.000000,4267.692383,4229.743652,4151.794922,4120.512695,4217.948730,450.000000,4.000000,95.000000,,,,0.000000,4.000000,4.000000,4.000000,4.000000,4.000000,100.000000,,,,,,,,,,,,,,,,,,,,,,,,,,,,,,,,,,,,,,,,,,,,,,,,,,,,,,,,,,,,,,,
1656263503.688709,83.000000,0.000000,4274.871582,4245.641113,4129.743652,4109.743652,4210.256348,16196.000000,4.000000,95.000000,,,,0.000000,4.000000,4.000000,4.000000,4.000000,4.000000,100.000000,,,,,,,,,,,,,,,,,,,,,,,,,,,,,,,,,,,,,,,,,,,,,,,,,,,,,,,,,,,,,,,
1656263503.696523,84.000000,0.000000,4290.769043,4238.974121,4119.487305,4100.512695,4215.384766,450.000000,4.000000,95.000000,,,,0.000000,4.000000,4.000000,4.000000,4.000000,4.000000,100.000000,,,,,,,,,,,,,,,,,,,,,,,,,,,,,,,,,,,,,,,,,,,,,,,,,,,,,,,,,,,,,,,
1656263503.704338,85.000000,0.000000,4292.820313,4226.153809,4116.922852,4110.256348,4222.051270,450.000000,4.000000,95.000000,,,,0.000000,4.000000,4.000000,4.000000,4.000000,4.000000,100.000000,,,,,,,,,,,,,,,,,,,,,,,,,,,,,,,,,,,,,,,,,,,,,,,,,,,,,,,,,,,,,,,
1656263503.712252,86.000000,0.000000,4278.974121,4238.974121,4113.333496,4126.666504,4224.615234,450.000000,4.000000,95.000000,,,,0.000000,4.000000,4.000000,4.000000,4.000000,4.000000,100.000000,,,,,,,,,,,,,,,,,,,,,,,,,,,,,,,,,,,,,,,,,,,,,,,,,,,,,,,,,,,,,,,
1656263503.720066,87.000000,0.000000,4269.230957,4243.589844,4106.666504,4117.436035,4222.563965,16196.000000,4.000000,95.000000,,,,0.000000,4.000000,4.000000,4.000000,4.000000,4.000000,100.000000,,,,,,,,,,,,,,,,,,,,,,,,,,,,,,,,,,,,,,,,,,,,,,,,,,,,,,,,,,,,,,,
1656263503.727981,88.000000,0.000000,4277.948730,4236.922852,4092.307617,4102.563965,4222.563965,450.000000,4.000000,95.000000,,,,0.000000,4.000000,4.000000,4.000000,4.000000,4.000000,100.000000,,,,,,,,,,,,,,,,,,,,,,,,,,,,,,,,,,,,,,,2.836650,1.015699,0.598627,1.753198,0.740735,1.570777,0.477913,1.155962,0.635575,0.367913,18.859770,26.934723,6.451603,2.402551,0.679530,0.688599,2.029952,0.936845,0.863212,0.581877,4.624240,1.740867,1.585382,1.060424,0.588871
1656263503.735795,89.000000,0.000000,4278.974121,4235.384766,4089.230713,4114.871582,4222.051270,450.000000,4.000000,95.000000,,,,0.000000,4.000000,4.000000,4.000000,4.000000,4.000000,100.000000,,,,,,,,,,,,,,,,,,,,,,,,,,,,,,,,,,,,,,,,,,,,,,,,,,,,,,,,,,,,,,,
1656263503.743609,90.000000,0.000000,4266.666504,4237.436035,4106.153809,4124.102539,4213.333496,450.000000,4.000000,95.000000,,,,0.000000,4.000000,4.000000,4.000000,4.000000,4.000000,100.000000,,,,,,,,,,,,,,,,,,,,,,,,,,,,,,,,,,,,,,,,,,,,,,,,,,,,,,,,,,,,,,,
1656263503.751524,91.000000,0.000000,4276.922852,4249.230957,4120.512695,4113.333496,4218.461426,16196.000000,4.000000,95.000000,,,,0.000000,4.000000,4.000000,4.000000,4.000000,4.000000,100.000000,,,,,,,,,,,,,,,,,,,,,,,,,,,,,,,,,,,,,,,,,,,,,,,,,,,,,,,,,,,,,,,
1656263503.759438,92.000000,0.000000,4287.692383,4260.000000,4125.128418,4110.769043,4234.871582,450.000000,4.000000,95.000000,,,,0.000000,4.000000,4.000000,4.000000,4.000000,4.000000,100.000000,,,,,,,,,,,,,,,,,,,,,,,,,,,,,,,,,,,,,,,,,,,,,,,,,,,,,,,,,,,,,,,
1656263503.767252,93.000000,0.000000,4273.846191,4244.615234,4128.717773,4114.871582,4229.230957,450.000000,4.000000,95.000000,,,,0.000000,4.000000,4.000000,4.000000,4.000000,4.000000,100.000000,,,,,,,,,,,,,,,,,,,,,,,,,,,,,,,,,,,,,,,,,,,,,,,,,,,,,,,,,,,,,,,
1656263503.775167,94.000000,0.000000,4266.153809,4229.743652,4126.666504,4109.743652,4213.846191,450.000000,4.000000,95.000000,,,,0.000000,4.000000,4.000000,4.000000,4.000000,4.000000,100.000000,,,,,,,,,,,,,,,,,,,,,,,,,,,,,,,,,,,,,,,,,,,,,,,,,,,,,,,,,,,,,,,
1656263503.782981,95.000000,0.000000,4278.461426,4241.025879,4127.692383,4094.358887,4220.000000,16196.000000,4.000000,95.000000,,,,0.000000,4.000000,4.000000,4.000000,4.000000,4.000000,100.000000,,,,,,,,,,,,,,,,,,,,,,,,,,,,,,,,,,,,,,,,,,,,,,,,,,,,,,,,,,,,,,,
1656263503.790896,96.000000,0.000000,4298.461426,4245.128418,4133.333496,4095.384521,4236.922852,450.000000,4.000000,95.000000,,,,0.000000,4.000000,4.000000,4.000000,4.000000,4.000000,100.000000,,,,,,,,,,,,,,,,,,,,,,,,,,,,,,,,,,,,,,,,,,,,,,,,,,,,,,,,,,,,,,,
1656263503.798710,97.000000,0.000000,4303.589844,4233.846191,4119.487305,4112.307617,4231.282227,450.000000,4.000000,95.000000,,,,0.000000,4.000000,4.000000,4.000000,4.000000,4.000000,100.000000,,,,,,,,,,,,,,,,,,,,,,,,,,,,,,,,,,,,,,,,,,,,,,,,,,,,,,,,,,,,,,,
1656263503.806624,98.000000,0.000000,4301.538574,4234.871582,4105.128418,4111.794922,4226.153809,450.000000,4.000000,95.000000,,,,0.000000,4.000000,4.000000,4.000000,4.000000,4.000000,100.000000,,,,,,,,,,,,,,,,,,,,,,,,,,,,,,,,,,,,,,,,,,,,,,,,,,,,,,,,,,,,,,,
1656263503.814439,99.000000,0.000000,4298.461426,4238.461426,4090.256348,4105.128418,4228.717773,16196.000000,4.000000,95.000000,,,,0.000000,4.000000,4.000000,4.000000,4.000000,4.000000,100.000000,,,,,,,,,,,,,,,,,,,,,,,,,,,,,,,,,,,,,,,,,,,,,,,,,,,,,,,,,,,,,,,
1656263503.822353,100.000000,0.000000,4278.461426,4229.743652,4069.743652,4113.846191,4216.922852,450.000000,4.000000,95.000000,,,,0.000000,4.000000,4.000000,4.000000,4.000000,4.000000,100.000000,,,,,,,,,,,,,,,,,,,,,,,,,,,,,,,,,,,,,,,,,,,,,,,,,,,,,,,,,,,,,,,
1656263503.830167,101.000000,0.000000,4273.333496,4233.333496,4089.230713,4118.974121,4208.205078,450.000000,4.000000,95.000000,,,,0.000000,4.000000,4.000000,4.000000,4.000000,4.000000,100.000000,,,,,,,,,,,,,,,,,,,,,,,,,,,,,,,,,,,,,,,,,,,,,,,,,,,,,,,,,,,,,,,
1656263503.838082,102.000000,0.000000,4298.461426,4244.102539,4115.384766,4114.358887,4214.358887,450.000000,4.000000,95.000000,,,,0.000000,4.000000,4.000000,4.000000,4.000000,4.000000,100.000000,,,,,,,,,,,,,,,,,,,,,,,,,,,,,,,,,,,,,,,,,,,,,,,,,,,,,,,,,,,,,,,
1656263503.845896,103.000000,0.000000,4303.077148,4239.487305,4095.897461,4108.717773,4221.538574,16196.000000,4.000000,95.000000,,,,0.000000,4.000000,4.000000,4.000000,4.000000,4.000000,100.000000,,,,,,,,,,,,,,,,,,,,,,,,,,,,,,,,,,,,,,,,,,,,,,,,,,,,,,,,,,,,,,,
1656263503.853810,104.000000,0.000000,4276.410156,4227.179688,4080.000000,4094.358887,4213.333496,450.000000,4.000000,95.000000,,,,0.000000,4.000000,4.000000,4.000000,4.000000,4.000000,100.000000,0.968750,100.000000,4.000000,4.000000,4.000000,4.000000,4.000000,,,,,,,,,,,,,,,,,,,,,,,,,,,,,,,,2.725318,0.977768,0.606286,1.445531,0.799241,1.443664,0.538397,1.299302,0.669969,0.416559,18.635300,24.149742,6.376467,2.271213,0.634369,0.643125,2.039741,0.805106,0.910832,0.610768,3.894244,1.656154,1.277783,0.933592,0.635364
1656263503.861625,105.000000,0.000000,4273.846191,4222.051270,4089.743652,4089.743652,4206.153809,450.000000,4.000000,95.000000,,,,0.000000,4.000000,4.000000,4.000000,4.000000,4.000000,100.000000,,,,,,,,,,,,,,,,,,,,,,,,,,,,,,,,,,,,,,,,,,,,,,,,,,,,,,,,,,,,,,,
1656263503.869539,106.000000,0.000000,4289.230957,4225.641113,4079.487061,4097.948730,4220.512695,450.000000,4.000000,95.000000,,,,0.000000,4.000000,4.000000,4.000000,4.000000,4.000000,100.000000,,,,,,,,,,,,,,,,,,,,,,,,,,,,,,,,,,,,,,,,,,,,,,,,,,,,,,,,,,,,,,,
1656263503.877353,107.000000,0.000000,4284.615234,4233.846191,4063.589844,4091.794922,4229.230957,16196.000000,4.000000,95.000000,,,,0.000000,4.000000,4.000000,4.000000,4.000000,4.000000,100.000000,,,,,,,,,,,,,,,,,,,,,,,,,,,,,,,,,,,,,,,,,,,,,,,,,,,,,,,,,,,,,,,
1656263503.885268,108.000000,0.000000,4287.692383,4244.102539,4071.794922,4091.794922,4223.077148,450.000000,4.000000,95.000000,,,,0.000000,4.000000,4.000000,4.000000,4.000000,4.000000,100.000000,,,,,,,,,,,,,,,,,,,,,,,,,,,,,,,,,,,,,,,,,,,,,,,,,,,,,,,,,,,,,,,
1656263503.893082,109.000000,0.000000,4291.794922,4240.000000,4066.153809,4091.281982,4216.410156,450.000000,4.000000,95.000000,,,,0.000000,4.000000,4.000000,4.000000,4.000000,4.000000,100.000000,,,,,,,,,,,,,,,,,,,,,,,,,,,,,,,,,,,,,,,,,,,,,,,,,,,,,,,,,,,,,,,
1656263503.900996,110.000000,0.000000,4277.436035,4225.641113,4038.461426,4064.615479,4210.256348,450.000000,4.000000,95.000000,,,,0.000000,4.000000,4.000000,4.000000,4.000000,4.000000,100.000000,,,,,,,,,,,,,,,,,,,,,,,,,,,,,,,,,,,,,,,,,,,,,,,,,,,,,,,,,,,,,,,
1656263503.908811,111.000000,0.000000,4272.820313,4231.282227,4015.897461,4056.923096,4208.717773,16196.000000,4.000000,95.000000,,,,0.000000,4.000000,4.000000,4.000000,4.000000,4.000000,100.000000,,,,,,,,,,,,,,,,,,,,,,,,,,,,,,,,,,,,,,,,,,,,,,,,,,,,,,,,,,,,,,,
1656263503.916525,112.000000,0.000000,4277.436035,4236.410156,4015.897461,4078.974365,4217.948730,450.000000,4.000000,95.000000,,,,0.000000,4.000000,4.000000,4.000000,4.000000,4.000000,100.000000,,,,,,,,,,,,,,,,,,,,,,,,,,,,,,,,,,,,,,,,,,,,,,,,,,,,,,,,,,,,,,,
1656263503.924440,113.000000,0.000000,4278.974121,4229.743652,4042.051270,4099.487305,4224.102539,450.000000,4.000000,95.000000,,,,0.000000,4.000000,4.000000,4.000000,4.000000,4.000000,100.000000,,,,,,,,,,,,,,,,,,,,,,,,,,,,,,,,,,,,,,,,,,,,,,,,,,,,,,,,,,,,,,,
1656263503.932254,114.000000,0.000000,4290.256348,4250.256348,4063.589844,4109.743652,4227.692383,450.000000,4.000000,95.000000,,,,0.000000,4.000000,4.000000,4.000000,4.000000,4.000000,100.000000,,,,,,,,,,,,,,,,,,,,,,,,,,,,,,,,,,,,,,,,,,,,,,,,,,,,,,,,,,,,,,,
1656263503.940168,115.000000,0.000000,4293.333496,4265.128418,4068.718018,4095.897461,4226.153809,16196.000000,4.000000,95.000000,,,,0.000000,4.000000,4.000000,4.000000,4.000000,4.000000,100.000000,,,,,,,,,,,,,,,,,,,,,,,,,,,,,,,,,,,,,,,,,,,,,,,,,,,,,,,,,,,,,,,
1656263503.947983,116.000000,0.000000,4279.487305,4240.512695,4069.230713,4078.974365,4223.589844,450.000000,4.000000,95.000000,,,,0.000000,4.000000,4.000000,4.000000,4.000000,4.000000,100.000000,,,,,,,,,,,,,,,,,,,,,,,,,,,,,,,,,,,,,,,,,,,,,,,,,,,,,,,,,,,,,,,
1656263503.955797,117.000000,0.000000,4270.256348,4241.025879,4067.179443,4095.384521,4225.128418,450.000000,4.000000,95.000000,,,,0.000000,4.000000,4.000000,4.000000,4.000000,4.000000,100.000000,,,,,,,,,,,,,,,,,,,,,,,,,,,,,,,,,,,,,,,,,,,,,,,,,,,,,,,,,,,,,,,
1656263503.963512,118.000000,0.000000,4274.358887,4266.153809,4065.641113,4111.282227,4222.051270,450.000000,4.000000,95.000000,,,,0.000000,4.000000,4.000000,4.000000,4.000000,4.000000,100.000000,,,,,,,,,,,,,,,,,,,,,,,,,,,,,,,,,,,,,,,,,,,,,,,,,,,,,,,,,,,,,,,
1656263503.971426,119.000000,0.000000,4275.384766,4254.358887,4061.538574,4088.718018,4213.333496,16196.000000,4.000000,95.000000,,,,0.000000,4.000000,4.000000,4.000000,4.000000,4.000000,100.000000,,,,,,,,,,,,,,,,,,,,,,,,,,,,,,,,,,,,,,,,,,,,,,,,,,,,,,,,,,,,,,,
1656263503.979240,120.000000,0.000000,4272.307617,4227.692383,4058.461426,4068.718018,4213.333496,450.000000,4.000000,95.000000,,,,0.000000,4.000000,4.000000,4.000000,4.000000,4.000000,100.000000,,,,,,,,,,,,,,,,,,,,,,,,,,,,,,,,,,,,,,,2.609381,1.006069,0.607352,1.197874,0.822606,1.345239,0.634188,1.390165,0.713339,0.511537,18.215223,20.328012,5.772522,2.246124,0.628276,0.706552,2.040016,0.720798,0.965417,0.627190,3.173129,1.603873,1.020503,0.833518,0.659807
1656263503.987155,121.000000,0.000000,4275.897461,4225.128418,4076.410156,4089.743652,4216.922852,450.000000,4.000000,95.000000,,,,0.000000,4.000000,4.000000,4.000000,4.000000,4.000000,100.000000,,,,,,,,,,,,,,,,,,,,,,,,,,,,,,,,,,,,,,,,,,,,,,,,,,,,,,,,,,,,,,,
1656263503.994969,122.000000,0.000000,4281.538574,4233.333496,4094.871826,4100.000000,4221.025879,450.000000,4.000000,95.000000,,,,0.000000,4.000000,4.000000,4.000000,4.000000,4.000000,100.000000,,,,,,,,,,,,,,,,,,,,,,,,,,,,,,,,,,,,,,,,,,,,,,,,,,,,,,,,,,,,,,,
1656263504.002883,123.000000,0.000000,4280.512695,4241.025879,4095.897461,4073.846191,4229.743652,16196.000000,4.000000,95.000000,,,,0.000000,4.000000,4.000000,4.000000,4.000000,4.000000,100.000000,,,,,,,,,,,,,,,,,,,,,,,,,,,,,,,,,,,,,,,,,,,,,,,,,,,,,,,,,,,,,,,
1656263504.010698,124.000000,0.000000,4282.563965,4244.615234,4089.743652,4074.871826,4227.179688,450.000000,4.000000,95.000000,,,,0.000000,4.000000,4.000000,4.000000,4.000000,4.000000,100.000000,,,,,,,,,,,,,,,,,,,,,,,,,,,,,,,,,,,,,,,,,,,,,,,,,,,,,,,,,,,,,,,
1656263504.018612,125.000000,0.000000,4291.282227,4237.948730,4066.666748,4097.436035,4217.436035,450.000000,4.000000,95.000000,,,,0.000000,4.000000,4.000000,4.000000,4.000000,4.000000,100.000000,,,,,,,,,,,,,,,,,,,,,,,,,,,,,,,,,,,,,,,,,,,,,,,,,,,,,,,,,,,,,,,
1656263504.026427,126.000000,0.000000,4293.333496,4236.922852,4044.615479,4093.846191,4228.717773,450.000000,4.000000,95.000000,,,,0.000000,4.000000,4.000000,4.000000,4.000000,4.000000,100.000000,,,,,,,,,,,,,,,,,,,,,,,,,,,,,,,,,,,,,,,,,,,,,,,,,,,,,,,,,,,,,,,
1656263504.034341,127.000000,0.000000,4293.846191,4250.256348,4051.794922,4092.307617,4247.692383,243.000000,4.000000,95.000000,,,,0.000000,4.000000,4.000000,4.000000,4.000000,4.000000,100.000000,,,,,,,,,,,,,,,,,,,,,,,,,,,,,,,,,,,,,,,,,,,,,,,,,,,,,,,,,,,,,,,
1656263504.042155,0.000000,0.000000,4298.461426,4256.922852,4060.512939,4102.051270,4253.846191,450.000000,4.000000,95.000000,,,,0.000000,4.000000,4.000000,4.000000,4.000000,4.000000,100.000000,,,,,,,,,,,,,,,,,,,,,,,,,,,,,,,,,,,,,,,,,,,,,,,,,,,,,,,,,,,,,,,
1656263504.050070,1.000000,0.000000,4296.410156,4243.589844,4056.410156,4098.974121,4250.256348,450.000000,4.000000,95.000000,,,,0.000000,4.000000,4.000000,4.000000,4.000000,4.000000,100.000000,,,,,,,,,,,,,,,,,,,,,,,,,,,,,,,,,,,,,,,,,,,,,,,,,,,,,,,,,,,,,,,
1656263504.057984,2.000000,0.000000,4283.077148,4223.077148,4053.846191,4096.922852,4233.333496,16242.000000,4.000000,95.000000,,,,0.000000,4.000000,4.000000,4.000000,4.000000,4.000000,100.000000,,,,,,,,,,,,,,,,,,,,,,,,,,,,,,,,,,,,,,,,,,,,,,,,,,,,,,,,,,,,,,,
1656263504.065798,3.000000,0.000000,4266.153809,4224.102539,4048.205078,4103.077148,4217.436035,450.000000,4.000000,95.000000,,,,0.000000,4.000000,4.000000,4.000000,4.000000,4.000000,100.000000,,,,,,,,,,,,,,,,,,,,,,,,,,,,,,,,,,,,,,,,,,,,,,,,,,,,,,,,,,,,,,,
1656263504.073713,4.000000,0.000000,4268.205078,4238.974121,4045.128174,4091.794922,4228.205078,16202.000000,4.000000,95.000000,,,,0.000000,4.000000,4.000000,4.000000,4.000000,4.000000,100.000000,,,,,,,,,,,,,,,,,,,,,,,,,,,,,,,,,,,,,,,,,,,,,,,,,,,,,,,,,,,,,,,
1656263504.081527,5.000000,0.000000,4282.051270,4247.692383,4046.153809,4076.410156,4239.487305,450.000000,4.000000,95.000000,,,,0.000000,4.000000,4.000000,4.000000,4.000000,4.000000,100.000000,,,,,,,,,,,,,,,,,,,,,,,,,,,,,,,,,,,,,,,,,,,,,,,,,,,,,,,,,,,,,,,
1656263504.089341,6.000000,0.000000,4284.615234,4253.333496,4042.051270,4087.179443,4235.384766,16224.000000,4.000000,95.000000,,,,0.000000,4.000000,4.000000,4.000000,4.000000,4.000000,100.000000,,,,,,,,,,,,,,,,,,,,,,,,,,,,,,,,,,,,,,,,,,,,,,,,,,,,,,,,,,,,,,,
1656263504.097056,7.000000,0.000000,4282.051270,4248.717773,4031.794922,4105.641113,4242.563965,450.000000,4.000000,95.000000,,,,0.000000,4.000000,4.000000,4.000000,4.000000,4.000000,100.000000,,,,,,,,,,,,,,,,,,,,,,,,,,,,,,,,,,,,,,,,,,,,,,,,,,,,,,,,,,,,,,,
1656263504.104970,8.000000,0.000000,4276.922852,4239.487305,4022.051270,4099.487305,4246.153809,450.000000,4.000000,95.000000,,,,0.000000,4.000000,4.000000,4.000000,4.000000,4.000000,100.000000,,,,,,,,,,,,,,,,,,,,,,,,,,,,,,,,,,,,,,,2.526678,1.059166,0.605046,1.029895,0.798179,1.367765,0.731715,1.402131,0.752414,0.638902,17.219646,16.154755,4.785919,2.250432,0.666367,0.845839,1.986276,0.685539,0.995060,0.625788,2.606190,1.557625,0.859404,0.767280,0.651353
1656263504.112785,9.000000,0.000000,4269.230957,4224.102539,4018.461426,4083.589844,4219.487305,16222.000000,4.000000,95.000000,,,,0.000000,4.000000,4.000000,4.000000,4.000000,4.000000,100.000000,,,,,,,,,,,,,,,,,,,,,,,,,,,,,,,,,,,,,,,,,,,,,,,,,,,,,,,,,,,,,,,
1656263504.120599,10.000000,0.000000,4264.615234,4200.512695,4018.974365,4083.589844,4194.358887,450.000000,4.000000,95.000000,,,,0.000000,4.000000,4.000000,4.000000,4.000000,4.000000,100.000000,,,,,,,,,,,,,,,,,,,,,,,,,,,,,,,,,,,,,,,,,,,,,,,,,,,,,,,,,,,,,,,
1656263504.128314,11.000000,0.000000,4262.051270,4200.512695,4020.512939,4089.230713,4201.538574,16147.000000,4.000000,95.000000,,,,0.000000,4.000000,4.000000,4.000000,4.000000,4.000000,100.000000,,,,,,,,,,,,,,,,,,,,,,,,,,,,,,,,,,,,,,,,,,,,,,,,,,,,,,,,,,,,,,,
1656263504.136228,12.000000,0.000000,4244.615234,4209.230957,4022.564209,4081.538574,4201.538574,450.000000,4.000000,95.000000,,,,0.000000,4.000000,4.000000,4.000000,4.000000,4.000000,100.000000,,,,,,,,,,,,,,,,,,,,,,,,,,,,,,,,,,,,,,,,,,,,,,,,,,,,,,,,,,,,,,,
1656263504.144042,13.000000,0.000000,4233.846191,4202.051270,4029.743652,4073.846191,4180.512695,450.000000,4.000000,95.000000,,,,0.000000,4.000000,4.000000,4.000000,4.000000,4.000000,100.000000,,,,,,,,,,,,,,,,,,,,,,,,,,,,,,,,,,,,,,,,,,,,,,,,,,,,,,,,,,,,,,,
1656263504.151857,14.000000,0.000000,4246.153809,4202.563965,4038.461426,4076.410156,4189.230957,450.000000,4.000000,95.000000,,,,0.000000,4.000000,4.000000,4.000000,4.000000,4.000000,100.000000,,,,,,,,,,,,,,,,,,,,,,,,,,,,,,,,,,,,,,,,,,,,,,,,,,,,,,,,,,,,,,,
1656263504.159571,15.000000,0.000000,4250.256348,4215.384766,4035.384521,4073.846191,4216.922852,16147.000000,4.000000,95.000000,,,,0.000000,4.000000,4.000000,4.000000,4.000000,4.000000,100.000000,,,,,,,,,,,,,,,,,,,,,,,,,,,,,,,,,,,,,,,,,,,,,,,,,,,,,,,,,,,,,,,
1656263504.167486,16.000000,0.000000,4237.436035,4228.205078,4032.307617,4070.256348,4208.717773,0.000000,4.000000,95.000000,,,,0.000000,4.000000,4.000000,4.000000,4.000000,4.000000,100.000000,,,,,,,,,,,,,,,,,,,,,,,,,,,,,,,,,,,,,,,,,,,,,,,,,,,,,,,,,,,,,,,
1656263504.175300,17.000000,0.000000,4225.128418,4234.358887,4042.564209,4075.384521,4185.641113,0.000000,4.000000,95.000000,,,,0.000000,4.000000,4.000000,4.000000,4.000000,4.000000,100.000000,,,,,,,,,,,,,,,,,,,,,,,,,,,,,,,,,,,,,,,,,,,,,,,,,,,,,,,,,,,,,,,
1656263504.183214,18.000000,0.000000,4241.025879,4223.589844,4054.871826,4081.025635,4203.077148,0.000000,4.000000,95.000000,,,,0.000000,4.000000,4.000000,4.000000,4.000000,4.000000,100.000000,,,,,,,,,,,,,,,,,,,,,,,,,,,,,,,,,,,,,,,,,,,,,,,,,,,,,,,,,,,,,,,
1656263504.191029,19.000000,0.000000,4272.307617,4214.358887,4049.230713,4081.025635,4230.769043,0.000000,4.000000,95.000000,,,,0.000000,4.000000,4.000000,4.000000,4.000000,4.000000,100.000000,,,,,,,,,,,,,,,,,,,,,,,,,,,,,,,,,,,,,,,,,,,,,,,,,,,,,,,,,,,,,,,
1656263504.198943,20.000000,0.000000,4264.102539,4215.384766,4030.769287,4078.974365,4219.487305,0.000000,4.000000,95.000000,,,,0.000000,4.000000,4.000000,4.000000,4.000000,4.000000,100.000000,,,,,,,,,,,,,,,,,,,,,,,,,,,,,,,,,,,,,,,,,,,,,,,,,,,,,,,,,,,,,,,
1656263504.206857,21.000000,0.000000,4236.922852,4213.333496,4017.435791,4074.871826,4206.666504,0.000000,4.000000,95.000000,,,,0.000000,4.000000,4.000000,4.000000,4.000000,4.000000,100.000000,,,,,,,,,,,,,,,,,,,,,,,,,,,,,,,,,,,,,,,,,,,,,,,,,,,,,,,,,,,,,,,
1656263504.214672,22.000000,0.000000,4242.563965,4228.205078,3999.487061,4075.897461,4218.461426,0.000000,4.000000,95.000000,,,,0.000000,4.000000,4.000000,4.000000,4.000000,4.000000,100.000000,,,,,,,,,,,,,,,,,,,,,,,,,,,,,,,,,,,,,,,,,,,,,,,,,,,,,,,,,,,,,,,
1656263504.222586,23.000000,0.000000,4259.487305,4253.333496,3982.564209,4085.128174,4227.179688,0.000000,4.000000,95.000000,,,,0.000000,4.000000,4.000000,4.000000,4.000000,4.000000,100.000000,,,,,,,,,,,,,,,,,,,,,,,,,,,,,,,,,,,,,,,,,,,,,,,,,,,,,,,,,,,,,,,
1656263504.230400,24.000000,0.000000,4268.717773,4250.256348,3996.410156,4096.922852,4238.461426,0.000000,4.000000,95.000000,,,,0.000000,4.000000,4.000000,4.000000,4.000000,4.000000,100.000000,,,,,,,,,,,,,,,,,,,,,,,,,,,,,,,,,,,,,,,2.482096,1.132814,0.603198,0.937907,0.728939,1.565642,0.811133,1.328401,0.777912,0.771684,15.526242,12.425587,3.725370,2.221065,0.735670,1.008007,1.898716,0.690287,0.983267,0.612782,2.238044,1.503916,0.782039,0.730620,0.610750
1656263504.238215,25.000000,0.000000,4277.948730,4234.871582,4028.205078,4102.051270,4245.641113,0.000000,4.000000,95.000000,,,,0.000000,4.000000,4.000000,4.000000,4.000000,4.000000,100.000000,,,,,,,,,,,,,,,,,,,,,,,,,,,,,,,,,,,,,,,,,,,,,,,,,,,,,,,,,,,,,,,
1656263504.246029,26.000000,0.000000,4274.358887,4235.384766,4043.589844,4100.000000,4229.743652,0.000000,4.000000,95.000000,,,,0.000000,4.000000,4.000000,4.000000,4.000000,4.000000,100.000000,,,,,,,,,,,,,,,,,,,,,,,,,,,,,,,,,,,,,,,,,,,,,,,,,,,,,,,,,,,,,,,
1656263504.253844,27.000000,0.000000,4262.563965,4247.179688,4033.333252,4095.897461,4223.077148,0.000000,4.000000,95.000000,,,,0.000000,4.000000,4.000000,4.000000,4.000000,4.000000,100.000000,,,,,,,,,,,,,,,,,,,,,,,,,,,,,,,,,,,,,,,,,,,,,,,,,,,,,,,,,,,,,,,
1656263504.261558,28.000000,0.000000,4257.436035,4242.563965,4015.384521,4094.358887,4226.153809,0.000000,4.000000,95.000000,,,,0.000000,4.000000,4.000000,4.000000,4.000000,4.000000,100.000000,,,,,,,,,,,,,,,,,,,,,,,,,,,,,,,,,,,,,,,,,,,,,,,,,,,,,,,,,,,,,,,
1656263504.269373,29.000000,0.000000,4268.205078,4233.846191,4023.076904,4106.153809,4225.641113,0.000000,4.000000,95.000000,,,,0.000000,4.000000,4.000000,4.000000,4.000000,4.000000,100.000000,,,,,,,,,,,,,,,,,,,,,,,,,,,,,,,,,,,,,,,,,,,,,,,,,,,,,,,,,,,,,,,
1656263504.277087,30.000000,0.000000,4279.487305,4244.615234,4049.743652,4114.871582,4232.307617,0.000000,4.000000,95.000000,,,,0.000000,4.000000,4.000000,4.000000,4.000000,4.000000,100.000000,,,,,,,,,,,,,,,,,,,,,,,,,,,,,,,,,,,,,,,,,,,,,,,,,,,,,,,,,,,,,,,
1656263504.284901,31.000000,0.000000,4275.897461,4242.563965,4052.820557,4109.230957,4233.333496,0.000000,4.000000,95.000000,,,,0.000000,4.000000,4.000000,4.000000,4.000000,4.000000,100.000000,,,,,,,,,,,,,,,,,,,,,,,,,,,,,,,,,,,,,,,,,,,,,,,,,,,,,,,,,,,,,,,
1656263504.292616,32.000000,0.000000,4272.307617,4235.384766,4021.538574,4106.666504,4226.666504,0.000000,4.000000,95.000000,,,,0.000000,4.000000,4.000000,4.000000,4.000000,4.000000,100.000000,,,,,,,,,,,,,,,,,,,,,,,,,,,,,,,,,,,,,,,,,,,,,,,,,,,,,,,,,,,,,,,
1656263504.300430,33.000000,0.000000,4274.358887,4252.307617,4000.512939,4102.563965,4222.563965,0.000000,4.000000,95.000000,,,,0.000000,4.000000,4.000000,4.000000,4.000000,4.000000,100.000000,,,,,,,,,,,,,,,,,,,,,,,,,,,,,,,,,,,,,,,,,,,,,,,,,,,,,,,,,,,,,,,
1656263504.308145,34.000000,0.000000,4275.897461,4258.974121,4019.487061,4095.384521,4217.436035,0.000000,4.000000,95.000000,,,,0.000000,4.000000,4.000000,4.000000,4.000000,4.000000,100.000000,,,,,,,,,,,,,,,,,,,,,,,,,,,,,,,,,,,,,,,,,,,,,,,,,,,,,,,,,,,,,,,
1656263504.316059,35.000000,0.000000,4268.717773,4238.461426,4056.410156,4090.256348,4213.846191,0.000000,4.000000,95.000000,,,,0.000000,4.000000,4.000000,4.000000,4.000000,4.000000,100.000000,,,,,,,,,,,,,,,,,,,,,,,,,,,,,,,,,,,,,,,,,,,,,,,,,,,,,,,,,,,,,,,
1656263504.323874,36.000000,0.000000,4257.948730,4234.358887,4079.487061,4082.564209,4218.461426,0.000000,4.000000,95.000000,,,,0.000000,4.000000,4.000000,4.000000,4.000000,4.000000,100.000000,,,,,,,,,,,,,,,,,,,,,,,,,,,,,,,,,,,,,,,,,,,,,,,,,,,,,,,,,,,,,,,
1656263504.331688,37.000000,0.000000,4261.025879,4243.077148,4088.205078,4076.410156,4220.512695,0.000000,4.000000,95.000000,,,,0.000000,4.000000,4.000000,4.000000,4.000000,4.000000,100.000000,,,,,,,,,,,,,,,,,,,,,,,,,,,,,,,,,,,,,,,,,,,,,,,,,,,,,,,,,,,,,,,
1656263504.339402,38.000000,0.000000,4273.333496,4232.820313,4094.871826,4077.948730,4212.307617,0.000000,4.000000,95.000000,,,,0.000000,4.000000,4.000000,4.000000,4.000000,4.000000,100.000000,,,,,,,,,,,,,,,,,,,,,,,,,,,,,,,,,,,,,,,,,,,,,,,,,,,,,,,,,,,,,,,
1656263504.347217,39.000000,0.000000,4270.769043,4231.282227,4092.820557,4084.102539,4213.333496,0.000000,4.000000,95.000000,,,,0.000000,4.000000,4.000000,4.000000,4.000000,4.000000,100.000000,,,,,,,,,,,,,,,,,,,,,,,,,,,,,,,,,,,,,,,,,,,,,,,,,,,,,,,,,,,,,,,
1656263504.354931,40.000000,0.000000,4254.871582,4245.128418,4080.512939,4088.205078,4218.461426,0.000000,4.000000,95.000000,,,,0.000000,4.000000,4.000000,4.000000,4.000000,4.000000,100.000000,0.968750,100.000000,4.000000,4.000000,4.000000,4.000000,4.000000,,,,,,,,,,,,,,,,,,,,,,,,,,,,,,,,2.469614,1.228362,0.606054,0.902077,0.635097,1.937650,0.866160,1.222497,0.787634,0.876298,13.446330,9.703225,2.908761,2.145152,0.807601,1.153785,1.828953,0.712179,0.939558,0.605569,2.073110,1.445351,0.761553,0.722210,0.550886
1656263504.362846,41.000000,0.000000,4242.051270,4244.102539,4064.102539,4089.230713,4212.820313,0.000000,4.000000,95.000000,,,,0.000000,4.000000,4.000000,4.000000,4.000000,4.000000,100.000000,,,,,,,,,,,,,,,,,,,,,,,,,,,,,,,,,,,,,,,,,,,,,,,,,,,,,,,,,,,,,,,
1656263504.370660,42.000000,0.000000,4242.051270,4228.717773,4053.333252,4083.589844,4208.717773,0.000000,4.000000,95.000000,,,,0.000000,4.000000,4.000000,4.000000,4.000000,4.000000,100.000000,,,,,,,,,,,,,,,,,,,,,,,,,,,,,,,,,,,,,,,,,,,,,,,,,,,,,,,,,,,,,,,
1656263504.378574,43.000000,0.000000,4251.282227,4217.436035,4061.538574,4080.000000,4205.641113,0.000000,4.000000,95.000000,,,,0.000000,4.000000,4.000000,4.000000,4.000000,4.000000,100.000000,,,,,,,,,,,,,,,,,,,,,,,,,,,,,,,,,,,,,,,,,,,,,,,,,,,,,,,,,,,,,,,
1656263504.386389,44.000000,0.000000,4253.333496,4224.615234,4080.000000,4087.179443,4199.487305,0.000000,4.000000,95.000000,,,,0.000000,4.000000,4.000000,4.000000,4.000000,4.000000,100.000000,,,,,,,,,,,,,,,,,,,,,,,,,,,,,,,,,,,,,,,,,,,,,,,,,,,,,,,,,,,,,,,
1656263504.394303,45.000000,0.000000,4250.769043,4238.974121,4071.794922,4091.794922,4207.179688,0.000000,4.000000,95.000000,,,,0.000000,4.000000,4.000000,4.000000,4.000000,4.000000,100.000000,,,,,,,,,,,,,,,,,,,,,,,,,,,,,,,,,,,,,,,,,,,,,,,,,,,,,,,,,,,,,,,
1656263504.402118,46.000000,0.000000,4257.948730,4240.512695,4051.794922,4086.666748,4225.641113,0.000000,4.000000,95.000000,,,,0.000000,4.000000,4.000000,4.000000,4.000000,4.000000,100.000000,,,,,,,,,,,,,,,,,,,,,,,,,,,,,,,,,,,,,,,,,,,,,,,,,,,,,,,,,,,,,,,
1656263504.410032,47.000000,0.000000,4269.743652,4229.230957,4071.794922,4085.641113,4221.538574,0.000000,4.000000,95.000000,,,,0.000000,4.000000,4.000000,4.000000,4.000000,4.000000,100.000000,,,,,,,,,,,,,,,,,,,,,,,,,,,,,,,,,,,,,,,,,,,,,,,,,,,,,,,,,,,,,,,
1656263504.417846,48.000000,0.000000,4263.589844,4229.230957,4092.307617,4091.794922,4198.974121,0.000000,4.000000,95.000000,,,,0.000000,4.000000,4.000000,4.000000,4.000000,4.000000,100.000000,,,,,,,,,,,,,,,,,,,,,,,,,,,,,,,,,,,,,,,,,,,,,,,,,,,,,,,,,,,,,,,
1656263504.425761,49.000000,0.000000,4249.230957,4248.717773,4066.153809,4098.974121,4203.077148,0.000000,4.000000,95.000000,,,,0.000000,4.000000,4.000000,4.000000,4.000000,4.000000,100.000000,,,,,,,,,,,,,,,,,,,,,,,,,,,,,,,,,,,,,,,,,,,,,,,,,,,,,,,,,,,,,,,
1656263504.433575,50.000000,0.000000,4253.333496,4237.948730,4050.256348,4088.718018,4209.743652,0.000000,4.000000,95.000000,,,,0.000000,4.000000,4.000000,4.000000,4.000000,4.000000,100.000000,,,,,,,,,,,,,,,,,,,,,,,,,,,,,,,,,,,,,,,,,,,,,,,,,,,,,,,,,,,,,,,
1656263504.441289,51.000000,0.000000,4269.743652,4202.563965,4063.076904,4069.230713,4197.436035,0.000000,4.000000,95.000000,,,,0.000000,4.000000,4.000000,4.000000,4.000000,4.000000,100.000000,,,,,,,,,,,,,,,,,,,,,,,,,,,,,,,,,,,,,,,,,,,,,,,,,,,,,,,,,,,,,,,
1656263504.449104,52.000000,0.000000,4273.846191,4207.692383,4053.846191,4082.051270,4205.128418,0.000000,4.000000,95.000000,,,,0.000000,4.000000,4.000000,4.000000,4.000000,4.000000,100.000000,,,,,,,,,,,,,,,,,,,,,,,,,,,,,,,,,,,,,,,,,,,,,,,,,,,,,,,,,,,,,,,
1656263504.456818,53.000000,0.000000,4256.410156,4240.000000,4027.692383,4096.922852,4215.897461,0.000000,4.000000,95.000000,,,,0.000000,4.000000,4.000000,4.000000,4.000000,4.000000,100.000000,,,,,,,,,,,,,,,,,,,,,,,,,,,,,,,,,,,,,,,,,,,,,,,,,,,,,,,,,,,,,,,
1656263504.464633,54.000000,0.000000,4247.179688,4234.358887,4028.718018,4078.461426,4206.666504,0.000000,4.000000,95.000000,,,,0.000000,4.000000,4.000000,4.000000,4.000000,4.000000,100.000000,,,,,,,,,,,,,,,,,,,,,,,,,,,,,,,,,,,,,,,,,,,,,,,,,,,,,,,,,,,,,,,
1656263504.472347,55.000000,0.000000,4268.717773,4222.051270,4033.846191,4086.666748,4225.128418,0.000000,4.000000,95.000000,,,,0.000000,4.000000,4.000000,4.000000,4.000000,4.000000,100.000000,,,,,,,,,,,,,,,,,,,,,,,,,,,,,,,,,,,,,,,,,,,,,,,,,,,,,,,,,,,,,,,
1656263504.480262,56.000000,0.000000,4283.077148,4244.615234,4010.256348,4120.512695,4257.436035,0.000000,4.000000,95.000000,,,,0.000000,4.000000,4.000000,4.000000,4.000000,4.000000,100.000000,,,,,,,,,,,,,,,,,,,,,,,,,,,,,,,,,,,,,,,2.544578,1.329792,0.617040,0.906758,0.548283,2.419931,0.902851,1.198474,0.790753,0.927052,11.327791,8.041949,2.540036,2.052288,0.853565,1.291107,1.805048,0.731737,0.894646,0.621235,2.189519,1.377563,0.780658,0.747735,0.496066
1656263504.488076,57.000000,0.000000,4260.000000,4256.410156,3997.435791,4111.794922,4233.333496,0.000000,4.000000,95.000000,,,,0.000000,4.000000,4.000000,4.000000,4.000000,4.000000,100.000000,,,,,,,,,,,,,,,,,,,,,,,,,,,,,,,,,,,,,,,,,,,,,,,,,,,,,,,,,,,,,,,
1656263504.495990,58.000000,0.000000,4249.743652,4226.666504,4016.410156,4089.230713,4188.717773,0.000000,4.000000,95.000000,,,,0.000000,4.000000,4.000000,4.000000,4.000000,4.000000,100.000000,,,,,,,,,,,,,,,,,,,,,,,,,,,,,,,,,,,,,,,,,,,,,,,,,,,,,,,,,,,,,,,
1656263504.503805,59.000000,0.000000,4261.025879,4204.102539,4023.589844,4095.897461,4192.307617,0.000000,4.000000,95.000000,,,,0.000000,4.000000,4.000000,4.000000,4.000000,4.000000,100.000000,,,,,,,,,,,,,,,,,,,,,,,,,,,,,,,,,,,,,,,,,,,,,,,,,,,,,,,,,,,,,,,
1656263504.511719,60.000000,0.000000,4242.563965,4211.794922,4018.974365,4084.102539,4199.487305,0.000000,4.000000,95.000000,,,,0.000000,4.000000,4.000000,4.000000,4.000000,4.000000,100.000000,,,,,,,,,,,,,,,,,,,,,,,,,,,,,,,,,,,,,,,,,,,,,,,,,,,,,,,,,,,,,,,
1656263504.519533,61.000000,0.000000,4225.128418,4227.692383,4036.923096,4056.923096,4183.077148,0.000000,4.000000,95.000000,,,,0.000000,4.000000,4.000000,4.000000,4.000000,4.000000,100.000000,,,,,,,,,,,,,,,,,,,,,,,,,,,,,,,,,,,,,,,,,,,,,,,,,,,,,,,,,,,,,,,
1656263504.527448,62.000000,0.000000,4246.153809,4239.487305,4054.871826,4068.205078,4189.230957,0.000000,4.000000,95.000000,,,,0.000000,4.000000,4.000000,4.000000,4.000000,4.000000,100.000000,,,,,,,,,,,,,,,,,,,,,,,,,,,,,,,,,,,,,,,,,,,,,,,,,,,,,,,,,,,,,,,
1656263504.535262,63.000000,0.000000,4253.333496,4230.256348,4048.718018,4085.641113,4209.230957,0.000000,4.000000,95.000000,,,,0.000000,4.000000,4.000000,4.000000,4.000000,4.000000,100.000000,,,,,,,,,,,,,,,,,,,,,,,,,,,,,,,,,,,,,,,,,,,,,,,,,,,,,,,,,,,,,,,
1656263504.543176,64.000000,0.000000,4238.974121,4212.307617,4042.051270,4089.743652,4209.230957,450.000000,4.000000,95.000000,,,,0.000000,4.000000,4.000000,4.000000,4.000000,4.000000,100.000000,,,,,,,,,,,,,,,,,,,,,,,,,,,,,,,,,,,,,,,,,,,,,,,,,,,,,,,,,,,,,,,
1656263504.550991,65.000000,0.000000,4245.128418,4213.846191,4041.025635,4118.461426,4206.153809,450.000000,4.000000,95.000000,,,,0.000000,4.000000,4.000000,4.000000,4.000000,4.000000,100.000000,,,,,,,,,,,,,,,,,,,,,,,,,,,,,,,,,,,,,,,,,,,,,,,,,,,,,,,,,,,,,,,
1656263504.558905,66.000000,0.000000,4254.358887,4222.051270,4036.923096,4143.077148,4208.717773,16209.000000,4.000000,95.000000,,,,0.000000,4.000000,4.000000,4.000000,4.000000,4.000000,100.000000,,,,,,,,,,,,,,,,,,,,,,,,,,,,,,,,,,,,,,,,,,,,,,,,,,,,,,,,,,,,,,,
1656263504.566720,67.000000,0.000000,4247.179688,4228.717773,4046.153809,4121.025879,4201.538574,450.000000,4.000000,95.000000,,,,0.000000,4.000000,4.000000,4.000000,4.000000,4.000000,100.000000,,,,,,,,,,,,,,,,,,,,,,,,,,,,,,,,,,,,,,,,,,,,,,,,,,,,,,,,,,,,,,,
1656263504.574634,68.000000,0.000000,4243.589844,4242.051270,4064.102539,4085.128174,4194.871582,16152.000000,4.000000,95.000000,,,,0.000000,4.000000,4.000000,4.000000,4.000000,4.000000,100.000000,,,,,,,,,,,,,,,,,,,,,,,,,,,,,,,,,,,,,,,,,,,,,,,,,,,,,,,,,,,,,,,
1656263504.582448,69.000000,0.000000,4245.128418,4242.051270,4071.281982,4069.743652,4190.256348,450.000000,4.000000,95.000000,,,,0.000000,4.000000,4.000000,4.000000,4.000000,4.000000,100.000000,,,,,,,,,,,,,,,,,,,,,,,,,,,,,,,,,,,,,,,,,,,,,,,,,,,,,,,,,,,,,,,
1656263504.590363,70.000000,0.000000,4250.256348,4232.307617,4064.615479,4075.384521,4186.153809,16190.000000,4.000000,95.000000,,,,0.000000,4.000000,4.000000,4.000000,4.000000,4.000000,100.000000,,,,,,,,,,,,,,,,,,,,,,,,,,,,,,,,,,,,,,,,,,,,,,,,,,,,,,,,,,,,,,,
1656263504.598177,71.000000,0.000000,4258.461426,4230.256348,4048.205078,4095.897461,4195.384766,450.000000,4.000000,95.000000,,,,0.000000,4.000000,4.000000,4.000000,4.000000,4.000000,100.000000,,,,,,,,,,,,,,,,,,,,,,,,,,,,,,,,,,,,,,,,,,,,,,,,,,,,,,,,,,,,,,,
1656263504.605892,72.000000,0.000000,4259.487305,4224.102539,4035.897461,4106.666504,4210.256348,450.000000,4.000000,95.000000,,,,0.000000,4.000000,4.000000,4.000000,4.000000,4.000000,100.000000,,,,,,,,,,,,,,,,,,,,,,,,,,,,,,,,,,,,,,,2.802841,1.406626,0.633699,0.940523,0.498803,2.908656,0.921542,1.366349,0.800408,0.917363,9.729562,7.236789,2.726110,2.012616,0.862188,1.497055,1.813104,0.737150,0.872610,0.660161,2.687227,1.283965,0.843134,0.817690,0.470890
1656263504.613706,73.000000,0.000000,4264.102539,4235.384766,4023.589844,4111.794922,4228.205078,16176.000000,4.000000,95.000000,,,,0.000000,4.000000,4.000000,4.000000,4.000000,4.000000,100.000000,,,,,,,,,,,,,,,,,,,,,,,,,,,,,,,,,,,,,,,,,,,,,,,,,,,,,,,,,,,,,,,
1656263504.621420,74.000000,0.000000,4267.179688,4250.769043,4022.564209,4118.974121,4234.358887,450.000000,4.000000,95.000000,,,,0.000000,4.000000,4.000000,4.000000,4.000000,4.000000,100.000000,,,,,,,,,,,,,,,,,,,,,,,,,,,,,,,,,,,,,,,,,,,,,,,,,,,,,,,,,,,,,,,
1656263504.629235,75.000000,0.000000,4266.153809,4229.743652,4049.230713,4116.922852,4221.538574,16206.000000,4.000000,95.000000,,,,0.000000,4.000000,4.000000,4.000000,4.000000,4.000000,100.000000,,,,,,,,,,,,,,,,,,,,,,,,,,,,,,,,,,,,,,,,,,,,,,,,,,,,,,,,,,,,,,,
1656263504.636949,76.000000,0.000000,4269.230957,4216.410156,4055.897461,4112.820313,4212.307617,450.000000,4.000000,95.000000,,,,0.000000,4.000000,4.000000,4.000000,4.000000,4.000000,100.000000,,,,,,,,,,,,,,,,,,,,,,,,,,,,,,,,,,,,,,,,,,,,,,,,,,,,,,,,,,,,,,,
1656263504.644864,77.000000,0.000000,4253.333496,4237.948730,4031.794922,4108.717773,4206.666504,450.000000,4.000000,95.000000,,,,0.000000,4.000000,4.000000,4.000000,4.000000,4.000000,100.000000,,,,,,,,,,,,,,,,,,,,,,,,,,,,,,,,,,,,,,,,,,,,,,,,,,,,,,,,,,,,,,,
1656263504.652678,78.000000,0.000000,4231.794922,4236.922852,4041.025635,4090.256348,4185.641113,450.000000,4.000000,95.000000,,,,0.000000,4.000000,4.000000,4.000000,4.000000,4.000000,100.000000,,,,,,,,,,,,,,,,,,,,,,,,,,,,,,,,,,,,,,,,,,,,,,,,,,,,,,,,,,,,,,,
1656263504.660592,79.000000,0.000000,4231.794922,4210.769043,4069.230713,4068.205078,4171.282227,16206.000000,4.000000,95.000000,,,,0.000000,4.000000,4.000000,4.000000,4.000000,4.000000,100.000000,,,,,,,,,,,,,,,,,,,,,,,,,,,,,,,,,,,,,,,,,,,,,,,,,,,,,,,,,,,,,,,
1656263504.668407,80.000000,0.000000,4231.282227,4214.871582,4067.179443,4065.641113,4168.717773,450.000000,4.000000,95.000000,,,,0.000000,4.000000,4.000000,4.000000,4.000000,4.000000,100.000000,,,,,,,,,,,,,,,,,,,,,,,,,,,,,,,,,,,,,,,,,,,,,,,,,,,,,,,,,,,,,,,
1656263504.676321,81.000000,0.000000,4228.717773,4224.102539,4070.256348,4090.256348,4165.128418,450.000000,4.000000,95.000000,,,,0.000000,4.000000,4.000000,4.000000,4.000000,4.000000,100.000000,,,,,,,,,,,,,,,,,,,,,,,,,,,,,,,,,,,,,,,,,,,,,,,,,,,,,,,,,,,,,,,
1656263504.684135,82.000000,0.000000,4252.820313,4215.384766,4095.384521,4122.051270,4183.589844,450.000000,4.000000,95.000000,,,,0.000000,4.000000,4.000000,4.000000,4.000000,4.000000,100.000000,,,,,,,,,,,,,,,,,,,,,,,,,,,,,,,,,,,,,,,,,,,,,,,,,,,,,,,,,,,,,,,
1656263504.691950,83.000000,0.000000,4279.487305,4224.615234,4098.461426,4128.717773,4215.384766,16206.000000,4.000000,95.000000,,,,0.000000,4.000000,4.000000,4.000000,4.000000,4.000000,100.000000,,,,,,,,,,,,,,,,,,,,,,,,,,,,,,,,,,,,,,,,,,,,,,,,,,,,,,,,,,,,,,,
1656263504.699664,84.000000,0.000000,4270.769043,4244.615234,4087.179443,4114.871582,4227.179688,450.000000,4.000000,95.000000,,,,0.000000,4.000000,4.000000,4.000000,4.000000,4.000000,100.000000,,,,,,,,,,,,,,,,,,,,,,,,,,,,,,,,,,,,,,,,,,,,,,,,,,,,,,,,,,,,,,,
1656263504.707579,85.000000,0.000000,4261.538574,4250.769043,4105.641113,4116.922852,4227.179688,450.000000,4.000000,95.000000,,,,0.000000,4.000000,4.000000,4.000000,4.000000,4.000000,100.000000,,,,,,,,,,,,,,,,,,,,,,,,,,,,,,,,,,,,,,,,,,,,,,,,,,,,,,,,,,,,,,,
1656263504.715393,86.000000,0.000000,4259.487305,4240.512695,4133.333496,4115.897461,4213.846191,450.000000,4.000000,95.000000,,,,0.000000,4.000000,4.000000,4.000000,4.000000,4.000000,100.000000,,,,,,,,,,,,,,,,,,,,,,,,,,,,,,,,,,,,,,,,,,,,,,,,,,,,,,,,,,,,,,,
1656263504.723307,87.000000,0.000000,4247.692383,4228.205078,4126.153809,4095.897461,4193.333496,16206.000000,4.000000,95.000000,,,,0.000000,4.000000,4.000000,4.000000,4.000000,4.000000,100.000000,,,,,,,,,,,,,,,,,,,,,,,,,,,,,,,,,,,,,,,,,,,,,,,,,,,,,,,,,,,,,,,
1656263504.731122,88.000000,0.000000,4250.256348,4227.692383,4102.563965,4091.281982,4194.871582,450.000000,4.000000,95.000000,,,,0.000000,4.000000,4.000000,4.000000,4.000000,4.000000,100.000000,,,,,,,,,,,,,,,,,,,,,,,,,,,,,,,,,,,,,,,3.280869,1.427299,0.665869,0.993886,0.504178,3.290016,0.922301,1.749428,0.836074,0.867984,8.709913,6.947304,3.427893,2.061925,0.846816,1.835899,1.828072,0.745461,0.883635,0.708708,3.556045,1.150274,0.988190,0.935085,0.491976
1656263504.739036,89.000000,0.000000,4261.538574,4232.307617,4094.871826,4097.436035,4195.897461,450.000000,4.000000,95.000000,,,,0.000000,4.000000,4.000000,4.000000,4.000000,4.000000,100.000000,,,,,,,,,,,,,,,,,,,,,,,,,,,,,,,,,,,,,,,,,,,,,,,,,,,,,,,,,,,,,,,
1656263504.746851,90.000000,0.000000,4262.051270,4238.974121,4104.615234,4097.436035,4182.563965,450.000000,4.000000,95.000000,,,,0.000000,4.000000,4.000000,4.000000,4.000000,4.000000,100.000000,,,,,,,,,,,,,,,,,,,,,,,,,,,,,,,,,,,,,,,,,,,,,,,,,,,,,,,,,,,,,,,
1656263504.754765,91.000000,0.000000,4244.102539,4241.538574,4115.897461,4091.281982,4181.538574,16206.000000,4.000000,95.000000,,,,0.000000,4.000000,4.000000,4.000000,4.000000,4.000000,100.000000,,,,,,,,,,,,,,,,,,,,,,,,,,,,,,,,,,,,,,,,,,,,,,,,,,,,,,,,,,,,,,,
1656263504.762679,92.000000,0.000000,4224.615234,4232.820313,4115.897461,4073.846191,4181.025879,450.000000,4.000000,95.000000,,,,0.000000,4.000000,4.000000,4.000000,4.000000,4.000000,100.000000,,,,,,,,,,,,,,,,,,,,,,,,,,,,,,,,,,,,,,,,,,,,,,,,,,,,,,,,,,,,,,,
1656263504.770494,93.000000,0.000000,4229.230957,4231.282227,4111.794922,4071.281982,4186.153809,450.000000,4.000000,95.000000,,,,0.000000,4.000000,4.000000,4.000000,4.000000,4.000000,100.000000,,,,,,,,,,,,,,,,,,,,,,,,,,,,,,,,,,,,,,,,,,,,,,,,,,,,,,,,,,,,,,,
1656263504.778308,94.000000,0.000000,4251.282227,4230.769043,4117.948730,4094.358887,4193.333496,450.000000,4.000000,95.000000,,,,0.000000,4.000000,4.000000,4.000000,4.000000,4.000000,100.000000,,,,,,,,,,,,,,,,,,,,,,,,,,,,,,,,,,,,,,,,,,,,,,,,,,,,,,,,,,,,,,,
1656263504.786122,95.000000,0.000000,4273.846191,4217.948730,4136.922852,4100.512695,4192.307617,16206.000000,4.000000,95.000000,,,,0.000000,4.000000,4.000000,4.000000,4.000000,4.000000,100.000000,,,,,,,,,,,,,,,,,,,,,,,,,,,,,,,,,,,,,,,,,,,,,,,,,,,,,,,,,,,,,,,
1656263504.794037,96.000000,0.000000,4281.538574,4224.102539,4132.307617,4091.281982,4208.717773,450.000000,4.000000,95.000000,,,,0.000000,4.000000,4.000000,4.000000,4.000000,4.000000,100.000000,,,,,,,,,,,,,,,,,,,,,,,,,,,,,,,,,,,,,,,,,,,,,,,,,,,,,,,,,,,,,,,
1656263504.801851,97.000000,0.000000,4270.769043,4243.589844,4099.487305,4095.384521,4223.077148,450.000000,4.000000,95.000000,,,,0.000000,4.000000,4.000000,4.000000,4.000000,4.000000,100.000000,,,,,,,,,,,,,,,,,,,,,,,,,,,,,,,,,,,,,,,,,,,,,,,,,,,,,,,,,,,,,,,
1656263504.809665,98.000000,0.000000,4250.256348,4242.051270,4080.512939,4099.487305,4205.641113,450.000000,4.000000,95.000000,,,,0.000000,4.000000,4.000000,4.000000,4.000000,4.000000,100.000000,,,,,,,,,,,,,,,,,,,,,,,,,,,,,,,,,,,,,,,,,,,,,,,,,,,,,,,,,,,,,,,
1656263504.817380,99.000000,0.000000,4226.153809,4242.051270,4071.794922,4082.564209,4180.512695,16206.000000,4.000000,95.000000,,,,0.000000,4.000000,4.000000,4.000000,4.000000,4.000000,100.000000,,,,,,,,,,,,,,,,,,,,,,,,,,,,,,,,,,,,,,,,,,,,,,,,,,,,,,,,,,,,,,,
1656263504.825294,100.000000,0.000000,4217.948730,4246.666504,4063.589844,4072.820557,4168.717773,450.000000,4.000000,95.000000,,,,0.000000,4.000000,4.000000,4.000000,4.000000,4.000000,100.000000,,,,,,,,,,,,,,,,,,,,,,,,,,,,,,,,,,,,,,,,,,,,,,,,,,,,,,,,,,,,,,,
1656263504.833109,101.000000,0.000000,4232.820313,4234.358887,4067.179443,4091.281982,4170.256348,450.000000,4.000000,95.000000,,,,0.000000,4.000000,4.000000,4.000000,4.000000,4.000000,100.000000,,,,,,,,,,,,,,,,,,,,,,,,,,,,,,,,,,,,,,,,,,,,,,,,,,,,,,,,,,,,,,,
1656263504.841023,102.000000,0.000000,4235.897461,4227.179688,4065.128174,4100.000000,4182.563965,450.000000,4.000000,95.000000,,,,0.000000,4.000000,4.000000,4.000000,4.000000,4.000000,100.000000,,,,,,,,,,,,,,,,,,,,,,,,,,,,,,,,,,,,,,,,,,,,,,,,,,,,,,,,,,,,,,,
1656263504.848837,103.000000,0.000000,4228.717773,4235.897461,4056.410156,4084.102539,4193.846191,16206.000000,4.000000,95.000000,,,,0.000000,4.000000,4.000000,4.000000,4.000000,4.000000,100.000000,,,,,,,,,,,,,,,,,,,,,,,,,,,,,,,,,,,,,,,,,,,,,,,,,,,,,,,,,,,,,,,
1656263504.856752,104.000000,0.000000,4234.871582,4236.410156,4069.230713,4063.589844,4189.743652,450.000000,4.000000,95.000000,,,,0.000000,4.000000,4.000000,4.000000,4.000000,4.000000,100.000000,1.000000,100.000000,4.000000,4.000000,4.000000,4.000000,4.000000,,,,,,,,,,,,,,,,,,,,,,,,,,,,,,,,3.939618,1.379571,0.732778,1.043753,0.560328,3.497346,0.899542,2.248049,0.917381,0.816241,8.475242,6.826220,4.404976,2.180803,0.835454,2.295529,1.827307,0.920977,0.921131,0.749589,4.644557,1.002873,1.290001,1.067910,0.558873
1656263504.864566,105.000000,0.000000,4235.897461,4232.307617,4089.230713,4060.512939,4184.102539,450.000000,4.000000,95.000000,,,,0.000000,4.000000,4.000000,4.000000,4.000000,4.000000,100.000000,,,,,,,,,,,,,,,,,,,,,,,,,,,,,,,,,,,,,,,,,,,,,,,,,,,,,,,,,,,,,,,
1656263504.872480,106.000000,0.000000,4230.256348,4243.077148,4088.718018,4077.435791,4188.717773,450.000000,4.000000,95.000000,,,,0.000000,4.000000,4.000000,4.000000,4.000000,4.000000,100.000000,,,,,,,,,,,,,,,,,,,,,,,,,,,,,,,,,,,,,,,,,,,,,,,,,,,,,,,,,,,,,,,
1656263504.880295,107.000000,0.000000,4237.436035,4245.641113,4104.615234,4076.410156,4182.051270,16206.000000,4.000000,95.000000,,,,0.000000,4.000000,4.000000,4.000000,4.000000,4.000000,100.000000,,,,,,,,,,,,,,,,,,,,,,,,,,,,,,,,,,,,,,,,,,,,,,,,,,,,,,,,,,,,,,,
1656263504.888209,108.000000,0.000000,4241.025879,4232.307617,4137.436035,4066.153809,4167.179688,450.000000,4.000000,95.000000,,,,0.000000,4.000000,4.000000,4.000000,4.000000,4.000000,100.000000,,,,,,,,,,,,,,,,,,,,,,,,,,,,,,,,,,,,,,,,,,,,,,,,,,,,,,,,,,,,,,,
1656263504.896024,109.000000,0.000000,4238.461426,4223.589844,4130.769043,4086.153809,4181.538574,450.000000,4.000000,95.000000,,,,0.000000,4.000000,4.000000,4.000000,4.000000,4.000000,100.000000,,,,,,,,,,,,,,,,,,,,,,,,,,,,,,,,,,,,,,,,,,,,,,,,,,,,,,,,,,,,,,,
1656263504.903938,110.000000,0.000000,4236.410156,4220.512695,4096.410156,4098.461426,4204.102539,450.000000,4.000000,95.000000,,,,0.000000,4.000000,4.000000,4.000000,4.000000,4.000000,100.000000,,,,,,,,,,,,,,,,,,,,,,,,,,,,,,,,,,,,,,,,,,,,,,,,,,,,,,,,,,,,,,,
1656263504.911752,111.000000,0.000000,4233.846191,4222.051270,4093.846191,4076.410156,4197.948730,16206.000000,4.000000,95.000000,,,,0.000000,4.000000,4.000000,4.000000,4.000000,4.000000,100.000000,,,,,,,,,,,,,,,,,,,,,,,,,,,,,,,,,,,,,,,,,,,,,,,,,,,,,,,,,,,,,,,
1656263504.919667,112.000000,0.000000,4238.974121,4225.128418,4112.820313,4069.230713,4188.205078,450.000000,4.000000,95.000000,,,,0.000000,4.000000,4.000000,4.000000,4.000000,4.000000,100.000000,,,,,,,,,,,,,,,,,,,,,,,,,,,,,,,,,,,,,,,,,,,,,,,,,,,,,,,,,,,,,,,
1656263504.927481,113.000000,0.000000,4253.846191,4230.256348,4119.487305,4086.153809,4196.410156,450.000000,4.000000,95.000000,,,,0.000000,4.000000,4.000000,4.000000,4.000000,4.000000,100.000000,,,,,,,,,,,,,,,,,,,,,,,,,,,,,,,,,,,,,,,,,,,,,,,,,,,,,,,,,,,,,,,
1656263504.935395,114.000000,0.000000,4276.922852,4242.563965,4113.333496,4111.282227,4219.487305,450.000000,4.000000,95.000000,,,,0.000000,4.000000,4.000000,4.000000,4.000000,4.000000,100.000000,,,,,,,,,,,,,,,,,,,,,,,,,,,,,,,,,,,,,,,,,,,,,,,,,,,,,,,,,,,,,,,
1656263504.943210,115.000000,0.000000,4278.461426,4257.436035,4105.641113,4117.436035,4238.974121,16206.000000,4.000000,95.000000,,,,0.000000,4.000000,4.000000,4.000000,4.000000,4.000000,100.000000,,,,,,,,,,,,,,,,,,,,,,,,,,,,,,,,,,,,,,,,,,,,,,,,,,,,,,,,,,,,,,,
1656263504.951024,116.000000,0.000000,4267.692383,4252.820313,4123.589844,4097.436035,4239.487305,450.000000,4.000000,95.000000,,,,0.000000,4.000000,4.000000,4.000000,4.000000,4.000000,100.000000,,,,,,,,,,,,,,,,,,,,,,,,,,,,,,,,,,,,,,,,,,,,,,,,,,,,,,,,,,,,,,,
1656263504.958839,117.000000,0.000000,4283.077148,4240.512695,4153.333496,4101.025879,4241.025879,450.000000,4.000000,95.000000,,,,0.000000,4.000000,4.000000,4.000000,4.000000,4.000000,100.000000,,,,,,,,,,,,,,,,,,,,,,,,,,,,,,,,,,,,,,,,,,,,,,,,,,,,,,,,,,,,,,,
1656263504.966553,118.000000,0.000000,4292.307617,4240.512695,4156.410156,4122.051270,4244.102539,450.000000,4.000000,95.000000,,,,0.000000,4.000000,4.000000,4.000000,4.000000,4.000000,100.000000,,,,,,,,,,,,,,,,,,,,,,,,,,,,,,,,,,,,,,,,,,,,,,,,,,,,,,,,,,,,,,,
1656263504.974367,119.000000,0.000000,4284.102539,4241.025879,4145.128418,4118.461426,4233.846191,16206.000000,4.000000,95.000000,,,,0.000000,4.000000,4.000000,4.000000,4.000000,4.000000,100.000000,,,,,,,,,,,,,,,,,,,,,,,,,,,,,,,,,,,,,,,,,,,,,,,,,,,,,,,,,,,,,,,
1656263504.982082,120.000000,0.000000,4281.025879,4235.384766,4127.179688,4102.051270,4226.153809,450.000000,4.000000,95.000000,,,,0.000000,4.000000,4.000000,4.000000,4.000000,4.000000,100.000000,,,,,,,,,,,,,,,,,,,,,,,,,,,,,,,,,,,,,,,4.600762,1.307502,0.869067,1.079814,0.642875,3.479967,0.857197,2.681863,1.053140,0.796336,8.805388,6.750944,5.330749,2.310556,0.854340,2.753833,1.818191,1.534986,0.981426,0.771183,5.611678,0.972919,1.900131,1.179018,0.651984
1656263504.989896,121.000000,0.000000,4270.256348,4240.512695,4108.205078,4103.589844,4227.692383,450.000000,4.000000,95.000000,,,,0.000000,4.000000,4.000000,4.000000,4.000000,4.000000,100.000000,,,,,,,,,,,,,,,,,,,,,,,,,,,,,,,,,,,,,,,,,,,,,,,,,,,,,,,,,,,,,,,
1656263504.997611,122.000000,0.000000,4248.717773,4252.307617,4104.615234,4102.051270,4220.000000,450.000000,4.000000,95.000000,,,,0.000000,4.000000,4.000000,4.000000,4.000000,4.000000,100.000000,,,,,,,,,,,,,,,,,,,,,,,,,,,,,,,,,,,,,,,,,,,,,,,,,,,,,,,,,,,,,,,
1656263505.005525,123.000000,0.000000,4251.282227,4247.692383,4105.641113,4098.974121,4218.974121,16206.000000,4.000000,95.000000,,,,0.000000,4.000000,4.000000,4.000000,4.000000,4.000000,100.000000,,,,,,,,,,,,,,,,,,,,,,,,,,,,,,,,,,,,,,,,,,,,,,,,,,,,,,,,,,,,,,,
1656263505.013340,124.000000,0.000000,4265.128418,4236.410156,4105.128418,4104.615234,4229.230957,450.000000,4.000000,95.000000,,,,0.000000,4.000000,4.000000,4.000000,4.000000,4.000000,100.000000,,,,,,,,,,,,,,,,,,,,,,,,,,,,,,,,,,,,,,,,,,,,,,,,,,,,,,,,,,,,,,,
1656263505.021254,125.000000,0.000000,4272.307617,4237.948730,4101.025879,4092.820557,4224.102539,450.000000,4.000000,95.000000,,,,0.000000,4.000000,4.000000,4.000000,4.000000,4.000000,100.000000,,,,,,,,,,,,,,,,,,,,,,,,,,,,,,,,,,,,,,,,,,,,,,,,,,,,,,,,,,,,,,,
1656263505.029068,126.000000,0.000000,4288.205078,4249.743652,4090.769287,4085.641113,4226.666504,450.000000,4.000000,95.000000,,,,0.000000,4.000000,4.000000,4.000000,4.000000,4.000000,100.000000,,,,,,,,,,,,,,,,,,,,,,,,,,,,,,,,,,,,,,,,,,,,,,,,,,,,,,,,,,,,,,,
1656263505.036983,127.000000,0.000000,4286.666504,4257.436035,4076.410156,4105.641113,4241.025879,243.000000,4.000000,95.000000,,,,0.000000,4.000000,4.000000,4.000000,4.000000,4.000000,100.000000,,,,,,,,,,,,,,,,,,,,,,,,,,,,,,,,,,,,,,,,,,,,,,,,,,,,,,,,,,,,,,,
1656263505.044797,0.000000,0.000000,4271.794922,4258.461426,4070.256348,4121.025879,4244.102539,450.000000,4.000000,95.000000,,,,0.000000,4.000000,4.000000,4.000000,4.000000,4.000000,100.000000,,,,,,,,,,,,,,,,,,,,,,,,,,,,,,,,,,,,,,,,,,,,,,,,,,,,,,,,,,,,,,,
1656263505.052611,1.000000,0.000000,4269.743652,4263.077148,4084.102539,4115.897461,4238.974121,450.000000,4.000000,95.000000,,,,0.000000,4.000000,4.000000,4.000000,4.000000,4.000000,100.000000,,,,,,,,,,,,,,,,,,,,,,,,,,,,,,,,,,,,,,,,,,,,,,,,,,,,,,,,,,,,,,,
1656263505.060326,2.000000,0.000000,4262.563965,4256.410156,4112.820313,4098.461426,4225.641113,16191.000000,4.000000,95.000000,,,,0.000000,4.000000,4.000000,4.000000,4.000000,4.000000,100.000000,,,,,,,,,,,,,,,,,,,,,,,,,,,,,,,,,,,,,,,,,,,,,,,,,,,,,,,,,,,,,,,
1656263505.068240,3.000000,0.000000,4258.461426,4247.179688,4126.666504,4087.692383,4216.922852,450.000000,4.000000,95.000000,,,,0.000000,4.000000,4.000000,4.000000,4.000000,4.000000,100.000000,,,,,,,,,,,,,,,,,,,,,,,,,,,,,,,,,,,,,,,,,,,,,,,,,,,,,,,,,,,,,,,
1656263505.076055,4.000000,0.000000,4274.871582,4256.922852,4112.820313,4089.743652,4230.256348,16182.000000,4.000000,95.000000,,,,0.000000,4.000000,4.000000,4.000000,4.000000,4.000000,100.000000,,,,,,,,,,,,,,,,,,,,,,,,,,,,,,,,,,,,,,,,,,,,,,,,,,,,,,,,,,,,,,,
1656263505.083969,5.000000,0.000000,4286.666504,4275.384766,4107.692383,4097.436035,4246.666504,450.000000,4.000000,95.000000,,,,0.000000,4.000000,4.000000,4.000000,4.000000,4.000000,100.000000,,,,,,,,,,,,,,,,,,,,,,,,,,,,,,,,,,,,,,,,,,,,,,,,,,,,,,,,,,,,,,,
1656263505.091783,6.000000,0.000000,4290.769043,4274.358887,4112.820313,4105.128418,4243.589844,16156.000000,4.000000,95.000000,,,,0.000000,4.000000,4.000000,4.000000,4.000000,4.000000,100.000000,,,,,,,,,,,,,,,,,,,,,,,,,,,,,,,,,,,,,,,,,,,,,,,,,,,,,,,,,,,,,,,
1656263505.099698,7.000000,0.000000,4302.563965,4249.230957,4100.000000,4112.307617,4238.461426,450.000000,4.000000,95.000000,,,,0.000000,4.000000,4.000000,4.000000,4.000000,4.000000,100.000000,,,,,,,,,,,,,,,,,,,,,,,,,,,,,,,,,,,,,,,,,,,,,,,,,,,,,,,,,,,,,,,
1656263505.107612,8.000000,0.000000,4296.922852,4237.436035,4093.333252,4115.897461,4243.077148,450.000000,4.000000,95.000000,,,,0.000000,4.000000,4.000000,4.000000,4.000000,4.000000,100.000000,,,,,,,,,,,,,,,,,,,,,,,,,,,,,,,,,,,,,,,5.112484,1.325659,1.118372,1.126353,0.717268,3.282476,0.817902,2.874192,1.228915,0.818781,9.582852,6.714479,5.872376,2.395122,0.911998,3.106923,1.850823,2.754680,1.072025,0.774025,6.217813,1.254196,2.941272,1.246779,0.739905
1656263505.115426,9.000000,0.000000,4278.461426,4258.461426,4088.718018,4117.948730,4239.487305,16186.000000,4.000000,95.000000,,,,0.000000,4.000000,4.000000,4.000000,4.000000,4.000000,100.000000,,,,,,,,,,,,,,,,,,,,,,,,,,,,,,,,,,,,,,,,,,,,,,,,,,,,,,,,,,,,,,,
1656263505.123241,10.000000,0.000000,4280.512695,4276.410156,4065.128174,4123.077148,4234.871582,450.000000,4.000000,95.000000,,,,0.000000,4.000000,4.000000,4.000000,4.000000,4.000000,100.000000,,,,,,,,,,,,,,,,,,,,,,,,,,,,,,,,,,,,,,,,,,,,,,,,,,,,,,,,,,,,,,,
1656263505.131155,11.000000,0.000000,4289.230957,4262.051270,4046.153809,4125.641113,4244.102539,16205.000000,4.000000,95.000000,,,,0.000000,4.000000,4.000000,4.000000,4.000000,4.000000,100.000000,,,,,,,,,,,,,,,,,,,,,,,,,,,,,,,,,,,,,,,,,,,,,,,,,,,,,,,,,,,,,,,
1656263505.138969,12.000000,0.000000,4289.230957,4238.461426,4040.512939,4117.436035,4250.256348,450.000000,4.000000,95.000000,,,,0.000000,4.000000,4.000000,4.000000,4.000000,4.000000,100.000000,,,,,,,,,,,,,,,,,,,,,,,,,,,,,,,,,,,,,,,,,,,,,,,,,,,,,,,,,,,,,,,
1656263505.146784,13.000000,0.000000,4289.230957,4237.436035,4050.256348,4107.179688,4238.461426,450.000000,4.000000,95.000000,,,,0.000000,4.000000,4.000000,4.000000,4.000000,4.000000,100.000000,,,,,,,,,,,,,,,,,,,,,,,,,,,,,,,,,,,,,,,,,,,,,,,,,,,,,,,,,,,,,,,
1656263505.154598,14.000000,0.000000,4276.410156,4250.256348,4069.230713,4109.743652,4223.077148,450.000000,4.000000,95.000000,,,,0.000000,4.000000,4.000000,4.000000,4.000000,4.000000,100.000000,,,,,,,,,,,,,,,,,,,,,,,,,,,,,,,,,,,,,,,,,,,,,,,,,,,,,,,,,,,,,,,
1656263505.162313,15.000000,0.000000,4257.948730,4253.846191,4084.102539,4120.512695,4218.461426,16205.000000,4.000000,95.000000,,,,0.000000,4.000000,4.000000,4.000000,4.000000,4.000000,100.000000,,,,,,,,,,,,,,,,,,,,,,,,,,,,,,,,,,,,,,,,,,,,,,,,,,,,,,,,,,,,,,,
1656263505.170127,16.000000,0.000000,4268.717773,4263.589844,4092.307617,4126.153809,4228.205078,0.000000,4.000000,95.000000,,,,0.000000,4.000000,4.000000,4.000000,4.000000,4.000000,100.000000,,,,,,,,,,,,,,,,,,,,,,,,,,,,,,,,,,,,,,,,,,,,,,,,,,,,,,,,,,,,,,,
1656263505.177842,17.000000,0.000000,4282.051270,4282.563965,4066.153809,4111.794922,4237.436035,0.000000,4.000000,95.000000,,,,0.000000,4.000000,4.000000,4.000000,4.000000,4.000000,100.000000,,,,,,,,,,,,,,,,,,,,,,,,,,,,,,,,,,,,,,,,,,,,,,,,,,,,,,,,,,,,,,,
1656263505.185756,18.000000,0.000000,4267.692383,4278.461426,4029.230713,4091.281982,4228.205078,0.000000,4.000000,95.000000,,,,0.000000,4.000000,4.000000,4.000000,4.000000,4.000000,100.000000,,,,,,,,,,,,,,,,,,,,,,,,,,,,,,,,,,,,,,,,,,,,,,,,,,,,,,,,,,,,,,,
1656263505.193570,19.000000,0.000000,4266.666504,4259.487305,4032.307617,4088.205078,4217.436035,0.000000,4.000000,95.000000,,,,0.000000,4.000000,4.000000,4.000000,4.000000,4.000000,100.000000,,,,,,,,,,,,,,,,,,,,,,,,,,,,,,,,,,,,,,,,,,,,,,,,,,,,,,,,,,,,,,,
1656263505.201385,20.000000,0.000000,4280.512695,4247.692383,4038.461426,4095.384521,4219.487305,0.000000,4.000000,95.000000,,,,0.000000,4.000000,4.000000,4.000000,4.000000,4.000000,100.000000,,,,,,,,,,,,,,,,,,,,,,,,,,,,,,,,,,,,,,,,,,,,,,,,,,,,,,,,,,,,,,,
1656263505.209099,21.000000,0.000000,4290.769043,4248.205078,4013.333252,4106.666504,4225.128418,0.000000,4.000000,95.000000,,,,0.000000,4.000000,4.000000,4.000000,4.000000,4.000000,100.000000,,,,,,,,,,,,,,,,,,,,,,,,,,,,,,,,,,,,,,,,,,,,,,,,,,,,,,,,,,,,,,,
1656263505.216914,22.000000,0.000000,4307.692383,4254.358887,4012.820557,4117.436035,4224.615234,0.000000,4.000000,95.000000,,,,0.000000,4.000000,4.000000,4.000000,4.000000,4.000000,100.000000,,,,,,,,,,,,,,,,,,,,,,,,,,,,,,,,,,,,,,,,,,,,,,,,,,,,,,,,,,,,,,,
1656263505.224628,23.000000,0.000000,4307.692383,4252.820313,4034.358887,4116.410156,4222.563965,0.000000,4.000000,95.000000,,,,0.000000,4.000000,4.000000,4.000000,4.000000,4.000000,100.000000,,,,,,,,,,,,,,,,,,,,,,,,,,,,,,,,,,,,,,,,,,,,,,,,,,,,,,,,,,,,,,,
1656263505.232543,24.000000,0.000000,4287.692383,4254.358887,4041.538574,4114.871582,4231.282227,0.000000,4.000000,95.000000,,,,0.000000,4.000000,4.000000,4.000000,4.000000,4.000000,100.000000,,,,,,,,,,,,,,,,,,,,,,,,,,,,,,,,,,,,,,,5.342402,1.522687,1.514109,1.225297,0.755698,2.936511,0.812348,2.744516,1.411125,0.865101,10.644977,6.766057,5.867055,2.404292,0.992399,3.214993,1.965080,4.479781,1.208010,0.772267,6.294656,1.942767,4.381073,1.277220,0.794153
1656263505.240357,25.000000,0.000000,4287.179688,4266.666504,4052.307617,4119.487305,4236.410156,0.000000,4.000000,95.000000,,,,0.000000,4.000000,4.000000,4.000000,4.000000,4.000000,100.000000,,,,,,,,,,,,,,,,,,,,,,,,,,,,,,,,,,,,,,,,,,,,,,,,,,,,,,,,,,,,,,,
1656263505.248271,26.000000,0.000000,4295.897461,4269.743652,4061.025635,4116.922852,4232.820313,0.000000,4.000000,95.000000,,,,0.000000,4.000000,4.000000,4.000000,4.000000,4.000000,100.000000,,,,,,,,,,,,,,,,,,,,,,,,,,,,,,,,,,,,,,,,,,,,,,,,,,,,,,,,,,,,,,,
1656263505.256086,27.000000,0.000000,4281.538574,4259.487305,4067.179443,4100.512695,4228.717773,0.000000,4.000000,95.000000,,,,0.000000,4.000000,4.000000,4.000000,4.000000,4.000000,100.000000,,,,,,,,,,,,,,,,,,,,,,,,,,,,,,,,,,,,,,,,,,,,,,,,,,,,,,,,,,,,,,,
1656263505.263900,28.000000,0.000000,4267.179688,4249.743652,4072.820557,4091.281982,4224.102539,0.000000,4.000000,95.000000,,,,0.000000,4.000000,4.000000,4.000000,4.000000,4.000000,100.000000,,,,,,,,,,,,,,,,,,,,,,,,,,,,,,,,,,,,,,,,,,,,,,,,,,,,,,,,,,,,,,,
1656263505.271615,29.000000,0.000000,4274.871582,4253.333496,4069.743652,4099.487305,4227.692383,0.000000,4.000000,95.000000,,,,0.000000,4.000000,4.000000,4.000000,4.000000,4.000000,100.000000,,,,,,,,,,,,,,,,,,,,,,,,,,,,,,,,,,,,,,,,,,,,,,,,,,,,,,,,,,,,,,,
1656263505.279529,30.000000,0.000000,4277.948730,4262.563965,4060.000000,4104.615234,4231.282227,0.000000,4.000000,95.000000,,,,0.000000,4.000000,4.000000,4.000000,4.000000,4.000000,100.000000,,,,,,,,,,,,,,,,,,,,,,,,,,,,,,,,,,,,,,,,,,,,,,,,,,,,,,,,,,,,,,,
1656263505.287343,31.000000,0.000000,4273.333496,4263.589844,4041.538574,4092.820557,4227.179688,0.000000,4.000000,95.000000,,,,0.000000,4.000000,4.000000,4.000000,4.000000,4.000000,100.000000,,,,,,,,,,,,,,,,,,,,,,,,,,,,,,,,,,,,,,,,,,,,,,,,,,,,,,,,,,,,,,,
1656263505.295258,32.000000,0.000000,4278.974121,4271.794922,4023.076904,4086.153809,4230.769043,0.000000,4.000000,95.000000,,,,0.000000,4.000000,4.000000,4.000000,4.000000,4.000000,100.000000,,,,,,,,,,,,,,,,,,,,,,,,,,,,,,,,,,,,,,,,,,,,,,,,,,,,,,,,,,,,,,,
1656263505.303072,33.000000,0.000000,4284.102539,4282.051270,4032.307617,4098.461426,4232.307617,0.000000,4.000000,95.000000,,,,0.000000,4.000000,4.000000,4.000000,4.000000,4.000000,100.000000,,,,,,,,,,,,,,,,,,,,,,,,,,,,,,,,,,,,,,,,,,,,,,,,,,,,,,,,,,,,,,,
1656263505.310986,34.000000,0.000000,4288.205078,4276.410156,4051.281982,4109.743652,4226.153809,0.000000,4.000000,95.000000,,,,0.000000,4.000000,4.000000,4.000000,4.000000,4.000000,100.000000,,,,,,,,,,,,,,,,,,,,,,,,,,,,,,,,,,,,,,,,,,,,,,,,,,,,,,,,,,,,,,,
1656263505.318801,35.000000,0.000000,4288.717773,4268.717773,4038.974365,4109.743652,4231.282227,0.000000,4.000000,95.000000,,,,0.000000,4.000000,4.000000,4.000000,4.000000,4.000000,100.000000,,,,,,,,,,,,,,,,,,,,,,,,,,,,,,,,,,,,,,,,,,,,,,,,,,,,,,,,,,,,,,,
1656263505.326515,36.000000,0.000000,4284.102539,4264.615234,4042.564209,4101.538574,4238.461426,0.000000,4.000000,95.000000,,,,0.000000,4.000000,4.000000,4.000000,4.000000,4.000000,100.000000,,,,,,,,,,,,,,,,,,,,,,,,,,,,,,,,,,,,,,,,,,,,,,,,,,,,,,,,,,,,,,,
1656263505.334430,37.000000,0.000000,4297.436035,4248.205078,4077.435791,4101.538574,4231.282227,0.000000,4.000000,95.000000,,,,0.000000,4.000000,4.000000,4.000000,4.000000,4.000000,100.000000,,,,,,,,,,,,,,,,,,,,,,,,,,,,,,,,,,,,,,,,,,,,,,,,,,,,,,,,,,,,,,,
1656263505.342244,38.000000,0.000000,4309.230957,4236.410156,4071.794922,4117.436035,4231.794922,0.000000,4.000000,95.000000,,,,0.000000,4.000000,4.000000,4.000000,4.000000,4.000000,100.000000,,,,,,,,,,,,,,,,,,,,,,,,,,,,,,,,,,,,,,,,,,,,,,,,,,,,,,,,,,,,,,,
1656263505.350058,39.000000,0.000000,4290.769043,4249.743652,4044.102539,4131.282227,4242.051270,0.000000,4.000000,95.000000,,,,0.000000,4.000000,4.000000,4.000000,4.000000,4.000000,100.000000,,,,,,,,,,,,,,,,,,,,,,,,,,,,,,,,,,,,,,,,,,,,,,,,,,,,,,,,,,,,,,,
1656263505.357773,40.000000,0.000000,4277.948730,4253.333496,4046.153809,4128.717773,4234.358887,0.000000,4.000000,95.000000,,,,0.000000,4.000000,4.000000,4.000000,4.000000,4.000000,100.000000,1.000000,100.000000,4.000000,4.000000,4.000000,4.000000,4.000000,,,,,,,,,,,,,,,,,,,,,,,,,,,,,,,,5.302779,1.925736,2.050258,1.407777,0.746520,2.485278,0.866793,2.342421,1.567040,0.900729,11.936345,7.043189,5.374163,2.359788,1.067308,3.092316,2.177121,6.289731,1.386628,0.784168,5.883792,2.952564,5.953847,1.289708,0.799666
1656263505.365587,41.000000,0.000000,4288.717773,4245.641113,4052.307617,4114.358887,4228.717773,0.000000,4.000000,95.000000,,,,0.000000,4.000000,4.000000,4.000000,4.000000,4.000000,100.000000,,,,,,,,,,,,,,,,,,,,,,,,,,,,,,,,,,,,,,,,,,,,,,,,,,,,,,,,,,,,,,,
1656263505.373302,42.000000,0.000000,4301.025879,4249.230957,4038.461426,4102.563965,4247.692383,0.000000,4.000000,95.000000,,,,0.000000,4.000000,4.000000,4.000000,4.000000,4.000000,100.000000,,,,,,,,,,,,,,,,,,,,,,,,,,,,,,,,,,,,,,,,,,,,,,,,,,,,,,,,,,,,,,,
1656263505.381116,43.000000,0.000000,4295.897461,4249.743652,4016.923096,4100.000000,4249.743652,0.000000,4.000000,95.000000,,,,0.000000,4.000000,4.000000,4.000000,4.000000,4.000000,100.000000,,,,,,,,,,,,,,,,,,,,,,,,,,,,,,,,,,,,,,,,,,,,,,,,,,,,,,,,,,,,,,,
1656263505.388831,44.000000,0.000000,4288.205078,4252.307617,4013.846191,4100.000000,4241.538574,0.000000,4.000000,95.000000,,,,0.000000,4.000000,4.000000,4.000000,4.000000,4.000000,100.000000,,,,,,,,,,,,,,,,,,,,,,,,,,,,,,,,,,,,,,,,,,,,,,,,,,,,,,,,,,,,,,,
1656263505.396645,45.000000,0.000000,4308.717773,4251.794922,4032.820557,4104.615234,4254.871582,0.000000,4.000000,95.000000,,,,0.000000,4.000000,4.000000,4.000000,4.000000,4.000000,100.000000,,,,,,,,,,,,,,,,,,,,,,,,,,,,,,,,,,,,,,,,,,,,,,,,,,,,,,,,,,,,,,,
1656263505.404460,46.000000,0.000000,4327.692383,4242.051270,4030.256348,4109.230957,4254.871582,0.000000,4.000000,95.000000,,,,0.000000,4.000000,4.000000,4.000000,4.000000,4.000000,100.000000,,,,,,,,,,,,,,,,,,,,,,,,,,,,,,,,,,,,,,,,,,,,,,,,,,,,,,,,,,,,,,,
1656263505.412274,47.000000,0.000000,4301.025879,4242.051270,3996.410156,4104.615234,4228.717773,0.000000,4.000000,95.000000,,,,0.000000,4.000000,4.000000,4.000000,4.000000,4.000000,100.000000,,,,,,,,,,,,,,,,,,,,,,,,,,,,,,,,,,,,,,,,,,,,,,,,,,,,,,,,,,,,,,,
1656263505.420188,48.000000,0.000000,4262.051270,4237.948730,3991.281982,4099.487305,4211.282227,0.000000,4.000000,95.000000,,,,0.000000,4.000000,4.000000,4.000000,4.000000,4.000000,100.000000,,,,,,,,,,,,,,,,,,,,,,,,,,,,,,,,,,,,,,,,,,,,,,,,,,,,,,,,,,,,,,,
1656263505.428003,49.000000,0.000000,4252.820313,4216.410156,4016.410156,4102.563965,4200.512695,0.000000,4.000000,95.000000,,,,0.000000,4.000000,4.000000,4.000000,4.000000,4.000000,100.000000,,,,,,,,,,,,,,,,,,,,,,,,,,,,,,,,,,,,,,,,,,,,,,,,,,,,,,,,,,,,,,,
1656263505.435917,50.000000,0.000000,4246.666504,4226.666504,4016.410156,4102.051270,4196.922852,0.000000,4.000000,95.000000,,,,0.000000,4.000000,4.000000,4.000000,4.000000,4.000000,100.000000,,,,,,,,,,,,,,,,,,,,,,,,,,,,,,,,,,,,,,,,,,,,,,,,,,,,,,,,,,,,,,,
1656263505.443831,51.000000,0.000000,4238.974121,4259.487305,4013.333252,4087.692383,4206.666504,0.000000,4.000000,95.000000,,,,0.000000,4.000000,4.000000,4.000000,4.000000,4.000000,100.000000,,,,,,,,,,,,,,,,,,,,,,,,,,,,,,,,,,,,,,,,,,,,,,,,,,,,,,,,,,,,,,,
1656263505.451646,52.000000,0.000000,4254.871582,4248.205078,4033.333252,4080.512939,4217.436035,0.000000,4.000000,95.000000,,,,0.000000,4.000000,4.000000,4.000000,4.000000,4.000000,100.000000,,,,,,,,,,,,,,,,,,,,,,,,,,,,,,,,,,,,,,,,,,,,,,,,,,,,,,,,,,,,,,,
1656263505.459560,53.000000,0.000000,4270.769043,4227.692383,4028.718018,4082.564209,4231.794922,0.000000,4.000000,95.000000,,,,0.000000,4.000000,4.000000,4.000000,4.000000,4.000000,100.000000,,,,,,,,,,,,,,,,,,,,,,,,,,,,,,,,,,,,,,,,,,,,,,,,,,,,,,,,,,,,,,,
1656263505.467374,54.000000,0.000000,4268.205078,4243.589844,3991.281982,4084.102539,4243.589844,0.000000,4.000000,95.000000,,,,0.000000,4.000000,4.000000,4.000000,4.000000,4.000000,100.000000,,,,,,,,,,,,,,,,,,,,,,,,,,,,,,,,,,,,,,,,,,,,,,,,,,,,,,,,,,,,,,,
1656263505.475289,55.000000,0.000000,4262.051270,4249.743652,3978.461426,4085.128174,4230.256348,0.000000,4.000000,95.000000,,,,0.000000,4.000000,4.000000,4.000000,4.000000,4.000000,100.000000,,,,,,,,,,,,,,,,,,,,,,,,,,,,,,,,,,,,,,,,,,,,,,,,,,,,,,,,,,,,,,,
1656263505.483103,56.000000,0.000000,4262.051270,4224.102539,3977.435791,4076.410156,4210.769043,0.000000,4.000000,95.000000,,,,0.000000,4.000000,4.000000,4.000000,4.000000,4.000000,100.000000,,,,,,,,,,,,,,,,,,,,,,,,,,,,,,,,,,,,,,,5.128196,2.485512,2.639194,1.663663,0.695022,1.990334,0.989385,1.822105,1.683144,0.896770,13.279041,7.664475,4.651669,2.319597,1.109722,2.872913,2.445400,7.598219,1.574288,0.816743,5.203243,4.020523,7.238840,1.302117,0.758725
1656263505.491017,57.000000,0.000000,4258.461426,4213.333496,3944.615479,4061.538574,4205.128418,0.000000,4.000000,95.000000,,,,0.000000,4.000000,4.000000,4.000000,4.000000,4.000000,100.000000,,,,,,,,,,,,,,,,,,,,,,,,,,,,,,,,,,,,,,,,,,,,,,,,,,,,,,,,,,,,,,,
1656263505.498832,58.000000,0.000000,4243.077148,4228.717773,3926.153809,4057.948730,4202.051270,0.000000,4.000000,95.000000,,,,0.000000,4.000000,4.000000,4.000000,4.000000,4.000000,100.000000,,,,,,,,,,,,,,,,,,,,,,,,,,,,,,,,,,,,,,,,,,,,,,,,,,,,,,,,,,,,,,,
1656263505.506746,59.000000,0.000000,4244.615234,4234.358887,3958.974365,4074.358887,4208.717773,0.000000,4.000000,95.000000,,,,0.000000,4.000000,4.000000,4.000000,4.000000,4.000000,100.000000,,,,,,,,,,,,,,,,,,,,,,,,,,,,,,,,,,,,,,,,,,,,,,,,,,,,,,,,,,,,,,,
1656263505.514561,60.000000,0.000000,4270.256348,4222.051270,3984.102539,4102.051270,4231.282227,0.000000,4.000000,95.000000,,,,0.000000,4.000000,4.000000,4.000000,4.000000,4.000000,100.000000,,,,,,,,,,,,,,,,,,,,,,,,,,,,,,,,,,,,,,,,,,,,,,,,,,,,,,,,,,,,,,,
1656263505.522475,61.000000,0.000000,4275.384766,4225.641113,3976.923096,4109.230957,4238.974121,0.000000,4.000000,95.000000,,,,0.000000,4.000000,4.000000,4.000000,4.000000,4.000000,100.000000,,,,,,,,,,,,,,,,,,,,,,,,,,,,,,,,,,,,,,,,,,,,,,,,,,,,,,,,,,,,,,,
1656263505.530289,62.000000,0.000000,4263.589844,4249.230957,3987.692383,4096.922852,4227.179688,0.000000,4.000000,95.000000,,,,0.000000,4.000000,4.000000,4.000000,4.000000,4.000000,100.000000,,,,,,,,,,,,,,,,,,,,,,,,,,,,,,,,,,,,,,,,,,,,,,,,,,,,,,,,,,,,,,,
1656263505.538204,63.000000,0.000000,4276.922852,4243.077148,4013.333252,4104.102539,4225.641113,0.000000,4.000000,95.000000,,,,0.000000,4.000000,4.000000,4.000000,4.000000,4.000000,100.000000,,,,,,,,,,,,,,,,,,,,,,,,,,,,,,,,,,,,,,,,,,,,,,,,,,,,,,,,,,,,,,,
1656263505.546018,64.000000,0.000000,4295.384766,4223.589844,4033.333252,4120.512695,4237.948730,450.000000,4.000000,95.000000,,,,0.000000,4.000000,4.000000,4.000000,4.000000,4.000000,100.000000,,,,,,,,,,,,,,,,,,,,,,,,,,,,,,,,,,,,,,,,,,,,,,,,,,,,,,,,,,,,,,,
1656263505.553932,65.000000,0.000000,4294.871582,4234.871582,4052.820557,4111.794922,4237.948730,450.000000,4.000000,95.000000,,,,0.000000,4.000000,4.000000,4.000000,4.000000,4.000000,100.000000,,,,,,,,,,,,,,,,,,,,,,,,,,,,,,,,,,,,,,,,,,,,,,,,,,,,,,,,,,,,,,,
1656263505.561747,66.000000,0.000000,4286.153809,4240.512695,4047.692383,4087.692383,4224.102539,16231.000000,4.000000,95.000000,,,,0.000000,4.000000,4.000000,4.000000,4.000000,4.000000,100.000000,,,,,,,,,,,,,,,,,,,,,,,,,,,,,,,,,,,,,,,,,,,,,,,,,,,,,,,,,,,,,,,
1656263505.569661,67.000000,0.000000,4276.410156,4231.794922,4033.333252,4084.102539,4218.461426,450.000000,4.000000,95.000000,,,,0.000000,4.000000,4.000000,4.000000,4.000000,4.000000,100.000000,,,,,,,,,,,,,,,,,,,,,,,,,,,,,,,,,,,,,,,,,,,,,,,,,,,,,,,,,,,,,,,
1656263505.577475,68.000000,0.000000,4271.794922,4245.128418,4034.871826,4094.871826,4222.563965,16172.000000,4.000000,95.000000,,,,0.000000,4.000000,4.000000,4.000000,4.000000,4.000000,100.000000,,,,,,,,,,,,,,,,,,,,,,,,,,,,,,,,,,,,,,,,,,,,,,,,,,,,,,,,,,,,,,,
1656263505.585390,69.000000,0.000000,4264.615234,4253.846191,4031.794922,4088.718018,4224.102539,450.000000,4.000000,95.000000,,,,0.000000,4.000000,4.000000,4.000000,4.000000,4.000000,100.000000,,,,,,,,,,,,,,,,,,,,,,,,,,,,,,,,,,,,,,,,,,,,,,,,,,,,,,,,,,,,,,,
1656263505.593204,70.000000,0.000000,4255.897461,4239.487305,4027.692383,4082.564209,4225.128418,16205.000000,4.000000,95.000000,,,,0.000000,4.000000,4.000000,4.000000,4.000000,4.000000,100.000000,,,,,,,,,,,,,,,,,,,,,,,,,,,,,,,,,,,,,,,,,,,,,,,,,,,,,,,,,,,,,,,
1656263505.601118,71.000000,0.000000,4268.205078,4231.794922,4035.897461,4085.128174,4224.102539,450.000000,4.000000,95.000000,,,,0.000000,4.000000,4.000000,4.000000,4.000000,4.000000,100.000000,,,,,,,,,,,,,,,,,,,,,,,,,,,,,,,,,,,,,,,,,,,,,,,,,,,,,,,,,,,,,,,
1656263505.609033,72.000000,0.000000,4284.102539,4234.358887,4046.666748,4088.205078,4218.974121,450.000000,4.000000,95.000000,,,,0.000000,4.000000,4.000000,4.000000,4.000000,4.000000,100.000000,,,,,,,,,,,,,,,,,,,,,,,,,,,,,,,,,,,,,,,4.970387,3.080994,3.138125,1.933791,0.622736,1.524404,1.163837,1.387932,1.758370,0.847133,14.310087,8.625067,3.987950,2.322134,1.109224,2.719807,2.675755,7.940663,1.717616,0.861182,4.503693,4.830945,7.837206,1.314347,0.686075
1656263505.616847,73.000000,0.000000,4278.461426,4250.256348,4048.718018,4093.846191,4224.615234,16194.000000,4.000000,95.000000,,,,0.000000,4.000000,4.000000,4.000000,4.000000,4.000000,100.000000,,,,,,,,,,,,,,,,,,,,,,,,,,,,,,,,,,,,,,,,,,,,,,,,,,,,,,,,,,,,,,,
1656263505.624761,74.000000,0.000000,4276.410156,4263.077148,4053.333252,4098.461426,4233.333496,450.000000,4.000000,95.000000,,,,0.000000,4.000000,4.000000,4.000000,4.000000,4.000000,100.000000,,,,,,,,,,,,,,,,,,,,,,,,,,,,,,,,,,,,,,,,,,,,,,,,,,,,,,,,,,,,,,,
1656263505.632576,75.000000,0.000000,4280.512695,4253.333496,4064.615479,4101.025879,4237.436035,16188.000000,4.000000,95.000000,,,,0.000000,4.000000,4.000000,4.000000,4.000000,4.000000,100.000000,,,,,,,,,,,,,,,,,,,,,,,,,,,,,,,,,,,,,,,,,,,,,,,,,,,,,,,,,,,,,,,
1656263505.640490,76.000000,0.000000,4265.128418,4236.922852,4072.820557,4090.769287,4235.384766,450.000000,4.000000,95.000000,,,,0.000000,4.000000,4.000000,4.000000,4.000000,4.000000,100.000000,,,,,,,,,,,,,,,,,,,,,,,,,,,,,,,,,,,,,,,,,,,,,,,,,,,,,,,,,,,,,,,
1656263505.648404,77.000000,0.000000,4266.153809,4233.846191,4073.333252,4085.128174,4230.769043,450.000000,4.000000,95.000000,,,,0.000000,4.000000,4.000000,4.000000,4.000000,4.000000,100.000000,,,,,,,,,,,,,,,,,,,,,,,,,,,,,,,,,,,,,,,,,,,,,,,,,,,,,,,,,,,,,,,
1656263505.656219,78.000000,0.000000,4286.153809,4238.974121,4069.230713,4090.256348,4232.307617,450.000000,4.000000,95.000000,,,,0.000000,4.000000,4.000000,4.000000,4.000000,4.000000,100.000000,,,,,,,,,,,,,,,,,,,,,,,,,,,,,,,,,,,,,,,,,,,,,,,,,,,,,,,,,,,,,,,
1656263505.664133,79.000000,0.000000,4276.922852,4240.512695,4063.076904,4081.025635,4223.589844,16188.000000,4.000000,95.000000,,,,0.000000,4.000000,4.000000,4.000000,4.000000,4.000000,100.000000,,,,,,,,,,,,,,,,,,,,,,,,,,,,,,,,,,,,,,,,,,,,,,,,,,,,,,,,,,,,,,,
1656263505.671948,80.000000,0.000000,4269.230957,4244.615234,4062.051270,4077.435791,4211.282227,450.000000,4.000000,95.000000,,,,0.000000,4.000000,4.000000,4.000000,4.000000,4.000000,100.000000,,,,,,,,,,,,,,,,,,,,,,,,,,,,,,,,,,,,,,,,,,,,,,,,,,,,,,,,,,,,,,,
1656263505.679762,81.000000,0.000000,4284.615234,4247.179688,4075.897461,4088.718018,4213.846191,450.000000,4.000000,95.000000,,,,0.000000,4.000000,4.000000,4.000000,4.000000,4.000000,100.000000,,,,,,,,,,,,,,,,,,,,,,,,,,,,,,,,,,,,,,,,,,,,,,,,,,,,,,,,,,,,,,,
1656263505.687676,82.000000,0.000000,4282.051270,4238.461426,4091.794922,4084.102539,4215.897461,450.000000,4.000000,95.000000,,,,0.000000,4.000000,4.000000,4.000000,4.000000,4.000000,100.000000,,,,,,,,,,,,,,,,,,,,,,,,,,,,,,,,,,,,,,,,,,,,,,,,,,,,,,,,,,,,,,,
1656263505.695491,83.000000,0.000000,4282.051270,4231.794922,4098.461426,4081.025635,4211.794922,16188.000000,4.000000,95.000000,,,,0.000000,4.000000,4.000000,4.000000,4.000000,4.000000,100.000000,,,,,,,,,,,,,,,,,,,,,,,,,,,,,,,,,,,,,,,,,,,,,,,,,,,,,,,,,,,,,,,
1656263505.703405,84.000000,0.000000,4294.871582,4241.025879,4093.333252,4105.641113,4220.000000,450.000000,4.000000,95.000000,,,,0.000000,4.000000,4.000000,4.000000,4.000000,4.000000,100.000000,,,,,,,,,,,,,,,,,,,,,,,,,,,,,,,,,,,,,,,,,,,,,,,,,,,,,,,,,,,,,,,
1656263505.711219,85.000000,0.000000,4277.436035,4258.974121,4076.410156,4108.717773,4228.205078,450.000000,4.000000,95.000000,,,,0.000000,4.000000,4.000000,4.000000,4.000000,4.000000,100.000000,,,,,,,,,,,,,,,,,,,,,,,,,,,,,,,,,,,,,,,,,,,,,,,,,,,,,,,,,,,,,,,
1656263505.719134,86.000000,0.000000,4253.333496,4255.897461,4089.743652,4072.307617,4208.717773,450.000000,4.000000,95.000000,,,,0.000000,4.000000,4.000000,4.000000,4.000000,4.000000,100.000000,,,,,,,,,,,,,,,,,,,,,,,,,,,,,,,,,,,,,,,,,,,,,,,,,,,,,,,,,,,,,,,
1656263505.726948,87.000000,0.000000,4254.358887,4243.589844,4120.512695,4059.487061,4189.743652,16188.000000,4.000000,95.000000,,,,0.000000,4.000000,4.000000,4.000000,4.000000,4.000000,100.000000,,,,,,,,,,,,,,,,,,,,,,,,,,,,,,,,,,,,,,,,,,,,,,,,,,,,,,,,,,,,,,,
1656263505.734862,88.000000,0.000000,4260.512695,4252.307617,4107.179688,4077.948730,4202.563965,450.000000,4.000000,95.000000,,,,0.000000,4.000000,4.000000,4.000000,4.000000,4.000000,100.000000,,,,,,,,,,,,,,,,,,,,,,,,,,,,,,,,,,,,,,,4.936535,3.593464,3.483972,2.137927,0.560347,1.152973,1.343839,1.191013,1.791097,0.770122,14.555910,9.907616,3.525528,2.350823,1.081989,2.735618,2.810770,7.213731,1.768041,0.895588,3.960699,5.145538,7.598122,1.318757,0.601769
1656263505.742777,89.000000,1.000000,4261.424316,4253.219238,4100.968750,4078.860352,4206.438965,450.000000,4.000000,95.000000,,,,0.000000,4.000000,4.000000,4.000000,4.000000,4.000000,100.000000,,,,,,,,,,,,,,,,,,,,,,,,,,,,,,,,,,,,,,,,,,,,,,,,,,,,,,,,,,,,,,,
1656263505.750591,90.000000,1.000000,4262.336426,4254.130859,4094.757813,4079.771973,4210.313477,450.000000,4.000000,95.000000,,,,0.000000,4.000000,4.000000,4.000000,4.000000,4.000000,100.000000,,,,,,,,,,,,,,,,,,,,,,,,,,,,,,,,,,,,,,,,,,,,,,,,,,,,,,,,,,,,,,,
1656263505.758405,91.000000,1.000000,4263.248047,4255.042969,4088.547119,4080.683838,4214.187988,450.000000,4.000000,95.000000,,,,0.000000,4.000000,4.000000,4.000000,4.000000,4.000000,100.000000,,,,,,,,,,,,,,,,,,,,,,,,,,,,,,,,,,,,,,,,,,,,,,,,,,,,,,,,,,,,,,,
1656263505.766220,92.000000,1.000000,4264.159668,4255.954590,4082.336182,4081.595459,4218.062500,450.000000,4.000000,95.000000,,,,0.000000,4.000000,4.000000,4.000000,4.000000,4.000000,100.000000,,,,,,,,,,,,,,,,,,,,,,,,,,,,,,,,,,,,,,,,,,,,,,,,,,,,,,,,,,,,,,,
1656263505.774034,93.000000,1.000000,4265.071289,4256.866211,4076.125244,4082.507080,4221.937500,450.000000,4.000000,95.000000,,,,0.000000,4.000000,4.000000,4.000000,4.000000,4.000000,100.000000,,,,,,,,,,,,,,,,,,,,,,,,,,,,,,,,,,,,,,,,,,,,,,,,,,,,,,,,,,,,,,,
1656263505.781849,94.000000,1.000000,4265.982910,4257.777832,4069.914551,4083.418701,4225.812012,450.000000,4.000000,95.000000,,,,0.000000,4.000000,4.000000,4.000000,4.000000,4.000000,100.000000,,,,,,,,,,,,,,,,,,,,,,,,,,,,,,,,,,,,,,,,,,,,,,,,,,,,,,,,,,,,,,,
1656263505.789663,95.000000,1.000000,4266.894531,4258.689453,4063.703613,4084.330566,4229.686523,450.000000,4.000000,95.000000,,,,0.000000,4.000000,4.000000,4.000000,4.000000,4.000000,100.000000,,,,,,,,,,,,,,,,,,,,,,,,,,,,,,,,,,,,,,,,,,,,,,,,,,,,,,,,,,,,,,,
1656263505.797478,96.000000,1.000000,4267.806152,4259.601074,4057.492920,4085.242188,4233.561035,450.000000,4.000000,95.000000,,,,0.000000,4.000000,4.000000,4.000000,4.000000,4.000000,100.000000,,,,,,,,,,,,,,,,,,,,,,,,,,,,,,,,,,,,,,,,,,,,,,,,,,,,,,,,,,,,,,,
1656263505.805292,97.000000,0.000000,4268.717773,4260.512695,4051.281982,4086.153809,4237.436035,450.000000,4.000000,95.000000,,,,0.000000,4.000000,4.000000,4.000000,4.000000,4.000000,100.000000,,,,,,,,,,,,,,,,,,,,,,,,,,,,,,,,,,,,,,,,,,,,,,,,,,,,,,,,,,,,,,,
1656263505.813006,98.000000,0.000000,4269.230957,4241.538574,4066.666748,4077.948730,4226.666504,450.000000,4.000000,95.000000,,,,0.000000,4.000000,4.000000,4.000000,4.000000,4.000000,100.000000,,,,,,,,,,,,,,,,,,,,,,,,,,,,,,,,,,,,,,,,,,,,,,,,,,,,,,,,,,,,,,,
1656263505.820821,99.000000,0.000000,4274.358887,4225.641113,4066.666748,4095.897461,4233.333496,16188.000000,4.000000,95.000000,,,,0.000000,4.000000,4.000000,4.000000,4.000000,4.000000,100.000000,,,,,,,,,,,,,,,,,,,,,,,,,,,,,,,,,,,,,,,,,,,,,,,,,,,,,,,,,,,,,,,
1656263505.828635,100.000000,0.000000,4276.410156,4255.384766,4062.051270,4113.846191,4246.153809,450.000000,4.000000,95.000000,,,,0.000000,4.000000,4.000000,4.000000,4.000000,4.000000,100.000000,,,,,,,,,,,,,,,,,,,,,,,,,,,,,,,,,,,,,,,,,,,,,,,,,,,,,,,,,,,,,,,
1656263505.836450,101.000000,0.000000,4272.307617,4281.538574,4081.538574,4105.128418,4239.487305,450.000000,4.000000,95.000000,,,,0.000000,4.000000,4.000000,4.000000,4.000000,4.000000,100.000000,,,,,,,,,,,,,,,,,,,,,,,,,,,,,,,,,,,,,,,,,,,,,,,,,,,,,,,,,,,,,,,
