title:david_g_Right, start timestamp:1656264720.971766, stop timestamp:1656264725.988461, headset type:INSIGHT, headset serial:A2D201AE, headset firmware:932, channels:84, sampling rate:eeg_128;pm_0.1;pow_8, samples:645       , version:2.1, 
Timestamp,EEG.Counter,EEG.Interpolated,EEG.AF3,EEG.T7,EEG.Pz,EEG.T8,EEG.AF4,EEG.RawCq,EEG.Battery,EEG.BatteryPercent,MarkerIndex,MarkerType,MarkerValueInt,EEG.MarkerHardware,CQ.AF3,CQ.T7,CQ.Pz,CQ.T8,CQ.AF4,CQ.Overall,EQ.SampleRateQuality,EQ.OVERALL,EQ.AF3,EQ.T7,EQ.Pz,EQ.T8,EQ.AF4,PM.Engagement.IsActive,PM.Engagement.Scaled,PM.Engagement.Raw,PM.Engagement.Min,PM.Engagement.Max,PM.Excitement.IsActive,PM.Excitement.Scaled,PM.Excitement.Raw,PM.Excitement.Min,PM.Excitement.Max,PM.LongTermExcitement,PM.Stress.IsActive,PM.Stress.Scaled,PM.Stress.Raw,PM.Stress.Min,PM.Stress.Max,PM.Relaxation.IsActive,PM.Relaxation.Scaled,PM.Relaxation.Raw,PM.Relaxation.Min,PM.Relaxation.Max,PM.Interest.IsActive,PM.Interest.Scaled,PM.Interest.Raw,PM.Interest.Min,PM.Interest.Max,PM.Focus.IsActive,PM.Focus.Scaled,PM.Focus.Raw,PM.Focus.Min,PM.Focus.Max,POW.AF3.Theta,POW.AF3.Alpha,POW.AF3.BetaL,POW.AF3.BetaH,POW.AF3.Gamma,POW.T7.Theta,POW.T7.Alpha,POW.T7.BetaL,POW.T7.BetaH,POW.T7.Gamma,POW.Pz.Theta,POW.Pz.Alpha,POW.Pz.BetaL,POW.Pz.BetaH,POW.Pz.Gamma,POW.T8.Theta,POW.T8.Alpha,POW.T8.BetaL,POW.T8.BetaH,POW.T8.Gamma,POW.AF4.Theta,POW.AF4.Alpha,POW.AF4.BetaL,POW.AF4.BetaH,POW.AF4.Gamma
1656264720.971766,29.000000,0.000000,4277.948730,4236.922852,4139.487305,4083.076904,4211.794922,0.000000,4.000000,86.000000,,,,0.000000,4.000000,4.000000,4.000000,4.000000,4.000000,100.000000,,,,,,,,,,,,,,,,,,,,,,,,,,,,,,,,,,,,,,,3.919309,1.222857,1.867296,1.894509,1.181026,1.911844,0.559317,2.695207,0.778125,1.140984,4.191040,2.137896,2.325312,1.559300,1.252173,1.262856,1.706298,2.665655,0.816767,0.702316,3.512001,1.311193,3.346857,1.723979,0.807715
1656264720.979481,30.000000,0.000000,4285.128418,4231.794922,4143.077148,4085.128174,4223.589844,0.000000,4.000000,86.000000,,,,0.000000,4.000000,4.000000,4.000000,4.000000,4.000000,100.000000,,,,,,,,,,,,,,,,,,,,,,,,,,,,,,,,,,,,,,,,,,,,,,,,,,,,,,,,,,,,,,,
1656264720.987295,31.000000,0.000000,4311.794922,4226.153809,4137.436035,4109.743652,4231.282227,0.000000,4.000000,86.000000,,,,0.000000,4.000000,4.000000,4.000000,4.000000,4.000000,100.000000,,,,,,,,,,,,,,,,,,,,,,,,,,,,,,,,,,,,,,,,,,,,,,,,,,,,,,,,,,,,,,,
1656264720.995010,32.000000,0.000000,4299.487305,4230.256348,4123.589844,4114.871582,4227.179688,0.000000,4.000000,86.000000,,,,0.000000,4.000000,4.000000,4.000000,4.000000,4.000000,100.000000,,,,,,,,,,,,,,,,,,,,,,,,,,,,,,,,,,,,,,,,,,,,,,,,,,,,,,,,,,,,,,,
1656264721.002824,33.000000,0.000000,4277.948730,4237.948730,4121.025879,4106.666504,4224.102539,0.000000,4.000000,86.000000,,,,0.000000,4.000000,4.000000,4.000000,4.000000,4.000000,100.000000,,,,,,,,,,,,,,,,,,,,,,,,,,,,,,,,,,,,,,,,,,,,,,,,,,,,,,,,,,,,,,,
1656264721.010539,34.000000,0.000000,4273.333496,4216.922852,4120.000000,4084.102539,4212.307617,0.000000,4.000000,86.000000,,,,0.000000,4.000000,4.000000,4.000000,4.000000,4.000000,100.000000,,,,,,,,,,,,,,,,,,,,,,,,,,,,,,,,,,,,,,,,,,,,,,,,,,,,,,,,,,,,,,,
1656264721.018353,35.000000,0.000000,4276.922852,4213.333496,4125.128418,4070.769287,4208.717773,0.000000,4.000000,86.000000,,,,0.000000,4.000000,4.000000,4.000000,4.000000,4.000000,100.000000,,,,,,,,,,,,,,,,,,,,,,,,,,,,,,,,,,,,,,,,,,,,,,,,,,,,,,,,,,,,,,,
1656264721.026068,36.000000,0.000000,4272.307617,4251.794922,4111.282227,4083.076904,4214.871582,0.000000,4.000000,86.000000,,,,0.000000,4.000000,4.000000,4.000000,4.000000,4.000000,100.000000,,,,,,,,,,,,,,,,,,,,,,,,,,,,,,,,,,,,,,,,,,,,,,,,,,,,,,,,,,,,,,,
1656264721.033882,37.000000,0.000000,4265.641113,4258.974121,4099.487305,4083.589844,4219.487305,0.000000,4.000000,86.000000,,,,0.000000,4.000000,4.000000,4.000000,4.000000,4.000000,100.000000,,,,,,,,,,,,,,,,,,,,,,,,,,,,,,,,,,,,,,,,,,,,,,,,,,,,,,,,,,,,,,,
1656264721.041596,38.000000,0.000000,4274.358887,4233.846191,4109.230957,4067.692383,4223.077148,0.000000,4.000000,86.000000,,,,0.000000,4.000000,4.000000,4.000000,4.000000,4.000000,100.000000,,,,,,,,,,,,,,,,,,,,,,,,,,,,,,,,,,,,,,,,,,,,,,,,,,,,,,,,,,,,,,,
1656264721.049411,39.000000,0.000000,4273.846191,4223.077148,4096.922852,4065.641113,4215.897461,0.000000,4.000000,86.000000,,,,0.000000,4.000000,4.000000,4.000000,4.000000,4.000000,100.000000,,,,,,,,,,,,,,,,,,,,,,,,,,,,,,,,,,,,,,,,,,,,,,,,,,,,,,,,,,,,,,,
1656264721.057125,40.000000,0.000000,4268.205078,4245.641113,4087.179443,4085.128174,4222.563965,0.000000,4.000000,86.000000,,,,0.000000,4.000000,4.000000,4.000000,4.000000,4.000000,100.000000,,,,,,,,,,,,,,,,,,,,,,,,,,,,,,,,,,,,,,,,,,,,,,,,,,,,,,,,,,,,,,,
1656264721.064840,41.000000,0.000000,4264.102539,4273.333496,4086.153809,4091.794922,4237.436035,0.000000,4.000000,86.000000,,,,0.000000,4.000000,4.000000,4.000000,4.000000,4.000000,100.000000,,,,,,,,,,,,,,,,,,,,,,,,,,,,,,,,,,,,,,,,,,,,,,,,,,,,,,,,,,,,,,,
1656264721.072654,42.000000,0.000000,4249.230957,4253.333496,4076.923096,4071.794922,4223.589844,0.000000,4.000000,86.000000,,,,0.000000,4.000000,4.000000,4.000000,4.000000,4.000000,100.000000,,,,,,,,,,,,,,,,,,,,,,,,,,,,,,,,,,,,,,,,,,,,,,,,,,,,,,,,,,,,,,,
1656264721.080369,43.000000,0.000000,4253.846191,4229.230957,4070.769287,4084.102539,4220.000000,0.000000,4.000000,86.000000,,,,0.000000,4.000000,4.000000,4.000000,4.000000,4.000000,100.000000,,,,,,,,,,,,,,,,,,,,,,,,,,,,,,,,,,,,,,,,,,,,,,,,,,,,,,,,,,,,,,,
1656264721.088183,44.000000,0.000000,4261.025879,4226.666504,4061.025635,4104.615234,4223.077148,0.000000,4.000000,86.000000,,,,0.000000,4.000000,4.000000,4.000000,4.000000,4.000000,100.000000,,,,,,,,,,,,,,,,,,,,,,,,,,,,,,,,,,,,,,,,,,,,,,,,,,,,,,,,,,,,,,,
1656264721.095898,45.000000,0.000000,4260.000000,4231.794922,4071.794922,4085.641113,4206.666504,0.000000,4.000000,86.000000,,,,0.000000,4.000000,4.000000,4.000000,4.000000,4.000000,100.000000,,,,,,,,,,,,,,,,,,,,,,,,,,,,,,,,,,,,,,,3.660707,1.446080,2.006830,2.267674,1.144150,2.399729,0.788490,2.914400,0.919446,1.037718,4.114692,2.227391,2.115268,1.566596,1.160777,1.577138,1.650564,3.133149,0.942449,0.675474,3.537679,1.445882,3.792852,1.799412,0.800043
1656264721.103712,46.000000,0.000000,4263.077148,4251.282227,4098.461426,4072.307617,4206.153809,0.000000,4.000000,86.000000,,,,0.000000,4.000000,4.000000,4.000000,4.000000,4.000000,100.000000,,,,,,,,,,,,,,,,,,,,,,,,,,,,,,,,,,,,,,,,,,,,,,,,,,,,,,,,,,,,,,,
1656264721.111427,47.000000,0.000000,4244.615234,4246.153809,4086.666748,4070.256348,4213.846191,0.000000,4.000000,86.000000,,,,0.000000,4.000000,4.000000,4.000000,4.000000,4.000000,100.000000,,,,,,,,,,,,,,,,,,,,,,,,,,,,,,,,,,,,,,,,,,,,,,,,,,,,,,,,,,,,,,,
1656264721.119241,48.000000,0.000000,4243.077148,4223.589844,4070.256348,4086.153809,4221.538574,0.000000,4.000000,86.000000,,,,0.000000,4.000000,4.000000,4.000000,4.000000,4.000000,100.000000,,,,,,,,,,,,,,,,,,,,,,,,,,,,,,,,,,,,,,,,,,,,,,,,,,,,,,,,,,,,,,,
1656264721.126956,49.000000,0.000000,4270.769043,4211.282227,4099.487305,4103.589844,4226.666504,0.000000,4.000000,86.000000,,,,0.000000,4.000000,4.000000,4.000000,4.000000,4.000000,100.000000,,,,,,,,,,,,,,,,,,,,,,,,,,,,,,,,,,,,,,,,,,,,,,,,,,,,,,,,,,,,,,,
1656264721.134770,50.000000,0.000000,4273.846191,4217.948730,4117.436035,4082.051270,4224.615234,0.000000,4.000000,86.000000,,,,0.000000,4.000000,4.000000,4.000000,4.000000,4.000000,100.000000,,,,,,,,,,,,,,,,,,,,,,,,,,,,,,,,,,,,,,,,,,,,,,,,,,,,,,,,,,,,,,,
1656264721.142484,51.000000,0.000000,4258.461426,4239.487305,4094.871826,4077.435791,4236.410156,0.000000,4.000000,86.000000,,,,0.000000,4.000000,4.000000,4.000000,4.000000,4.000000,100.000000,,,,,,,,,,,,,,,,,,,,,,,,,,,,,,,,,,,,,,,,,,,,,,,,,,,,,,,,,,,,,,,
1656264721.150299,52.000000,0.000000,4236.922852,4233.333496,4076.923096,4101.025879,4236.922852,0.000000,4.000000,86.000000,,,,0.000000,4.000000,4.000000,4.000000,4.000000,4.000000,100.000000,,,,,,,,,,,,,,,,,,,,,,,,,,,,,,,,,,,,,,,,,,,,,,,,,,,,,,,,,,,,,,,
1656264721.158113,53.000000,0.000000,4236.922852,4230.256348,4087.692383,4105.128418,4232.820313,0.000000,4.000000,86.000000,,,,0.000000,4.000000,4.000000,4.000000,4.000000,4.000000,100.000000,,,,,,,,,,,,,,,,,,,,,,,,,,,,,,,,,,,,,,,,,,,,,,,,,,,,,,,,,,,,,,,
1656264721.165828,54.000000,0.000000,4267.179688,4248.205078,4091.281982,4094.871826,4237.948730,0.000000,4.000000,86.000000,,,,0.000000,4.000000,4.000000,4.000000,4.000000,4.000000,100.000000,,,,,,,,,,,,,,,,,,,,,,,,,,,,,,,,,,,,,,,,,,,,,,,,,,,,,,,,,,,,,,,
1656264721.173542,55.000000,0.000000,4289.230957,4247.179688,4080.000000,4102.051270,4241.538574,0.000000,4.000000,86.000000,,,,0.000000,4.000000,4.000000,4.000000,4.000000,4.000000,100.000000,,,,,,,,,,,,,,,,,,,,,,,,,,,,,,,,,,,,,,,,,,,,,,,,,,,,,,,,,,,,,,,
1656264721.181357,56.000000,0.000000,4286.666504,4236.410156,4081.538574,4114.358887,4253.333496,0.000000,4.000000,86.000000,,,,0.000000,4.000000,4.000000,4.000000,4.000000,4.000000,100.000000,,,,,,,,,,,,,,,,,,,,,,,,,,,,,,,,,,,,,,,,,,,,,,,,,,,,,,,,,,,,,,,
1656264721.189071,57.000000,0.000000,4268.717773,4237.436035,4081.538574,4104.615234,4248.717773,0.000000,4.000000,86.000000,,,,0.000000,4.000000,4.000000,4.000000,4.000000,4.000000,100.000000,,,,,,,,,,,,,,,,,,,,,,,,,,,,,,,,,,,,,,,,,,,,,,,,,,,,,,,,,,,,,,,
1656264721.196886,58.000000,0.000000,4268.205078,4250.256348,4074.871826,4104.615234,4240.000000,0.000000,4.000000,86.000000,,,,0.000000,4.000000,4.000000,4.000000,4.000000,4.000000,100.000000,,,,,,,,,,,,,,,,,,,,,,,,,,,,,,,,,,,,,,,,,,,,,,,,,,,,,,,,,,,,,,,
1656264721.204600,59.000000,0.000000,4276.410156,4238.461426,4066.666748,4111.282227,4234.871582,0.000000,4.000000,86.000000,,,,0.000000,4.000000,4.000000,4.000000,4.000000,4.000000,100.000000,,,,,,,,,,,,,,,,,,,,,,,,,,,,,,,,,,,,,,,,,,,,,,,,,,,,,,,,,,,,,,,
1656264721.212315,60.000000,0.000000,4271.794922,4229.743652,4063.076904,4097.436035,4221.025879,0.000000,4.000000,86.000000,,,,0.000000,4.000000,4.000000,4.000000,4.000000,4.000000,100.000000,,,,,,,,,,,,,,,,,,,,,,,,,,,,,,,,,,,,,,,,,,,,,,,,,,,,,,,,,,,,,,,
1656264721.220129,61.000000,0.000000,4260.000000,4248.205078,4057.948730,4082.051270,4211.282227,0.000000,4.000000,86.000000,,,,0.000000,4.000000,4.000000,4.000000,4.000000,4.000000,100.000000,,,,,,,,,,,,,,,,,,,,,,,,,,,,,,,,,,,,,,,3.773837,1.783756,2.027794,2.579107,1.093708,2.866582,1.096052,3.005472,1.098855,0.926929,4.258713,2.295232,2.088946,1.730163,1.018862,2.108132,1.507854,3.359253,1.085457,0.647850,3.686673,1.681634,4.095031,1.789726,0.774511
1656264721.227844,62.000000,0.000000,4242.563965,4251.794922,4050.256348,4075.897461,4211.282227,0.000000,4.000000,86.000000,,,,0.000000,4.000000,4.000000,4.000000,4.000000,4.000000,100.000000,,,,,,,,,,,,,,,,,,,,,,,,,,,,,,,,,,,,,,,,,,,,,,,,,,,,,,,,,,,,,,,
1656264721.235658,63.000000,0.000000,4252.820313,4245.641113,4064.615479,4099.487305,4231.794922,0.000000,4.000000,86.000000,,,,0.000000,4.000000,4.000000,4.000000,4.000000,4.000000,100.000000,,,,,,,,,,,,,,,,,,,,,,,,,,,,,,,,,,,,,,,,,,,,,,,,,,,,,,,,,,,,,,,
1656264721.243372,64.000000,0.000000,4277.948730,4227.179688,4080.000000,4117.436035,4224.615234,450.000000,4.000000,86.000000,,,,0.000000,4.000000,4.000000,4.000000,4.000000,4.000000,100.000000,,,,,,,,,,,,,,,,,,,,,,,,,,,,,,,,,,,,,,,,,,,,,,,,,,,,,,,,,,,,,,,
1656264721.251187,65.000000,0.000000,4278.461426,4224.102539,4085.641113,4100.000000,4204.615234,450.000000,4.000000,86.000000,,,,0.000000,4.000000,4.000000,4.000000,4.000000,4.000000,100.000000,,,,,,,,,,,,,,,,,,,,,,,,,,,,,,,,,,,,,,,,,,,,,,,,,,,,,,,,,,,,,,,
1656264721.258901,66.000000,0.000000,4266.153809,4247.692383,4080.512939,4087.692383,4227.692383,16232.000000,4.000000,86.000000,,,,0.000000,4.000000,4.000000,4.000000,4.000000,4.000000,100.000000,,,,,,,,,,,,,,,,,,,,,,,,,,,,,,,,,,,,,,,,,,,,,,,,,,,,,,,,,,,,,,,
1656264721.266716,67.000000,0.000000,4254.358887,4236.410156,4068.205078,4086.153809,4239.487305,450.000000,4.000000,86.000000,,,,0.000000,4.000000,4.000000,4.000000,4.000000,4.000000,100.000000,,,,,,,,,,,,,,,,,,,,,,,,,,,,,,,,,,,,,,,,,,,,,,,,,,,,,,,,,,,,,,,
1656264721.274530,68.000000,0.000000,4255.897461,4219.487305,4079.487061,4092.307617,4223.077148,16201.000000,4.000000,86.000000,,,,0.000000,4.000000,4.000000,4.000000,4.000000,4.000000,100.000000,,,,,,,,,,,,,,,,,,,,,,,,,,,,,,,,,,,,,,,,,,,,,,,,,,,,,,,,,,,,,,,
1656264721.282245,69.000000,0.000000,4250.256348,4233.846191,4084.615479,4098.974121,4217.948730,450.000000,4.000000,86.000000,,,,0.000000,4.000000,4.000000,4.000000,4.000000,4.000000,100.000000,,,,,,,,,,,,,,,,,,,,,,,,,,,,,,,,,,,,,,,,,,,,,,,,,,,,,,,,,,,,,,,
1656264721.289959,70.000000,0.000000,4225.641113,4234.358887,4068.718018,4086.153809,4215.897461,16128.000000,4.000000,86.000000,,,,0.000000,4.000000,4.000000,4.000000,4.000000,4.000000,100.000000,,,,,,,,,,,,,,,,,,,,,,,,,,,,,,,,,,,,,,,,,,,,,,,,,,,,,,,,,,,,,,,
1656264721.297774,71.000000,0.000000,4223.077148,4226.153809,4072.307617,4076.923096,4210.256348,450.000000,4.000000,86.000000,,,,0.000000,4.000000,4.000000,4.000000,4.000000,4.000000,100.000000,,,,,,,,,,,,,,,,,,,,,,,,,,,,,,,,,,,,,,,,,,,,,,,,,,,,,,,,,,,,,,,
1656264721.305488,72.000000,0.000000,4234.358887,4241.538574,4064.102539,4074.871826,4212.307617,450.000000,4.000000,86.000000,,,,0.000000,4.000000,4.000000,4.000000,4.000000,4.000000,100.000000,,,,,,,,,,,,,,,,,,,,,,,,,,,,,,,,,,,,,,,,,,,,,,,,,,,,,,,,,,,,,,,
1656264721.313303,73.000000,0.000000,4242.051270,4248.717773,4066.666748,4071.794922,4217.948730,16213.000000,4.000000,86.000000,,,,0.000000,4.000000,4.000000,4.000000,4.000000,4.000000,100.000000,,,,,,,,,,,,,,,,,,,,,,,,,,,,,,,,,,,,,,,,,,,,,,,,,,,,,,,,,,,,,,,
1656264721.321017,74.000000,0.000000,4242.051270,4241.538574,4099.487305,4071.281982,4212.307617,450.000000,4.000000,86.000000,,,,0.000000,4.000000,4.000000,4.000000,4.000000,4.000000,100.000000,,,,,,,,,,,,,,,,,,,,,,,,,,,,,,,,,,,,,,,,,,,,,,,,,,,,,,,,,,,,,,,
1656264721.328831,75.000000,0.000000,4231.794922,4232.307617,4096.922852,4068.718018,4206.666504,16176.000000,4.000000,86.000000,,,,0.000000,4.000000,4.000000,4.000000,4.000000,4.000000,100.000000,,,,,,,,,,,,,,,,,,,,,,,,,,,,,,,,,,,,,,,,,,,,,,,,,,,,,,,,,,,,,,,
1656264721.336546,76.000000,0.000000,4243.589844,4233.333496,4095.897461,4078.461426,4225.128418,450.000000,4.000000,86.000000,,,,0.000000,4.000000,4.000000,4.000000,4.000000,4.000000,100.000000,,,,,,,,,,,,,,,,,,,,,,,,,,,,,,,,,,,,,,,,,,,,,,,,,,,,,,,,,,,,,,,
1656264721.344360,77.000000,0.000000,4260.512695,4242.563965,4117.948730,4081.025635,4234.358887,450.000000,4.000000,86.000000,,,,0.000000,4.000000,4.000000,4.000000,4.000000,4.000000,100.000000,1.000000,100.000000,4.000000,4.000000,4.000000,4.000000,4.000000,,,,,,,,,,,,,,,,,,,,,,,,,,,,,,,,4.572446,2.197284,1.996193,2.700740,1.044229,3.201255,1.392946,2.958361,1.265605,0.851050,4.518171,2.282905,2.184428,1.944779,0.860311,2.905636,1.383052,3.325692,1.229053,0.628455,4.105391,1.985861,4.212993,1.694923,0.732529
1656264721.352075,78.000000,0.000000,4255.897461,4237.436035,4105.641113,4072.820557,4222.563965,450.000000,4.000000,86.000000,,,,0.000000,4.000000,4.000000,4.000000,4.000000,4.000000,100.000000,,,,,,,,,,,,,,,,,,,,,,,,,,,,,,,,,,,,,,,,,,,,,,,,,,,,,,,,,,,,,,,
1656264721.359889,79.000000,0.000000,4257.948730,4222.563965,4088.205078,4080.000000,4219.487305,16176.000000,4.000000,86.000000,,,,0.000000,4.000000,4.000000,4.000000,4.000000,4.000000,100.000000,,,,,,,,,,,,,,,,,,,,,,,,,,,,,,,,,,,,,,,,,,,,,,,,,,,,,,,,,,,,,,,
1656264721.367604,80.000000,0.000000,4247.179688,4212.820313,4091.281982,4058.974365,4211.282227,450.000000,4.000000,86.000000,,,,0.000000,4.000000,4.000000,4.000000,4.000000,4.000000,100.000000,,,,,,,,,,,,,,,,,,,,,,,,,,,,,,,,,,,,,,,,,,,,,,,,,,,,,,,,,,,,,,,
1656264721.375418,81.000000,0.000000,4234.871582,4216.410156,4093.333252,4050.769287,4210.769043,450.000000,4.000000,86.000000,,,,0.000000,4.000000,4.000000,4.000000,4.000000,4.000000,100.000000,,,,,,,,,,,,,,,,,,,,,,,,,,,,,,,,,,,,,,,,,,,,,,,,,,,,,,,,,,,,,,,
1656264721.383133,82.000000,0.000000,4256.410156,4216.922852,4082.564209,4088.205078,4222.051270,450.000000,4.000000,86.000000,,,,0.000000,4.000000,4.000000,4.000000,4.000000,4.000000,100.000000,,,,,,,,,,,,,,,,,,,,,,,,,,,,,,,,,,,,,,,,,,,,,,,,,,,,,,,,,,,,,,,
1656264721.391047,83.000000,0.000000,4262.563965,4212.820313,4084.615479,4087.179443,4212.307617,16176.000000,4.000000,86.000000,,,,0.000000,4.000000,4.000000,4.000000,4.000000,4.000000,100.000000,,,,,,,,,,,,,,,,,,,,,,,,,,,,,,,,,,,,,,,,,,,,,,,,,,,,,,,,,,,,,,,
1656264721.398861,84.000000,0.000000,4243.077148,4236.410156,4107.179688,4067.179443,4215.384766,450.000000,4.000000,86.000000,,,,0.000000,4.000000,4.000000,4.000000,4.000000,4.000000,100.000000,,,,,,,,,,,,,,,,,,,,,,,,,,,,,,,,,,,,,,,,,,,,,,,,,,,,,,,,,,,,,,,
1656264721.406676,85.000000,0.000000,4228.717773,4247.692383,4114.871582,4070.769287,4225.641113,450.000000,4.000000,86.000000,,,,0.000000,4.000000,4.000000,4.000000,4.000000,4.000000,100.000000,,,,,,,,,,,,,,,,,,,,,,,,,,,,,,,,,,,,,,,,,,,,,,,,,,,,,,,,,,,,,,,
1656264721.414390,86.000000,0.000000,4241.538574,4233.333496,4116.922852,4078.974365,4219.487305,450.000000,4.000000,86.000000,,,,0.000000,4.000000,4.000000,4.000000,4.000000,4.000000,100.000000,,,,,,,,,,,,,,,,,,,,,,,,,,,,,,,,,,,,,,,,,,,,,,,,,,,,,,,,,,,,,,,
1656264721.422205,87.000000,0.000000,4265.641113,4234.871582,4112.820313,4092.307617,4232.307617,16176.000000,4.000000,86.000000,,,,0.000000,4.000000,4.000000,4.000000,4.000000,4.000000,100.000000,,,,,,,,,,,,,,,,,,,,,,,,,,,,,,,,,,,,,,,,,,,,,,,,,,,,,,,,,,,,,,,
1656264721.429919,88.000000,0.000000,4258.974121,4231.282227,4098.461426,4095.384521,4235.384766,450.000000,4.000000,86.000000,,,,0.000000,4.000000,4.000000,4.000000,4.000000,4.000000,100.000000,,,,,,,,,,,,,,,,,,,,,,,,,,,,,,,,,,,,,,,,,,,,,,,,,,,,,,,,,,,,,,,
1656264721.437634,89.000000,0.000000,4254.358887,4234.358887,4130.256348,4087.179443,4211.794922,450.000000,4.000000,86.000000,,,,0.000000,4.000000,4.000000,4.000000,4.000000,4.000000,100.000000,,,,,,,,,,,,,,,,,,,,,,,,,,,,,,,,,,,,,,,,,,,,,,,,,,,,,,,,,,,,,,,
1656264721.445448,90.000000,0.000000,4245.641113,4244.102539,4151.794922,4074.358887,4196.410156,450.000000,4.000000,86.000000,,,,0.000000,4.000000,4.000000,4.000000,4.000000,4.000000,100.000000,,,,,,,,,,,,,,,,,,,,,,,,,,,,,,,,,,,,,,,,,,,,,,,,,,,,,,,,,,,,,,,
1656264721.453263,91.000000,0.000000,4228.717773,4229.743652,4116.922852,4071.281982,4196.410156,16176.000000,4.000000,86.000000,,,,0.000000,4.000000,4.000000,4.000000,4.000000,4.000000,100.000000,,,,,,,,,,,,,,,,,,,,,,,,,,,,,,,,,,,,,,,,,,,,,,,,,,,,,,,,,,,,,,,
1656264721.460977,92.000000,0.000000,4241.538574,4214.871582,4109.743652,4090.256348,4206.153809,450.000000,4.000000,86.000000,,,,0.000000,4.000000,4.000000,4.000000,4.000000,4.000000,100.000000,,,,,,,,,,,,,,,,,,,,,,,,,,,,,,,,,,,,,,,,,,,,,,,,,,,,,,,,,,,,,,,
1656264721.468792,93.000000,0.000000,4246.666504,4212.307617,4130.256348,4092.307617,4212.307617,450.000000,4.000000,86.000000,,,,0.000000,4.000000,4.000000,4.000000,4.000000,4.000000,100.000000,,,,,,,,,,,,,,,,,,,,,,,,,,,,,,,,,,,,,,,6.038209,2.619371,1.995777,2.583905,1.012910,3.328869,1.590501,2.792226,1.374369,0.847498,4.969685,2.147799,2.271155,2.079833,0.725973,3.912676,1.405055,3.107299,1.356793,0.628002,4.819257,2.311034,4.137494,1.530366,0.678179
1656264721.476506,94.000000,0.000000,4249.743652,4222.563965,4123.589844,4085.128174,4223.077148,450.000000,4.000000,86.000000,,,,0.000000,4.000000,4.000000,4.000000,4.000000,4.000000,100.000000,,,,,,,,,,,,,,,,,,,,,,,,,,,,,,,,,,,,,,,,,,,,,,,,,,,,,,,,,,,,,,,
1656264721.484221,95.000000,0.000000,4263.589844,4220.512695,4097.948730,4083.076904,4223.589844,16176.000000,4.000000,86.000000,,,,0.000000,4.000000,4.000000,4.000000,4.000000,4.000000,100.000000,,,,,,,,,,,,,,,,,,,,,,,,,,,,,,,,,,,,,,,,,,,,,,,,,,,,,,,,,,,,,,,
1656264721.492135,96.000000,0.000000,4258.461426,4216.410156,4091.794922,4068.718018,4213.846191,450.000000,4.000000,86.000000,,,,0.000000,4.000000,4.000000,4.000000,4.000000,4.000000,100.000000,,,,,,,,,,,,,,,,,,,,,,,,,,,,,,,,,,,,,,,,,,,,,,,,,,,,,,,,,,,,,,,
1656264721.499949,97.000000,0.000000,4249.230957,4240.000000,4099.487305,4067.179443,4226.153809,450.000000,4.000000,86.000000,,,,0.000000,4.000000,4.000000,4.000000,4.000000,4.000000,100.000000,,,,,,,,,,,,,,,,,,,,,,,,,,,,,,,,,,,,,,,,,,,,,,,,,,,,,,,,,,,,,,,
1656264721.507764,98.000000,0.000000,4249.230957,4236.410156,4085.128174,4083.076904,4229.743652,450.000000,4.000000,86.000000,,,,0.000000,4.000000,4.000000,4.000000,4.000000,4.000000,100.000000,,,,,,,,,,,,,,,,,,,,,,,,,,,,,,,,,,,,,,,,,,,,,,,,,,,,,,,,,,,,,,,
1656264721.515578,99.000000,0.000000,4258.974121,4223.589844,4067.692383,4096.410156,4228.205078,16176.000000,4.000000,86.000000,,,,0.000000,4.000000,4.000000,4.000000,4.000000,4.000000,100.000000,,,,,,,,,,,,,,,,,,,,,,,,,,,,,,,,,,,,,,,,,,,,,,,,,,,,,,,,,,,,,,,
1656264721.523293,100.000000,0.000000,4269.230957,4244.102539,4057.948730,4101.538574,4238.974121,450.000000,4.000000,86.000000,,,,0.000000,4.000000,4.000000,4.000000,4.000000,4.000000,100.000000,,,,,,,,,,,,,,,,,,,,,,,,,,,,,,,,,,,,,,,,,,,,,,,,,,,,,,,,,,,,,,,
1656264721.531207,101.000000,0.000000,4276.410156,4251.282227,4068.718018,4100.512695,4241.538574,450.000000,4.000000,86.000000,,,,0.000000,4.000000,4.000000,4.000000,4.000000,4.000000,100.000000,,,,,,,,,,,,,,,,,,,,,,,,,,,,,,,,,,,,,,,,,,,,,,,,,,,,,,,,,,,,,,,
1656264721.539021,102.000000,0.000000,4285.128418,4241.025879,4094.358887,4103.077148,4247.692383,450.000000,4.000000,86.000000,,,,0.000000,4.000000,4.000000,4.000000,4.000000,4.000000,100.000000,,,,,,,,,,,,,,,,,,,,,,,,,,,,,,,,,,,,,,,,,,,,,,,,,,,,,,,,,,,,,,,
1656264721.546836,103.000000,0.000000,4276.410156,4235.897461,4088.205078,4105.641113,4250.769043,16176.000000,4.000000,86.000000,,,,0.000000,4.000000,4.000000,4.000000,4.000000,4.000000,100.000000,,,,,,,,,,,,,,,,,,,,,,,,,,,,,,,,,,,,,,,,,,,,,,,,,,,,,,,,,,,,,,,
1656264721.554650,104.000000,0.000000,4278.974121,4238.974121,4080.000000,4119.487305,4246.666504,450.000000,4.000000,86.000000,,,,0.000000,4.000000,4.000000,4.000000,4.000000,4.000000,100.000000,,,,,,,,,,,,,,,,,,,,,,,,,,,,,,,,,,,,,,,,,,,,,,,,,,,,,,,,,,,,,,,
1656264721.562365,105.000000,0.000000,4298.974121,4224.615234,4089.743652,4123.077148,4231.794922,450.000000,4.000000,86.000000,,,,0.000000,4.000000,4.000000,4.000000,4.000000,4.000000,100.000000,,,,,,,,,,,,,,,,,,,,,,,,,,,,,,,,,,,,,,,,,,,,,,,,,,,,,,,,,,,,,,,
1656264721.570179,106.000000,0.000000,4283.589844,4216.922852,4079.487061,4096.410156,4218.974121,450.000000,4.000000,86.000000,,,,0.000000,4.000000,4.000000,4.000000,4.000000,4.000000,100.000000,,,,,,,,,,,,,,,,,,,,,,,,,,,,,,,,,,,,,,,,,,,,,,,,,,,,,,,,,,,,,,,
1656264721.577894,107.000000,0.000000,4258.974121,4238.461426,4046.153809,4094.358887,4228.717773,16176.000000,4.000000,86.000000,,,,0.000000,4.000000,4.000000,4.000000,4.000000,4.000000,100.000000,,,,,,,,,,,,,,,,,,,,,,,,,,,,,,,,,,,,,,,,,,,,,,,,,,,,,,,,,,,,,,,
1656264721.585708,108.000000,0.000000,4269.230957,4227.692383,4035.897461,4107.179688,4231.282227,450.000000,4.000000,86.000000,,,,0.000000,4.000000,4.000000,4.000000,4.000000,4.000000,100.000000,,,,,,,,,,,,,,,,,,,,,,,,,,,,,,,,,,,,,,,,,,,,,,,,,,,,,,,,,,,,,,,
1656264721.593422,109.000000,0.000000,4300.000000,4203.077148,4062.564209,4100.000000,4238.461426,450.000000,4.000000,86.000000,,,,0.000000,4.000000,4.000000,4.000000,4.000000,4.000000,100.000000,,,,,,,,,,,,,,,,,,,,,,,,,,,,,,,,,,,,,,,7.812971,2.967555,2.092057,2.284616,1.010950,3.227145,1.649470,2.542635,1.403412,0.924863,5.587282,1.932022,2.262959,2.049177,0.648964,4.917871,1.619562,2.806787,1.453069,0.653964,5.670545,2.602573,3.897028,1.327592,0.618460
1656264721.601237,110.000000,0.000000,4296.922852,4201.025879,4072.307617,4091.281982,4241.025879,450.000000,4.000000,86.000000,,,,0.000000,4.000000,4.000000,4.000000,4.000000,4.000000,100.000000,,,,,,,,,,,,,,,,,,,,,,,,,,,,,,,,,,,,,,,,,,,,,,,,,,,,,,,,,,,,,,,
1656264721.608951,111.000000,0.000000,4259.487305,4206.666504,4054.871826,4093.846191,4223.077148,16176.000000,4.000000,86.000000,,,,0.000000,4.000000,4.000000,4.000000,4.000000,4.000000,100.000000,,,,,,,,,,,,,,,,,,,,,,,,,,,,,,,,,,,,,,,,,,,,,,,,,,,,,,,,,,,,,,,
1656264721.616766,112.000000,0.000000,4266.153809,4222.051270,4067.692383,4096.922852,4220.512695,450.000000,4.000000,86.000000,,,,0.000000,4.000000,4.000000,4.000000,4.000000,4.000000,100.000000,,,,,,,,,,,,,,,,,,,,,,,,,,,,,,,,,,,,,,,,,,,,,,,,,,,,,,,,,,,,,,,
1656264721.624480,113.000000,0.000000,4296.410156,4231.282227,4094.358887,4092.820557,4219.487305,450.000000,4.000000,86.000000,,,,0.000000,4.000000,4.000000,4.000000,4.000000,4.000000,100.000000,,,,,,,,,,,,,,,,,,,,,,,,,,,,,,,,,,,,,,,,,,,,,,,,,,,,,,,,,,,,,,,
1656264721.632195,114.000000,0.000000,4301.025879,4240.000000,4092.307617,4117.948730,4226.666504,450.000000,4.000000,86.000000,,,,0.000000,4.000000,4.000000,4.000000,4.000000,4.000000,100.000000,,,,,,,,,,,,,,,,,,,,,,,,,,,,,,,,,,,,,,,,,,,,,,,,,,,,,,,,,,,,,,,
1656264721.640009,115.000000,0.000000,4300.000000,4245.641113,4090.769287,4141.025879,4247.179688,16176.000000,4.000000,86.000000,,,,0.000000,4.000000,4.000000,4.000000,4.000000,4.000000,100.000000,,,,,,,,,,,,,,,,,,,,,,,,,,,,,,,,,,,,,,,,,,,,,,,,,,,,,,,,,,,,,,,
1656264721.647824,116.000000,0.000000,4297.436035,4238.461426,4103.077148,4116.410156,4238.974121,450.000000,4.000000,86.000000,,,,0.000000,4.000000,4.000000,4.000000,4.000000,4.000000,100.000000,,,,,,,,,,,,,,,,,,,,,,,,,,,,,,,,,,,,,,,,,,,,,,,,,,,,,,,,,,,,,,,
1656264721.655538,117.000000,0.000000,4298.974121,4243.589844,4108.717773,4116.410156,4240.512695,450.000000,4.000000,86.000000,,,,0.000000,4.000000,4.000000,4.000000,4.000000,4.000000,100.000000,,,,,,,,,,,,,,,,,,,,,,,,,,,,,,,,,,,,,,,,,,,,,,,,,,,,,,,,,,,,,,,
1656264721.663253,118.000000,0.000000,4303.077148,4247.692383,4097.436035,4132.820313,4261.025879,450.000000,4.000000,86.000000,,,,0.000000,4.000000,4.000000,4.000000,4.000000,4.000000,100.000000,,,,,,,,,,,,,,,,,,,,,,,,,,,,,,,,,,,,,,,,,,,,,,,,,,,,,,,,,,,,,,,
1656264721.671067,119.000000,0.000000,4309.743652,4233.846191,4110.256348,4111.282227,4253.333496,16176.000000,4.000000,86.000000,,,,0.000000,4.000000,4.000000,4.000000,4.000000,4.000000,100.000000,,,,,,,,,,,,,,,,,,,,,,,,,,,,,,,,,,,,,,,,,,,,,,,,,,,,,,,,,,,,,,,
1656264721.678782,120.000000,0.000000,4303.077148,4227.692383,4133.846191,4087.692383,4235.897461,450.000000,4.000000,86.000000,,,,0.000000,4.000000,4.000000,4.000000,4.000000,4.000000,100.000000,,,,,,,,,,,,,,,,,,,,,,,,,,,,,,,,,,,,,,,,,,,,,,,,,,,,,,,,,,,,,,,
1656264721.686596,121.000000,0.000000,4268.205078,4235.384766,4116.922852,4077.948730,4228.205078,450.000000,4.000000,86.000000,,,,0.000000,4.000000,4.000000,4.000000,4.000000,4.000000,100.000000,,,,,,,,,,,,,,,,,,,,,,,,,,,,,,,,,,,,,,,,,,,,,,,,,,,,,,,,,,,,,,,
1656264721.694310,122.000000,0.000000,4258.461426,4245.128418,4094.358887,4093.333252,4227.179688,450.000000,4.000000,86.000000,,,,0.000000,4.000000,4.000000,4.000000,4.000000,4.000000,100.000000,,,,,,,,,,,,,,,,,,,,,,,,,,,,,,,,,,,,,,,,,,,,,,,,,,,,,,,,,,,,,,,
1656264721.702125,123.000000,0.000000,4283.589844,4244.102539,4083.076904,4114.358887,4235.384766,16176.000000,4.000000,86.000000,,,,0.000000,4.000000,4.000000,4.000000,4.000000,4.000000,100.000000,,,,,,,,,,,,,,,,,,,,,,,,,,,,,,,,,,,,,,,,,,,,,,,,,,,,,,,,,,,,,,,
1656264721.709839,124.000000,0.000000,4301.025879,4239.487305,4084.102539,4107.692383,4246.153809,450.000000,4.000000,86.000000,,,,0.000000,4.000000,4.000000,4.000000,4.000000,4.000000,100.000000,,,,,,,,,,,,,,,,,,,,,,,,,,,,,,,,,,,,,,,,,,,,,,,,,,,,,,,,,,,,,,,
1656264721.717654,125.000000,0.000000,4296.410156,4245.641113,4096.410156,4092.820557,4240.000000,450.000000,4.000000,86.000000,,,,0.000000,4.000000,4.000000,4.000000,4.000000,4.000000,100.000000,,,,,,,,,,,,,,,,,,,,,,,,,,,,,,,,,,,,,,,9.305341,3.135979,2.276081,1.922260,1.036521,2.935334,1.621205,2.241711,1.359617,1.057020,6.265444,1.731164,2.157852,1.836674,0.645628,5.649402,1.939955,2.497734,1.508637,0.707042,6.380693,2.788353,3.545405,1.125978,0.560665
1656264721.725368,126.000000,0.000000,4272.820313,4244.615234,4096.922852,4080.512939,4225.641113,450.000000,4.000000,86.000000,,,,0.000000,4.000000,4.000000,4.000000,4.000000,4.000000,100.000000,,,,,,,,,,,,,,,,,,,,,,,,,,,,,,,,,,,,,,,,,,,,,,,,,,,,,,,,,,,,,,,
1656264721.733183,127.000000,0.000000,4277.948730,4244.102539,4107.692383,4100.512695,4246.666504,241.000000,4.000000,86.000000,,,,0.000000,4.000000,4.000000,4.000000,4.000000,4.000000,100.000000,,,,,,,,,,,,,,,,,,,,,,,,,,,,,,,,,,,,,,,,,,,,,,,,,,,,,,,,,,,,,,,
1656264721.740897,0.000000,0.000000,4294.358887,4245.641113,4107.692383,4120.000000,4255.897461,450.000000,4.000000,86.000000,,,,0.000000,4.000000,4.000000,4.000000,4.000000,4.000000,100.000000,,,,,,,,,,,,,,,,,,,,,,,,,,,,,,,,,,,,,,,,,,,,,,,,,,,,,,,,,,,,,,,
1656264721.748812,1.000000,0.000000,4283.589844,4241.025879,4096.410156,4104.102539,4222.563965,450.000000,4.000000,86.000000,,,,0.000000,4.000000,4.000000,4.000000,4.000000,4.000000,100.000000,,,,,,,,,,,,,,,,,,,,,,,,,,,,,,,,,,,,,,,,,,,,,,,,,,,,,,,,,,,,,,,
1656264721.756626,2.000000,0.000000,4271.794922,4244.615234,4098.974121,4105.641113,4205.128418,16255.000000,4.000000,86.000000,,,,0.000000,4.000000,4.000000,4.000000,4.000000,4.000000,100.000000,,,,,,,,,,,,,,,,,,,,,,,,,,,,,,,,,,,,,,,,,,,,,,,,,,,,,,,,,,,,,,,
1656264721.764440,3.000000,0.000000,4265.128418,4240.000000,4089.230713,4111.282227,4208.205078,450.000000,4.000000,86.000000,,,,0.000000,4.000000,4.000000,4.000000,4.000000,4.000000,100.000000,,,,,,,,,,,,,,,,,,,,,,,,,,,,,,,,,,,,,,,,,,,,,,,,,,,,,,,,,,,,,,,
1656264721.772155,4.000000,0.000000,4274.358887,4242.563965,4095.384521,4098.461426,4222.051270,16231.000000,4.000000,86.000000,,,,0.000000,4.000000,4.000000,4.000000,4.000000,4.000000,100.000000,,,,,,,,,,,,,,,,,,,,,,,,,,,,,,,,,,,,,,,,,,,,,,,,,,,,,,,,,,,,,,,
1656264721.779969,5.000000,0.000000,4280.000000,4254.358887,4112.820313,4086.153809,4236.410156,450.000000,4.000000,86.000000,,,,0.000000,4.000000,4.000000,4.000000,4.000000,4.000000,100.000000,,,,,,,,,,,,,,,,,,,,,,,,,,,,,,,,,,,,,,,,,,,,,,,,,,,,,,,,,,,,,,,
1656264721.787684,6.000000,0.000000,4265.641113,4248.205078,4102.563965,4093.333252,4238.974121,16218.000000,4.000000,86.000000,,,,0.000000,4.000000,4.000000,4.000000,4.000000,4.000000,100.000000,,,,,,,,,,,,,,,,,,,,,,,,,,,,,,,,,,,,,,,,,,,,,,,,,,,,,,,,,,,,,,,
1656264721.795498,7.000000,0.000000,4278.974121,4249.743652,4098.974121,4116.410156,4248.717773,450.000000,4.000000,86.000000,,,,0.000000,4.000000,4.000000,4.000000,4.000000,4.000000,100.000000,,,,,,,,,,,,,,,,,,,,,,,,,,,,,,,,,,,,,,,,,,,,,,,,,,,,,,,,,,,,,,,
1656264721.803213,8.000000,0.000000,4298.461426,4241.538574,4106.153809,4109.743652,4243.589844,450.000000,4.000000,86.000000,,,,0.000000,4.000000,4.000000,4.000000,4.000000,4.000000,100.000000,,,,,,,,,,,,,,,,,,,,,,,,,,,,,,,,,,,,,,,,,,,,,,,,,,,,,,,,,,,,,,,
1656264721.811127,9.000000,0.000000,4286.666504,4223.077148,4106.153809,4092.820557,4216.410156,16273.000000,4.000000,86.000000,,,,0.000000,4.000000,4.000000,4.000000,4.000000,4.000000,100.000000,,,,,,,,,,,,,,,,,,,,,,,,,,,,,,,,,,,,,,,,,,,,,,,,,,,,,,,,,,,,,,,
1656264721.818941,10.000000,0.000000,4272.820313,4233.333496,4102.563965,4102.563965,4211.794922,450.000000,4.000000,86.000000,,,,0.000000,4.000000,4.000000,4.000000,4.000000,4.000000,100.000000,,,,,,,,,,,,,,,,,,,,,,,,,,,,,,,,,,,,,,,,,,,,,,,,,,,,,,,,,,,,,,,
1656264721.826756,11.000000,0.000000,4256.922852,4234.358887,4105.128418,4104.102539,4229.230957,16111.000000,4.000000,86.000000,,,,0.000000,4.000000,4.000000,4.000000,4.000000,4.000000,100.000000,,,,,,,,,,,,,,,,,,,,,,,,,,,,,,,,,,,,,,,,,,,,,,,,,,,,,,,,,,,,,,,
1656264721.834470,12.000000,0.000000,4253.846191,4232.307617,4139.487305,4093.846191,4234.871582,450.000000,4.000000,86.000000,,,,0.000000,4.000000,4.000000,4.000000,4.000000,4.000000,100.000000,,,,,,,,,,,,,,,,,,,,,,,,,,,,,,,,,,,,,,,,,,,,,,,,,,,,,,,,,,,,,,,
1656264721.842185,13.000000,0.000000,4274.871582,4237.948730,4173.846191,4092.820557,4218.974121,450.000000,4.000000,86.000000,,,,0.000000,4.000000,4.000000,4.000000,4.000000,4.000000,100.000000,1.000000,100.000000,4.000000,4.000000,4.000000,4.000000,4.000000,,,,,,,,,,,,,,,,,,,,,,,,,,,,,,,,9.965848,3.066081,2.470392,1.614943,1.076688,2.544733,1.628731,1.904457,1.268778,1.188360,6.821932,1.663732,2.018035,1.496813,0.715260,5.868862,2.257118,2.203774,1.520973,0.780133,6.674027,2.829882,3.155975,0.961406,0.512476
1656264721.849999,14.000000,0.000000,4271.282227,4223.589844,4166.153809,4083.589844,4207.179688,450.000000,4.000000,86.000000,,,,0.000000,4.000000,4.000000,4.000000,4.000000,4.000000,100.000000,,,,,,,,,,,,,,,,,,,,,,,,,,,,,,,,,,,,,,,,,,,,,,,,,,,,,,,,,,,,,,,
1656264721.857814,15.000000,0.000000,4246.153809,4232.307617,4151.282227,4091.281982,4227.692383,16111.000000,4.000000,86.000000,,,,0.000000,4.000000,4.000000,4.000000,4.000000,4.000000,100.000000,,,,,,,,,,,,,,,,,,,,,,,,,,,,,,,,,,,,,,,,,,,,,,,,,,,,,,,,,,,,,,,
1656264721.865528,16.000000,0.000000,4241.025879,4252.820313,4135.897461,4104.615234,4247.179688,0.000000,4.000000,86.000000,,,,0.000000,4.000000,4.000000,4.000000,4.000000,4.000000,100.000000,,,,,,,,,,,,,,,,,,,,,,,,,,,,,,,,,,,,,,,,,,,,,,,,,,,,,,,,,,,,,,,
1656264721.873243,17.000000,0.000000,4270.769043,4232.307617,4127.692383,4084.102539,4244.102539,0.000000,4.000000,86.000000,,,,0.000000,4.000000,4.000000,4.000000,4.000000,4.000000,100.000000,,,,,,,,,,,,,,,,,,,,,,,,,,,,,,,,,,,,,,,,,,,,,,,,,,,,,,,,,,,,,,,
1656264721.881057,18.000000,0.000000,4284.615234,4216.410156,4134.358887,4068.718018,4235.897461,0.000000,4.000000,86.000000,,,,0.000000,4.000000,4.000000,4.000000,4.000000,4.000000,100.000000,,,,,,,,,,,,,,,,,,,,,,,,,,,,,,,,,,,,,,,,,,,,,,,,,,,,,,,,,,,,,,,
1656264721.888772,19.000000,0.000000,4263.077148,4234.871582,4138.974121,4086.666748,4233.846191,0.000000,4.000000,86.000000,,,,0.000000,4.000000,4.000000,4.000000,4.000000,4.000000,100.000000,,,,,,,,,,,,,,,,,,,,,,,,,,,,,,,,,,,,,,,,,,,,,,,,,,,,,,,,,,,,,,,
1656264721.896586,20.000000,0.000000,4264.102539,4255.897461,4145.641113,4107.179688,4247.179688,0.000000,4.000000,86.000000,,,,0.000000,4.000000,4.000000,4.000000,4.000000,4.000000,100.000000,,,,,,,,,,,,,,,,,,,,,,,,,,,,,,,,,,,,,,,,,,,,,,,,,,,,,,,,,,,,,,,
1656264721.904300,21.000000,0.000000,4271.794922,4238.461426,4144.615234,4101.025879,4239.487305,0.000000,4.000000,86.000000,,,,0.000000,4.000000,4.000000,4.000000,4.000000,4.000000,100.000000,,,,,,,,,,,,,,,,,,,,,,,,,,,,,,,,,,,,,,,,,,,,,,,,,,,,,,,,,,,,,,,
1656264721.912115,22.000000,0.000000,4267.692383,4222.051270,4149.230957,4090.769287,4215.897461,0.000000,4.000000,86.000000,,,,0.000000,4.000000,4.000000,4.000000,4.000000,4.000000,100.000000,,,,,,,,,,,,,,,,,,,,,,,,,,,,,,,,,,,,,,,,,,,,,,,,,,,,,,,,,,,,,,,
1656264721.919829,23.000000,0.000000,4262.051270,4228.205078,4147.692383,4094.871826,4218.461426,0.000000,4.000000,86.000000,,,,0.000000,4.000000,4.000000,4.000000,4.000000,4.000000,100.000000,,,,,,,,,,,,,,,,,,,,,,,,,,,,,,,,,,,,,,,,,,,,,,,,,,,,,,,,,,,,,,,
1656264721.927644,24.000000,0.000000,4262.563965,4227.179688,4130.769043,4108.717773,4236.922852,0.000000,4.000000,86.000000,,,,0.000000,4.000000,4.000000,4.000000,4.000000,4.000000,100.000000,,,,,,,,,,,,,,,,,,,,,,,,,,,,,,,,,,,,,,,,,,,,,,,,,,,,,,,,,,,,,,,
1656264721.935358,25.000000,0.000000,4285.641113,4226.153809,4130.769043,4126.666504,4248.205078,0.000000,4.000000,86.000000,,,,0.000000,4.000000,4.000000,4.000000,4.000000,4.000000,100.000000,,,,,,,,,,,,,,,,,,,,,,,,,,,,,,,,,,,,,,,,,,,,,,,,,,,,,,,,,,,,,,,
1656264721.943173,26.000000,0.000000,4285.641113,4231.282227,4132.820313,4106.153809,4238.974121,0.000000,4.000000,86.000000,,,,0.000000,4.000000,4.000000,4.000000,4.000000,4.000000,100.000000,,,,,,,,,,,,,,,,,,,,,,,,,,,,,,,,,,,,,,,,,,,,,,,,,,,,,,,,,,,,,,,
1656264721.950887,27.000000,0.000000,4274.871582,4250.769043,4130.256348,4096.410156,4251.794922,0.000000,4.000000,86.000000,,,,0.000000,4.000000,4.000000,4.000000,4.000000,4.000000,100.000000,,,,,,,,,,,,,,,,,,,,,,,,,,,,,,,,,,,,,,,,,,,,,,,,,,,,,,,,,,,,,,,
1656264721.958702,28.000000,0.000000,4281.025879,4239.487305,4129.230957,4113.333496,4257.436035,0.000000,4.000000,86.000000,,,,0.000000,4.000000,4.000000,4.000000,4.000000,4.000000,100.000000,,,,,,,,,,,,,,,,,,,,,,,,,,,,,,,,,,,,,,,,,,,,,,,,,,,,,,,,,,,,,,,
1656264721.966416,29.000000,0.000000,4275.897461,4215.897461,4140.000000,4102.051270,4222.563965,0.000000,4.000000,86.000000,,,,0.000000,4.000000,4.000000,4.000000,4.000000,4.000000,100.000000,,,,,,,,,,,,,,,,,,,,,,,,,,,,,,,,,,,,,,,9.543368,2.778673,2.574212,1.431212,1.121312,2.170166,1.797237,1.543050,1.163671,1.261067,7.213826,1.829647,1.924589,1.141216,0.836140,5.496739,2.506472,1.906691,1.497313,0.861362,6.436605,2.723398,2.780863,0.862722,0.484926
1656264721.974231,30.000000,0.000000,4264.615234,4237.948730,4131.794922,4093.333252,4224.615234,0.000000,4.000000,86.000000,,,,0.000000,4.000000,4.000000,4.000000,4.000000,4.000000,100.000000,,,,,,,,,,,,,,,,,,,,,,,,,,,,,,,,,,,,,,,,,,,,,,,,,,,,,,,,,,,,,,,
1656264721.981945,31.000000,0.000000,4258.974121,4236.410156,4100.000000,4103.589844,4246.153809,0.000000,4.000000,86.000000,,,,0.000000,4.000000,4.000000,4.000000,4.000000,4.000000,100.000000,,,,,,,,,,,,,,,,,,,,,,,,,,,,,,,,,,,,,,,,,,,,,,,,,,,,,,,,,,,,,,,
1656264721.989859,32.000000,0.000000,4271.794922,4234.358887,4123.077148,4116.410156,4246.153809,0.000000,4.000000,86.000000,,,,0.000000,4.000000,4.000000,4.000000,4.000000,4.000000,100.000000,,,,,,,,,,,,,,,,,,,,,,,,,,,,,,,,,,,,,,,,,,,,,,,,,,,,,,,,,,,,,,,
1656264721.997674,33.000000,0.000000,4257.436035,4250.256348,4139.487305,4104.102539,4220.512695,0.000000,4.000000,86.000000,,,,0.000000,4.000000,4.000000,4.000000,4.000000,4.000000,100.000000,,,,,,,,,,,,,,,,,,,,,,,,,,,,,,,,,,,,,,,,,,,,,,,,,,,,,,,,,,,,,,,
1656264722.005488,34.000000,0.000000,4237.948730,4230.769043,4125.641113,4085.641113,4201.538574,0.000000,4.000000,86.000000,,,,0.000000,4.000000,4.000000,4.000000,4.000000,4.000000,100.000000,,,,,,,,,,,,,,,,,,,,,,,,,,,,,,,,,,,,,,,,,,,,,,,,,,,,,,,,,,,,,,,
1656264722.013203,35.000000,0.000000,4269.230957,4226.666504,4143.077148,4106.666504,4233.846191,0.000000,4.000000,86.000000,,,,0.000000,4.000000,4.000000,4.000000,4.000000,4.000000,100.000000,,,,,,,,,,,,,,,,,,,,,,,,,,,,,,,,,,,,,,,,,,,,,,,,,,,,,,,,,,,,,,,
1656264722.020917,36.000000,0.000000,4268.717773,4237.948730,4137.436035,4108.717773,4241.025879,0.000000,4.000000,86.000000,,,,0.000000,4.000000,4.000000,4.000000,4.000000,4.000000,100.000000,,,,,,,,,,,,,,,,,,,,,,,,,,,,,,,,,,,,,,,,,,,,,,,,,,,,,,,,,,,,,,,
1656264722.028732,37.000000,0.000000,4255.897461,4246.153809,4132.307617,4104.102539,4231.794922,0.000000,4.000000,86.000000,,,,0.000000,4.000000,4.000000,4.000000,4.000000,4.000000,100.000000,,,,,,,,,,,,,,,,,,,,,,,,,,,,,,,,,,,,,,,,,,,,,,,,,,,,,,,,,,,,,,,
1656264722.036446,38.000000,0.000000,4269.743652,4244.102539,4144.615234,4106.153809,4239.487305,0.000000,4.000000,86.000000,,,,0.000000,4.000000,4.000000,4.000000,4.000000,4.000000,100.000000,,,,,,,,,,,,,,,,,,,,,,,,,,,,,,,,,,,,,,,,,,,,,,,,,,,,,,,,,,,,,,,
1656264722.044261,39.000000,0.000000,4259.487305,4231.282227,4134.358887,4087.179443,4224.102539,0.000000,4.000000,86.000000,,,,0.000000,4.000000,4.000000,4.000000,4.000000,4.000000,100.000000,,,,,,,,,,,,,,,,,,,,,,,,,,,,,,,,,,,,,,,,,,,,,,,,,,,,,,,,,,,,,,,
1656264722.051975,40.000000,0.000000,4265.128418,4237.948730,4142.563965,4108.717773,4220.512695,0.000000,4.000000,86.000000,,,,0.000000,4.000000,4.000000,4.000000,4.000000,4.000000,100.000000,,,,,,,,,,,,,,,,,,,,,,,,,,,,,,,,,,,,,,,,,,,,,,,,,,,,,,,,,,,,,,,
1656264722.059789,41.000000,0.000000,4273.333496,4227.692383,4151.794922,4109.743652,4214.871582,0.000000,4.000000,86.000000,,,,0.000000,4.000000,4.000000,4.000000,4.000000,4.000000,100.000000,,,,,,,,,,,,,,,,,,,,,,,,,,,,,,,,,,,,,,,,,,,,,,,,,,,,,,,,,,,,,,,
1656264722.067504,42.000000,0.000000,4258.461426,4227.692383,4130.256348,4069.230713,4206.666504,0.000000,4.000000,86.000000,,,,0.000000,4.000000,4.000000,4.000000,4.000000,4.000000,100.000000,,,,,,,,,,,,,,,,,,,,,,,,,,,,,,,,,,,,,,,,,,,,,,,,,,,,,,,,,,,,,,,
1656264722.075318,43.000000,0.000000,4253.846191,4249.230957,4097.436035,4084.615479,4220.000000,0.000000,4.000000,86.000000,,,,0.000000,4.000000,4.000000,4.000000,4.000000,4.000000,100.000000,,,,,,,,,,,,,,,,,,,,,,,,,,,,,,,,,,,,,,,,,,,,,,,,,,,,,,,,,,,,,,,
1656264722.083133,44.000000,0.000000,4263.589844,4225.128418,4094.358887,4103.589844,4214.358887,0.000000,4.000000,86.000000,,,,0.000000,4.000000,4.000000,4.000000,4.000000,4.000000,100.000000,,,,,,,,,,,,,,,,,,,,,,,,,,,,,,,,,,,,,,,,,,,,,,,,,,,,,,,,,,,,,,,
1656264722.090847,45.000000,0.000000,4286.666504,4217.436035,4132.820313,4097.436035,4226.153809,0.000000,4.000000,86.000000,,,,0.000000,4.000000,4.000000,4.000000,4.000000,4.000000,100.000000,,,,,,,,,,,,,,,,,,,,,,,,,,,,,,,,,,,,,,,8.195368,2.354232,2.529143,1.365425,1.170126,1.896879,2.169720,1.200973,1.073494,1.244008,7.555008,2.265535,1.917539,0.898299,0.975623,4.669022,2.686778,1.588271,1.448813,0.939907,5.743979,2.503299,2.480137,0.845367,0.488914
1656264722.098562,46.000000,0.000000,4283.077148,4248.205078,4127.179688,4094.358887,4244.102539,0.000000,4.000000,86.000000,,,,0.000000,4.000000,4.000000,4.000000,4.000000,4.000000,100.000000,,,,,,,,,,,,,,,,,,,,,,,,,,,,,,,,,,,,,,,,,,,,,,,,,,,,,,,,,,,,,,,
1656264722.106376,47.000000,0.000000,4264.615234,4258.974121,4111.794922,4101.538574,4236.410156,0.000000,4.000000,86.000000,,,,0.000000,4.000000,4.000000,4.000000,4.000000,4.000000,100.000000,,,,,,,,,,,,,,,,,,,,,,,,,,,,,,,,,,,,,,,,,,,,,,,,,,,,,,,,,,,,,,,
1656264722.114091,48.000000,0.000000,4272.307617,4248.717773,4142.051270,4122.563965,4234.358887,0.000000,4.000000,86.000000,,,,0.000000,4.000000,4.000000,4.000000,4.000000,4.000000,100.000000,,,,,,,,,,,,,,,,,,,,,,,,,,,,,,,,,,,,,,,,,,,,,,,,,,,,,,,,,,,,,,,
1656264722.122005,49.000000,0.000000,4268.717773,4229.743652,4135.897461,4118.974121,4229.230957,0.000000,4.000000,86.000000,,,,0.000000,4.000000,4.000000,4.000000,4.000000,4.000000,100.000000,,,,,,,,,,,,,,,,,,,,,,,,,,,,,,,,,,,,,,,,,,,,,,,,,,,,,,,,,,,,,,,
1656264722.129819,50.000000,0.000000,4274.358887,4236.922852,4119.487305,4117.436035,4226.153809,0.000000,4.000000,86.000000,,,,0.000000,4.000000,4.000000,4.000000,4.000000,4.000000,100.000000,,,,,,,,,,,,,,,,,,,,,,,,,,,,,,,,,,,,,,,,,,,,,,,,,,,,,,,,,,,,,,,
1656264722.137634,51.000000,0.000000,4275.897461,4247.179688,4132.307617,4104.102539,4214.358887,0.000000,4.000000,86.000000,,,,0.000000,4.000000,4.000000,4.000000,4.000000,4.000000,100.000000,,,,,,,,,,,,,,,,,,,,,,,,,,,,,,,,,,,,,,,,,,,,,,,,,,,,,,,,,,,,,,,
1656264722.145348,52.000000,0.000000,4257.436035,4241.025879,4145.641113,4075.897461,4211.282227,0.000000,4.000000,86.000000,,,,0.000000,4.000000,4.000000,4.000000,4.000000,4.000000,100.000000,,,,,,,,,,,,,,,,,,,,,,,,,,,,,,,,,,,,,,,,,,,,,,,,,,,,,,,,,,,,,,,
1656264722.153163,53.000000,0.000000,4268.717773,4255.384766,4140.512695,4096.410156,4241.025879,0.000000,4.000000,86.000000,,,,0.000000,4.000000,4.000000,4.000000,4.000000,4.000000,100.000000,,,,,,,,,,,,,,,,,,,,,,,,,,,,,,,,,,,,,,,,,,,,,,,,,,,,,,,,,,,,,,,
1656264722.160877,54.000000,0.000000,4279.487305,4242.563965,4125.641113,4113.846191,4236.922852,0.000000,4.000000,86.000000,,,,0.000000,4.000000,4.000000,4.000000,4.000000,4.000000,100.000000,,,,,,,,,,,,,,,,,,,,,,,,,,,,,,,,,,,,,,,,,,,,,,,,,,,,,,,,,,,,,,,
1656264722.168792,55.000000,0.000000,4290.256348,4233.333496,4151.282227,4110.769043,4231.794922,0.000000,4.000000,86.000000,,,,0.000000,4.000000,4.000000,4.000000,4.000000,4.000000,100.000000,,,,,,,,,,,,,,,,,,,,,,,,,,,,,,,,,,,,,,,,,,,,,,,,,,,,,,,,,,,,,,,
1656264722.176606,56.000000,0.000000,4300.512695,4253.333496,4154.358887,4111.794922,4253.333496,0.000000,4.000000,86.000000,,,,0.000000,4.000000,4.000000,4.000000,4.000000,4.000000,100.000000,,,,,,,,,,,,,,,,,,,,,,,,,,,,,,,,,,,,,,,,,,,,,,,,,,,,,,,,,,,,,,,
1656264722.184520,57.000000,0.000000,4289.743652,4255.897461,4125.128418,4112.820313,4256.922852,0.000000,4.000000,86.000000,,,,0.000000,4.000000,4.000000,4.000000,4.000000,4.000000,100.000000,,,,,,,,,,,,,,,,,,,,,,,,,,,,,,,,,,,,,,,,,,,,,,,,,,,,,,,,,,,,,,,
1656264722.192335,58.000000,0.000000,4298.974121,4251.282227,4136.410156,4129.230957,4255.384766,0.000000,4.000000,86.000000,,,,0.000000,4.000000,4.000000,4.000000,4.000000,4.000000,100.000000,,,,,,,,,,,,,,,,,,,,,,,,,,,,,,,,,,,,,,,,,,,,,,,,,,,,,,,,,,,,,,,
1656264722.200249,59.000000,0.000000,4287.692383,4232.820313,4131.282227,4114.871582,4235.897461,0.000000,4.000000,86.000000,,,,0.000000,4.000000,4.000000,4.000000,4.000000,4.000000,100.000000,,,,,,,,,,,,,,,,,,,,,,,,,,,,,,,,,,,,,,,,,,,,,,,,,,,,,,,,,,,,,,,
1656264722.208063,60.000000,0.000000,4271.794922,4238.461426,4121.538574,4104.615234,4222.051270,0.000000,4.000000,86.000000,,,,0.000000,4.000000,4.000000,4.000000,4.000000,4.000000,100.000000,,,,,,,,,,,,,,,,,,,,,,,,,,,,,,,,,,,,,,,,,,,,,,,,,,,,,,,,,,,,,,,
1656264722.215878,61.000000,0.000000,4269.743652,4242.563965,4135.897461,4105.641113,4215.384766,0.000000,4.000000,86.000000,,,,0.000000,4.000000,4.000000,4.000000,4.000000,4.000000,100.000000,,,,,,,,,,,,,,,,,,,,,,,,,,,,,,,,,,,,,,,6.399235,1.913651,2.367763,1.367144,1.227757,1.738895,2.660555,0.936712,1.012441,1.143921,7.976480,2.906356,1.979047,0.859367,1.097306,3.662094,2.837645,1.263149,1.386449,1.009868,4.804622,2.210840,2.348951,0.914794,0.530781
1656264722.223592,62.000000,0.000000,4254.871582,4219.487305,4129.743652,4081.538574,4207.179688,0.000000,4.000000,86.000000,,,,0.000000,4.000000,4.000000,4.000000,4.000000,4.000000,100.000000,,,,,,,,,,,,,,,,,,,,,,,,,,,,,,,,,,,,,,,,,,,,,,,,,,,,,,,,,,,,,,,
1656264722.231507,63.000000,0.000000,4278.461426,4236.410156,4127.692383,4095.384521,4230.256348,0.000000,4.000000,86.000000,,,,0.000000,4.000000,4.000000,4.000000,4.000000,4.000000,100.000000,,,,,,,,,,,,,,,,,,,,,,,,,,,,,,,,,,,,,,,,,,,,,,,,,,,,,,,,,,,,,,,
1656264722.239321,64.000000,0.000000,4285.128418,4222.563965,4133.333496,4106.153809,4215.897461,450.000000,4.000000,86.000000,,,,0.000000,4.000000,4.000000,4.000000,4.000000,4.000000,100.000000,,,,,,,,,,,,,,,,,,,,,,,,,,,,,,,,,,,,,,,,,,,,,,,,,,,,,,,,,,,,,,,
1656264722.247036,65.000000,0.000000,4273.333496,4211.794922,4152.307617,4105.128418,4207.692383,450.000000,4.000000,86.000000,,,,0.000000,4.000000,4.000000,4.000000,4.000000,4.000000,100.000000,,,,,,,,,,,,,,,,,,,,,,,,,,,,,,,,,,,,,,,,,,,,,,,,,,,,,,,,,,,,,,,
1656264722.254850,66.000000,0.000000,4294.358887,4248.205078,4146.666504,4121.538574,4249.230957,16224.000000,4.000000,86.000000,,,,0.000000,4.000000,4.000000,4.000000,4.000000,4.000000,100.000000,,,,,,,,,,,,,,,,,,,,,,,,,,,,,,,,,,,,,,,,,,,,,,,,,,,,,,,,,,,,,,,
1656264722.262664,67.000000,0.000000,4297.948730,4237.948730,4118.974121,4125.128418,4255.897461,450.000000,4.000000,86.000000,,,,0.000000,4.000000,4.000000,4.000000,4.000000,4.000000,100.000000,,,,,,,,,,,,,,,,,,,,,,,,,,,,,,,,,,,,,,,,,,,,,,,,,,,,,,,,,,,,,,,
1656264722.270379,68.000000,0.000000,4303.589844,4240.000000,4150.256348,4146.666504,4264.102539,16183.000000,4.000000,86.000000,,,,0.000000,4.000000,4.000000,4.000000,4.000000,4.000000,100.000000,,,,,,,,,,,,,,,,,,,,,,,,,,,,,,,,,,,,,,,,,,,,,,,,,,,,,,,,,,,,,,,
1656264722.278093,69.000000,0.000000,4292.820313,4255.897461,4154.358887,4150.769043,4275.897461,450.000000,4.000000,86.000000,,,,0.000000,4.000000,4.000000,4.000000,4.000000,4.000000,100.000000,,,,,,,,,,,,,,,,,,,,,,,,,,,,,,,,,,,,,,,,,,,,,,,,,,,,,,,,,,,,,,,
1656264722.285908,70.000000,0.000000,4287.692383,4233.333496,4121.538574,4135.897461,4273.333496,16227.000000,4.000000,86.000000,,,,0.000000,4.000000,4.000000,4.000000,4.000000,4.000000,100.000000,,,,,,,,,,,,,,,,,,,,,,,,,,,,,,,,,,,,,,,,,,,,,,,,,,,,,,,,,,,,,,,
1656264722.293622,71.000000,0.000000,4310.256348,4224.102539,4126.153809,4144.102539,4282.563965,450.000000,4.000000,86.000000,,,,0.000000,4.000000,4.000000,4.000000,4.000000,4.000000,100.000000,,,,,,,,,,,,,,,,,,,,,,,,,,,,,,,,,,,,,,,,,,,,,,,,,,,,,,,,,,,,,,,
1656264722.301437,72.000000,0.000000,4284.102539,4229.230957,4115.897461,4133.333496,4272.307617,450.000000,4.000000,86.000000,,,,0.000000,4.000000,4.000000,4.000000,4.000000,4.000000,100.000000,,,,,,,,,,,,,,,,,,,,,,,,,,,,,,,,,,,,,,,,,,,,,,,,,,,,,,,,,,,,,,,
1656264722.309151,73.000000,0.000000,4269.230957,4240.000000,4098.461426,4132.307617,4268.717773,16255.000000,4.000000,86.000000,,,,0.000000,4.000000,4.000000,4.000000,4.000000,4.000000,100.000000,,,,,,,,,,,,,,,,,,,,,,,,,,,,,,,,,,,,,,,,,,,,,,,,,,,,,,,,,,,,,,,
1656264722.317066,74.000000,0.000000,4295.897461,4238.974121,4081.538574,4147.179688,4278.461426,450.000000,4.000000,86.000000,,,,0.000000,4.000000,4.000000,4.000000,4.000000,4.000000,100.000000,,,,,,,,,,,,,,,,,,,,,,,,,,,,,,,,,,,,,,,,,,,,,,,,,,,,,,,,,,,,,,,
1656264722.324880,75.000000,0.000000,4306.153809,4217.948730,4092.820557,4145.641113,4273.846191,16188.000000,4.000000,86.000000,,,,0.000000,4.000000,4.000000,4.000000,4.000000,4.000000,100.000000,,,,,,,,,,,,,,,,,,,,,,,,,,,,,,,,,,,,,,,,,,,,,,,,,,,,,,,,,,,,,,,
1656264722.332794,76.000000,0.000000,4304.615234,4223.077148,4133.333496,4144.102539,4275.897461,450.000000,4.000000,86.000000,,,,0.000000,4.000000,4.000000,4.000000,4.000000,4.000000,100.000000,,,,,,,,,,,,,,,,,,,,,,,,,,,,,,,,,,,,,,,,,,,,,,,,,,,,,,,,,,,,,,,
1656264722.340609,77.000000,0.000000,4285.128418,4246.153809,4126.666504,4127.692383,4270.256348,450.000000,4.000000,86.000000,,,,0.000000,4.000000,4.000000,4.000000,4.000000,4.000000,100.000000,1.000000,100.000000,4.000000,4.000000,4.000000,4.000000,4.000000,,,,,,,,,,,,,,,,,,,,,,,,,,,,,,,,4.688148,1.546819,2.161849,1.375685,1.293498,1.668118,3.078288,0.785256,0.977330,0.999224,8.536373,3.580516,2.050346,1.039052,1.170966,2.769382,2.967553,0.969113,1.318591,1.072585,3.877182,1.879285,2.452626,1.056398,0.609709
1656264722.348523,78.000000,0.000000,4272.307617,4245.641113,4111.282227,4119.487305,4261.538574,450.000000,4.000000,86.000000,,,,0.000000,4.000000,4.000000,4.000000,4.000000,4.000000,100.000000,,,,,,,,,,,,,,,,,,,,,,,,,,,,,,,,,,,,,,,,,,,,,,,,,,,,,,,,,,,,,,,
1656264722.356337,79.000000,0.000000,4277.948730,4220.512695,4135.384766,4132.820313,4247.179688,16188.000000,4.000000,86.000000,,,,0.000000,4.000000,4.000000,4.000000,4.000000,4.000000,100.000000,,,,,,,,,,,,,,,,,,,,,,,,,,,,,,,,,,,,,,,,,,,,,,,,,,,,,,,,,,,,,,,
1656264722.364152,80.000000,0.000000,4264.102539,4207.692383,4155.384766,4113.333496,4211.282227,450.000000,4.000000,86.000000,,,,0.000000,4.000000,4.000000,4.000000,4.000000,4.000000,100.000000,,,,,,,,,,,,,,,,,,,,,,,,,,,,,,,,,,,,,,,,,,,,,,,,,,,,,,,,,,,,,,,
1656264722.371866,81.000000,0.000000,4254.358887,4231.282227,4151.794922,4092.307617,4206.666504,450.000000,4.000000,86.000000,,,,0.000000,4.000000,4.000000,4.000000,4.000000,4.000000,100.000000,,,,,,,,,,,,,,,,,,,,,,,,,,,,,,,,,,,,,,,,,,,,,,,,,,,,,,,,,,,,,,,
1656264722.379781,82.000000,0.000000,4261.538574,4247.692383,4136.410156,4107.179688,4242.563965,450.000000,4.000000,86.000000,,,,0.000000,4.000000,4.000000,4.000000,4.000000,4.000000,100.000000,,,,,,,,,,,,,,,,,,,,,,,,,,,,,,,,,,,,,,,,,,,,,,,,,,,,,,,,,,,,,,,
1656264722.387595,83.000000,0.000000,4262.051270,4228.205078,4122.563965,4114.358887,4251.794922,16188.000000,4.000000,86.000000,,,,0.000000,4.000000,4.000000,4.000000,4.000000,4.000000,100.000000,,,,,,,,,,,,,,,,,,,,,,,,,,,,,,,,,,,,,,,,,,,,,,,,,,,,,,,,,,,,,,,
1656264722.395509,84.000000,0.000000,4272.307617,4233.333496,4130.256348,4121.538574,4242.563965,450.000000,4.000000,86.000000,,,,0.000000,4.000000,4.000000,4.000000,4.000000,4.000000,100.000000,,,,,,,,,,,,,,,,,,,,,,,,,,,,,,,,,,,,,,,,,,,,,,,,,,,,,,,,,,,,,,,
1656264722.403324,85.000000,0.000000,4271.794922,4248.205078,4118.974121,4128.717773,4245.128418,450.000000,4.000000,86.000000,,,,0.000000,4.000000,4.000000,4.000000,4.000000,4.000000,100.000000,,,,,,,,,,,,,,,,,,,,,,,,,,,,,,,,,,,,,,,,,,,,,,,,,,,,,,,,,,,,,,,
1656264722.411038,86.000000,0.000000,4268.717773,4225.641113,4098.974121,4119.487305,4251.794922,450.000000,4.000000,86.000000,,,,0.000000,4.000000,4.000000,4.000000,4.000000,4.000000,100.000000,,,,,,,,,,,,,,,,,,,,,,,,,,,,,,,,,,,,,,,,,,,,,,,,,,,,,,,,,,,,,,,
1656264722.418953,87.000000,0.000000,4295.384766,4224.102539,4131.794922,4137.948730,4264.102539,16188.000000,4.000000,86.000000,,,,0.000000,4.000000,4.000000,4.000000,4.000000,4.000000,100.000000,,,,,,,,,,,,,,,,,,,,,,,,,,,,,,,,,,,,,,,,,,,,,,,,,,,,,,,,,,,,,,,
1656264722.426767,88.000000,0.000000,4282.563965,4228.717773,4141.538574,4138.461426,4244.102539,450.000000,4.000000,86.000000,,,,0.000000,4.000000,4.000000,4.000000,4.000000,4.000000,100.000000,,,,,,,,,,,,,,,,,,,,,,,,,,,,,,,,,,,,,,,,,,,,,,,,,,,,,,,,,,,,,,,
1656264722.434581,89.000000,0.000000,4274.358887,4232.820313,4141.538574,4116.410156,4242.051270,450.000000,4.000000,86.000000,,,,0.000000,4.000000,4.000000,4.000000,4.000000,4.000000,100.000000,,,,,,,,,,,,,,,,,,,,,,,,,,,,,,,,,,,,,,,,,,,,,,,,,,,,,,,,,,,,,,,
1656264722.442296,90.000000,0.000000,4306.666504,4255.384766,4154.871582,4117.436035,4261.538574,450.000000,4.000000,86.000000,,,,0.000000,4.000000,4.000000,4.000000,4.000000,4.000000,100.000000,,,,,,,,,,,,,,,,,,,,,,,,,,,,,,,,,,,,,,,,,,,,,,,,,,,,,,,,,,,,,,,
1656264722.450110,91.000000,0.000000,4275.897461,4252.820313,4127.179688,4117.436035,4229.743652,16188.000000,4.000000,86.000000,,,,0.000000,4.000000,4.000000,4.000000,4.000000,4.000000,100.000000,,,,,,,,,,,,,,,,,,,,,,,,,,,,,,,,,,,,,,,,,,,,,,,,,,,,,,,,,,,,,,,
1656264722.457825,92.000000,0.000000,4266.153809,4254.358887,4106.666504,4135.384766,4236.922852,450.000000,4.000000,86.000000,,,,0.000000,4.000000,4.000000,4.000000,4.000000,4.000000,100.000000,,,,,,,,,,,,,,,,,,,,,,,,,,,,,,,,,,,,,,,,,,,,,,,,,,,,,,,,,,,,,,,
1656264722.465639,93.000000,0.000000,4280.512695,4238.461426,4087.179443,4126.666504,4247.692383,450.000000,4.000000,86.000000,,,,0.000000,4.000000,4.000000,4.000000,4.000000,4.000000,100.000000,,,,,,,,,,,,,,,,,,,,,,,,,,,,,,,,,,,,,,,3.421332,1.296983,1.995064,1.344552,1.353260,1.623107,3.219485,0.747255,0.958611,0.863347,9.044773,4.105018,2.059300,1.373679,1.187725,2.179236,3.064858,0.766024,1.245765,1.131545,3.160788,1.571148,2.795151,1.230899,0.717533
1656264722.473354,94.000000,0.000000,4267.179688,4211.282227,4082.564209,4112.307617,4219.487305,450.000000,4.000000,86.000000,,,,0.000000,4.000000,4.000000,4.000000,4.000000,4.000000,100.000000,,,,,,,,,,,,,,,,,,,,,,,,,,,,,,,,,,,,,,,,,,,,,,,,,,,,,,,,,,,,,,,
1656264722.481268,95.000000,0.000000,4290.256348,4217.948730,4101.538574,4140.512695,4225.641113,16188.000000,4.000000,86.000000,,,,0.000000,4.000000,4.000000,4.000000,4.000000,4.000000,100.000000,,,,,,,,,,,,,,,,,,,,,,,,,,,,,,,,,,,,,,,,,,,,,,,,,,,,,,,,,,,,,,,
1656264722.489082,96.000000,0.000000,4286.153809,4210.769043,4076.410156,4125.641113,4224.102539,450.000000,4.000000,86.000000,,,,0.000000,4.000000,4.000000,4.000000,4.000000,4.000000,100.000000,,,,,,,,,,,,,,,,,,,,,,,,,,,,,,,,,,,,,,,,,,,,,,,,,,,,,,,,,,,,,,,
1656264722.496897,97.000000,0.000000,4264.615234,4246.666504,4072.820557,4113.333496,4237.948730,450.000000,4.000000,86.000000,,,,0.000000,4.000000,4.000000,4.000000,4.000000,4.000000,100.000000,,,,,,,,,,,,,,,,,,,,,,,,,,,,,,,,,,,,,,,,,,,,,,,,,,,,,,,,,,,,,,,
1656264722.504611,98.000000,0.000000,4264.102539,4268.205078,4088.718018,4117.948730,4254.358887,450.000000,4.000000,86.000000,,,,0.000000,4.000000,4.000000,4.000000,4.000000,4.000000,100.000000,,,,,,,,,,,,,,,,,,,,,,,,,,,,,,,,,,,,,,,,,,,,,,,,,,,,,,,,,,,,,,,
1656264722.512426,99.000000,0.000000,4258.974121,4231.282227,4091.281982,4100.000000,4231.794922,16188.000000,4.000000,86.000000,,,,0.000000,4.000000,4.000000,4.000000,4.000000,4.000000,100.000000,,,,,,,,,,,,,,,,,,,,,,,,,,,,,,,,,,,,,,,,,,,,,,,,,,,,,,,,,,,,,,,
1656264722.520140,100.000000,0.000000,4267.692383,4244.102539,4112.307617,4106.666504,4225.641113,450.000000,4.000000,86.000000,,,,0.000000,4.000000,4.000000,4.000000,4.000000,4.000000,100.000000,,,,,,,,,,,,,,,,,,,,,,,,,,,,,,,,,,,,,,,,,,,,,,,,,,,,,,,,,,,,,,,
1656264722.527955,101.000000,0.000000,4260.000000,4256.410156,4120.512695,4101.538574,4231.794922,450.000000,4.000000,86.000000,,,,0.000000,4.000000,4.000000,4.000000,4.000000,4.000000,100.000000,,,,,,,,,,,,,,,,,,,,,,,,,,,,,,,,,,,,,,,,,,,,,,,,,,,,,,,,,,,,,,,
1656264722.535669,102.000000,0.000000,4273.333496,4245.641113,4126.153809,4104.102539,4248.205078,450.000000,4.000000,86.000000,,,,0.000000,4.000000,4.000000,4.000000,4.000000,4.000000,100.000000,,,,,,,,,,,,,,,,,,,,,,,,,,,,,,,,,,,,,,,,,,,,,,,,,,,,,,,,,,,,,,,
1656264722.543484,103.000000,0.000000,4297.436035,4242.563965,4118.974121,4125.128418,4251.794922,16188.000000,4.000000,86.000000,,,,0.000000,4.000000,4.000000,4.000000,4.000000,4.000000,100.000000,,,,,,,,,,,,,,,,,,,,,,,,,,,,,,,,,,,,,,,,,,,,,,,,,,,,,,,,,,,,,,,
1656264722.551198,104.000000,0.000000,4289.230957,4238.974121,4100.512695,4117.436035,4224.102539,450.000000,4.000000,86.000000,,,,0.000000,4.000000,4.000000,4.000000,4.000000,4.000000,100.000000,,,,,,,,,,,,,,,,,,,,,,,,,,,,,,,,,,,,,,,,,,,,,,,,,,,,,,,,,,,,,,,
1656264722.559112,105.000000,0.000000,4285.641113,4243.077148,4120.000000,4109.230957,4221.025879,450.000000,4.000000,86.000000,,,,0.000000,4.000000,4.000000,4.000000,4.000000,4.000000,100.000000,,,,,,,,,,,,,,,,,,,,,,,,,,,,,,,,,,,,,,,,,,,,,,,,,,,,,,,,,,,,,,,
1656264722.566927,106.000000,0.000000,4274.358887,4229.230957,4122.563965,4101.538574,4235.897461,450.000000,4.000000,86.000000,,,,0.000000,4.000000,4.000000,4.000000,4.000000,4.000000,100.000000,,,,,,,,,,,,,,,,,,,,,,,,,,,,,,,,,,,,,,,,,,,,,,,,,,,,,,,,,,,,,,,
1656264722.574741,107.000000,0.000000,4258.461426,4231.282227,4085.128174,4107.692383,4248.717773,16188.000000,4.000000,86.000000,,,,0.000000,4.000000,4.000000,4.000000,4.000000,4.000000,100.000000,,,,,,,,,,,,,,,,,,,,,,,,,,,,,,,,,,,,,,,,,,,,,,,,,,,,,,,,,,,,,,,
1656264722.582456,108.000000,0.000000,4247.692383,4250.256348,4072.820557,4115.384766,4250.256348,450.000000,4.000000,86.000000,,,,0.000000,4.000000,4.000000,4.000000,4.000000,4.000000,100.000000,,,,,,,,,,,,,,,,,,,,,,,,,,,,,,,,,,,,,,,,,,,,,,,,,,,,,,,,,,,,,,,
1656264722.590270,109.000000,0.000000,4245.128418,4243.077148,4100.000000,4106.666504,4237.436035,450.000000,4.000000,86.000000,,,,0.000000,4.000000,4.000000,4.000000,4.000000,4.000000,100.000000,,,,,,,,,,,,,,,,,,,,,,,,,,,,,,,,,,,,,,,2.656553,1.152984,1.943506,1.250593,1.382109,1.555069,2.998479,0.783961,0.949763,0.781304,9.280211,4.415961,1.992344,1.735071,1.165179,1.956798,3.077839,0.734051,1.152409,1.182870,2.813155,1.381569,3.322882,1.379183,0.837329
1656264722.597985,110.000000,0.000000,4270.769043,4219.487305,4113.333496,4118.461426,4240.512695,450.000000,4.000000,86.000000,,,,0.000000,4.000000,4.000000,4.000000,4.000000,4.000000,100.000000,,,,,,,,,,,,,,,,,,,,,,,,,,,,,,,,,,,,,,,,,,,,,,,,,,,,,,,,,,,,,,,
1656264722.605899,111.000000,0.000000,4276.922852,4212.820313,4093.846191,4122.563965,4232.820313,16188.000000,4.000000,86.000000,,,,0.000000,4.000000,4.000000,4.000000,4.000000,4.000000,100.000000,,,,,,,,,,,,,,,,,,,,,,,,,,,,,,,,,,,,,,,,,,,,,,,,,,,,,,,,,,,,,,,
1656264722.613713,112.000000,0.000000,4260.000000,4237.436035,4092.307617,4104.102539,4224.615234,450.000000,4.000000,86.000000,,,,0.000000,4.000000,4.000000,4.000000,4.000000,4.000000,100.000000,,,,,,,,,,,,,,,,,,,,,,,,,,,,,,,,,,,,,,,,,,,,,,,,,,,,,,,,,,,,,,,
1656264722.621628,113.000000,0.000000,4249.743652,4245.128418,4094.871826,4096.922852,4229.743652,450.000000,4.000000,86.000000,,,,0.000000,4.000000,4.000000,4.000000,4.000000,4.000000,100.000000,,,,,,,,,,,,,,,,,,,,,,,,,,,,,,,,,,,,,,,,,,,,,,,,,,,,,,,,,,,,,,,
1656264722.629442,114.000000,0.000000,4258.461426,4221.025879,4101.538574,4098.974121,4237.948730,450.000000,4.000000,86.000000,,,,0.000000,4.000000,4.000000,4.000000,4.000000,4.000000,100.000000,,,,,,,,,,,,,,,,,,,,,,,,,,,,,,,,,,,,,,,,,,,,,,,,,,,,,,,,,,,,,,,
1656264722.637157,115.000000,0.000000,4285.128418,4228.205078,4122.051270,4117.436035,4264.615234,16188.000000,4.000000,86.000000,,,,0.000000,4.000000,4.000000,4.000000,4.000000,4.000000,100.000000,,,,,,,,,,,,,,,,,,,,,,,,,,,,,,,,,,,,,,,,,,,,,,,,,,,,,,,,,,,,,,,
1656264722.644971,116.000000,0.000000,4283.589844,4245.128418,4112.820313,4130.769043,4257.948730,450.000000,4.000000,86.000000,,,,0.000000,4.000000,4.000000,4.000000,4.000000,4.000000,100.000000,,,,,,,,,,,,,,,,,,,,,,,,,,,,,,,,,,,,,,,,,,,,,,,,,,,,,,,,,,,,,,,
1656264722.652685,117.000000,0.000000,4258.974121,4241.025879,4104.102539,4115.384766,4226.153809,450.000000,4.000000,86.000000,,,,0.000000,4.000000,4.000000,4.000000,4.000000,4.000000,100.000000,,,,,,,,,,,,,,,,,,,,,,,,,,,,,,,,,,,,,,,,,,,,,,,,,,,,,,,,,,,,,,,
1656264722.660500,118.000000,0.000000,4242.563965,4241.025879,4108.205078,4102.563965,4225.128418,450.000000,4.000000,86.000000,,,,0.000000,4.000000,4.000000,4.000000,4.000000,4.000000,100.000000,,,,,,,,,,,,,,,,,,,,,,,,,,,,,,,,,,,,,,,,,,,,,,,,,,,,,,,,,,,,,,,
1656264722.668214,119.000000,0.000000,4246.666504,4242.563965,4102.051270,4097.436035,4238.974121,16188.000000,4.000000,86.000000,,,,0.000000,4.000000,4.000000,4.000000,4.000000,4.000000,100.000000,,,,,,,,,,,,,,,,,,,,,,,,,,,,,,,,,,,,,,,,,,,,,,,,,,,,,,,,,,,,,,,
1656264722.676029,120.000000,0.000000,4249.743652,4241.025879,4112.307617,4084.102539,4239.487305,450.000000,4.000000,86.000000,,,,0.000000,4.000000,4.000000,4.000000,4.000000,4.000000,100.000000,,,,,,,,,,,,,,,,,,,,,,,,,,,,,,,,,,,,,,,,,,,,,,,,,,,,,,,,,,,,,,,
1656264722.683743,121.000000,0.000000,4224.615234,4242.563965,4125.641113,4075.897461,4223.589844,450.000000,4.000000,86.000000,,,,0.000000,4.000000,4.000000,4.000000,4.000000,4.000000,100.000000,,,,,,,,,,,,,,,,,,,,,,,,,,,,,,,,,,,,,,,,,,,,,,,,,,,,,,,,,,,,,,,
1656264722.691558,122.000000,0.000000,4238.461426,4248.205078,4114.358887,4105.641113,4230.769043,450.000000,4.000000,86.000000,,,,0.000000,4.000000,4.000000,4.000000,4.000000,4.000000,100.000000,,,,,,,,,,,,,,,,,,,,,,,,,,,,,,,,,,,,,,,,,,,,,,,,,,,,,,,,,,,,,,,
1656264722.699272,123.000000,0.000000,4271.282227,4233.846191,4103.589844,4122.051270,4240.000000,16188.000000,4.000000,86.000000,,,,0.000000,4.000000,4.000000,4.000000,4.000000,4.000000,100.000000,,,,,,,,,,,,,,,,,,,,,,,,,,,,,,,,,,,,,,,,,,,,,,,,,,,,,,,,,,,,,,,
1656264722.707087,124.000000,0.000000,4256.410156,4227.692383,4112.307617,4098.974121,4233.333496,450.000000,4.000000,86.000000,,,,0.000000,4.000000,4.000000,4.000000,4.000000,4.000000,100.000000,,,,,,,,,,,,,,,,,,,,,,,,,,,,,,,,,,,,,,,,,,,,,,,,,,,,,,,,,,,,,,,
1656264722.714801,125.000000,0.000000,4252.820313,4242.051270,4109.230957,4102.563965,4240.000000,450.000000,4.000000,86.000000,,,,0.000000,4.000000,4.000000,4.000000,4.000000,4.000000,100.000000,,,,,,,,,,,,,,,,,,,,,,,,,,,,,,,,,,,,,,,2.304406,1.109675,2.037019,1.099526,1.359112,1.476108,2.504425,0.852194,0.960921,0.777693,9.103414,4.601526,1.922690,1.993685,1.139206,2.115234,2.948369,0.922620,1.022825,1.214617,2.955188,1.430684,3.908270,1.457454,0.949938
1656264722.722616,126.000000,0.000000,4273.846191,4228.205078,4090.256348,4117.948730,4242.051270,450.000000,4.000000,86.000000,,,,0.000000,4.000000,4.000000,4.000000,4.000000,4.000000,100.000000,,,,,,,,,,,,,,,,,,,,,,,,,,,,,,,,,,,,,,,,,,,,,,,,,,,,,,,,,,,,,,,
1656264722.730330,127.000000,0.000000,4271.794922,4227.692383,4095.384521,4112.307617,4237.948730,241.000000,4.000000,86.000000,,,,0.000000,4.000000,4.000000,4.000000,4.000000,4.000000,100.000000,,,,,,,,,,,,,,,,,,,,,,,,,,,,,,,,,,,,,,,,,,,,,,,,,,,,,,,,,,,,,,,
1656264722.738144,0.000000,0.000000,4261.025879,4248.205078,4096.922852,4101.538574,4236.410156,450.000000,4.000000,86.000000,,,,0.000000,4.000000,4.000000,4.000000,4.000000,4.000000,100.000000,,,,,,,,,,,,,,,,,,,,,,,,,,,,,,,,,,,,,,,,,,,,,,,,,,,,,,,,,,,,,,,
1656264722.745859,1.000000,0.000000,4281.025879,4249.230957,4103.077148,4107.179688,4250.256348,450.000000,4.000000,86.000000,,,,0.000000,4.000000,4.000000,4.000000,4.000000,4.000000,100.000000,,,,,,,,,,,,,,,,,,,,,,,,,,,,,,,,,,,,,,,,,,,,,,,,,,,,,,,,,,,,,,,
1656264722.753773,2.000000,0.000000,4285.128418,4239.487305,4120.000000,4109.743652,4263.077148,16187.000000,4.000000,86.000000,,,,0.000000,4.000000,4.000000,4.000000,4.000000,4.000000,100.000000,,,,,,,,,,,,,,,,,,,,,,,,,,,,,,,,,,,,,,,,,,,,,,,,,,,,,,,,,,,,,,,
1656264722.761588,3.000000,0.000000,4249.743652,4231.794922,4097.948730,4094.358887,4248.205078,450.000000,4.000000,86.000000,,,,0.000000,4.000000,4.000000,4.000000,4.000000,4.000000,100.000000,,,,,,,,,,,,,,,,,,,,,,,,,,,,,,,,,,,,,,,,,,,,,,,,,,,,,,,,,,,,,,,
1656264722.769402,4.000000,0.000000,4249.743652,4238.974121,4085.641113,4108.717773,4242.051270,16193.000000,4.000000,86.000000,,,,0.000000,4.000000,4.000000,4.000000,4.000000,4.000000,100.000000,,,,,,,,,,,,,,,,,,,,,,,,,,,,,,,,,,,,,,,,,,,,,,,,,,,,,,,,,,,,,,,
1656264722.777117,5.000000,0.000000,4255.897461,4224.615234,4102.563965,4110.256348,4229.230957,450.000000,4.000000,86.000000,,,,0.000000,4.000000,4.000000,4.000000,4.000000,4.000000,100.000000,,,,,,,,,,,,,,,,,,,,,,,,,,,,,,,,,,,,,,,,,,,,,,,,,,,,,,,,,,,,,,,
1656264722.785031,6.000000,0.000000,4247.179688,4216.922852,4113.846191,4097.436035,4228.717773,16175.000000,4.000000,86.000000,,,,0.000000,4.000000,4.000000,4.000000,4.000000,4.000000,100.000000,,,,,,,,,,,,,,,,,,,,,,,,,,,,,,,,,,,,,,,,,,,,,,,,,,,,,,,,,,,,,,,
1656264722.792845,7.000000,0.000000,4268.205078,4246.666504,4105.641113,4125.641113,4256.922852,450.000000,4.000000,86.000000,,,,0.000000,4.000000,4.000000,4.000000,4.000000,4.000000,100.000000,,,,,,,,,,,,,,,,,,,,,,,,,,,,,,,,,,,,,,,,,,,,,,,,,,,,,,,,,,,,,,,
1656264722.800760,8.000000,0.000000,4274.871582,4243.077148,4084.102539,4126.153809,4243.077148,450.000000,4.000000,86.000000,,,,0.000000,4.000000,4.000000,4.000000,4.000000,4.000000,100.000000,,,,,,,,,,,,,,,,,,,,,,,,,,,,,,,,,,,,,,,,,,,,,,,,,,,,,,,,,,,,,,,
1656264722.808574,9.000000,0.000000,4264.102539,4224.102539,4100.512695,4106.153809,4227.179688,16157.000000,4.000000,86.000000,,,,0.000000,4.000000,4.000000,4.000000,4.000000,4.000000,100.000000,,,,,,,,,,,,,,,,,,,,,,,,,,,,,,,,,,,,,,,,,,,,,,,,,,,,,,,,,,,,,,,
1656264722.816289,10.000000,0.000000,4256.922852,4215.384766,4114.358887,4104.615234,4225.641113,450.000000,4.000000,86.000000,,,,0.000000,4.000000,4.000000,4.000000,4.000000,4.000000,100.000000,,,,,,,,,,,,,,,,,,,,,,,,,,,,,,,,,,,,,,,,,,,,,,,,,,,,,,,,,,,,,,,
1656264722.824103,11.000000,0.000000,4262.563965,4206.153809,4106.153809,4095.897461,4220.000000,16213.000000,4.000000,86.000000,,,,0.000000,4.000000,4.000000,4.000000,4.000000,4.000000,100.000000,,,,,,,,,,,,,,,,,,,,,,,,,,,,,,,,,,,,,,,,,,,,,,,,,,,,,,,,,,,,,,,
1656264722.831817,12.000000,0.000000,4280.512695,4229.230957,4113.333496,4096.922852,4248.205078,450.000000,4.000000,86.000000,,,,0.000000,4.000000,4.000000,4.000000,4.000000,4.000000,100.000000,,,,,,,,,,,,,,,,,,,,,,,,,,,,,,,,,,,,,,,,,,,,,,,,,,,,,,,,,,,,,,,
1656264722.839632,13.000000,0.000000,4266.666504,4252.307617,4095.384521,4093.846191,4257.436035,450.000000,4.000000,86.000000,,,,0.000000,4.000000,4.000000,4.000000,4.000000,4.000000,100.000000,1.000000,100.000000,4.000000,4.000000,4.000000,4.000000,4.000000,,,,,,,,,,,,,,,,,,,,,,,,,,,,,,,,2.205778,1.187295,2.243949,0.921865,1.281819,1.385782,1.916469,0.940251,1.008490,0.846859,8.568654,4.845408,1.940793,2.069166,1.142582,2.543152,2.665076,1.314631,0.861429,1.209805,3.573497,1.784235,4.373789,1.454598,1.034069
1656264722.847346,14.000000,0.000000,4252.307617,4245.128418,4071.281982,4101.538574,4235.897461,450.000000,4.000000,86.000000,,,,0.000000,4.000000,4.000000,4.000000,4.000000,4.000000,100.000000,,,,,,,,,,,,,,,,,,,,,,,,,,,,,,,,,,,,,,,,,,,,,,,,,,,,,,,,,,,,,,,
1656264722.855161,15.000000,0.000000,4267.179688,4236.922852,4075.897461,4126.666504,4234.358887,16213.000000,4.000000,86.000000,,,,0.000000,4.000000,4.000000,4.000000,4.000000,4.000000,100.000000,,,,,,,,,,,,,,,,,,,,,,,,,,,,,,,,,,,,,,,,,,,,,,,,,,,,,,,,,,,,,,,
1656264722.862875,16.000000,0.000000,4268.717773,4237.436035,4085.641113,4115.384766,4236.922852,0.000000,4.000000,86.000000,,,,0.000000,4.000000,4.000000,4.000000,4.000000,4.000000,100.000000,,,,,,,,,,,,,,,,,,,,,,,,,,,,,,,,,,,,,,,,,,,,,,,,,,,,,,,,,,,,,,,
1656264722.870690,17.000000,0.000000,4274.358887,4233.846191,4104.102539,4098.461426,4228.717773,0.000000,4.000000,86.000000,,,,0.000000,4.000000,4.000000,4.000000,4.000000,4.000000,100.000000,,,,,,,,,,,,,,,,,,,,,,,,,,,,,,,,,,,,,,,,,,,,,,,,,,,,,,,,,,,,,,,
1656264722.878404,18.000000,0.000000,4273.846191,4210.256348,4114.358887,4097.436035,4209.230957,0.000000,4.000000,86.000000,,,,0.000000,4.000000,4.000000,4.000000,4.000000,4.000000,100.000000,,,,,,,,,,,,,,,,,,,,,,,,,,,,,,,,,,,,,,,,,,,,,,,,,,,,,,,,,,,,,,,
1656264722.886318,19.000000,0.000000,4250.769043,4206.153809,4108.205078,4100.512695,4195.384766,0.000000,4.000000,86.000000,,,,0.000000,4.000000,4.000000,4.000000,4.000000,4.000000,100.000000,,,,,,,,,,,,,,,,,,,,,,,,,,,,,,,,,,,,,,,,,,,,,,,,,,,,,,,,,,,,,,,
1656264722.894133,20.000000,0.000000,4259.487305,4238.461426,4109.743652,4111.282227,4208.717773,0.000000,4.000000,86.000000,,,,0.000000,4.000000,4.000000,4.000000,4.000000,4.000000,100.000000,,,,,,,,,,,,,,,,,,,,,,,,,,,,,,,,,,,,,,,,,,,,,,,,,,,,,,,,,,,,,,,
1656264722.901947,21.000000,0.000000,4267.692383,4230.769043,4105.128418,4104.102539,4209.230957,0.000000,4.000000,86.000000,,,,0.000000,4.000000,4.000000,4.000000,4.000000,4.000000,100.000000,,,,,,,,,,,,,,,,,,,,,,,,,,,,,,,,,,,,,,,,,,,,,,,,,,,,,,,,,,,,,,,
1656264722.909762,22.000000,0.000000,4249.743652,4213.846191,4085.128174,4098.974121,4202.051270,0.000000,4.000000,86.000000,,,,0.000000,4.000000,4.000000,4.000000,4.000000,4.000000,100.000000,,,,,,,,,,,,,,,,,,,,,,,,,,,,,,,,,,,,,,,,,,,,,,,,,,,,,,,,,,,,,,,
1656264722.917676,23.000000,0.000000,4258.461426,4253.333496,4069.230713,4122.563965,4238.461426,0.000000,4.000000,86.000000,,,,0.000000,4.000000,4.000000,4.000000,4.000000,4.000000,100.000000,,,,,,,,,,,,,,,,,,,,,,,,,,,,,,,,,,,,,,,,,,,,,,,,,,,,,,,,,,,,,,,
1656264722.925590,24.000000,0.000000,4269.230957,4262.051270,4067.179443,4116.922852,4244.102539,0.000000,4.000000,86.000000,,,,0.000000,4.000000,4.000000,4.000000,4.000000,4.000000,100.000000,,,,,,,,,,,,,,,,,,,,,,,,,,,,,,,,,,,,,,,,,,,,,,,,,,,,,,,,,,,,,,,
1656264722.933405,25.000000,0.000000,4271.282227,4233.846191,4095.897461,4098.974121,4213.333496,0.000000,4.000000,86.000000,,,,0.000000,4.000000,4.000000,4.000000,4.000000,4.000000,100.000000,,,,,,,,,,,,,,,,,,,,,,,,,,,,,,,,,,,,,,,,,,,,,,,,,,,,,,,,,,,,,,,
1656264722.941319,26.000000,0.000000,4271.282227,4239.487305,4116.922852,4108.717773,4225.128418,0.000000,4.000000,86.000000,,,,0.000000,4.000000,4.000000,4.000000,4.000000,4.000000,100.000000,,,,,,,,,,,,,,,,,,,,,,,,,,,,,,,,,,,,,,,,,,,,,,,,,,,,,,,,,,,,,,,
1656264722.949133,27.000000,0.000000,4270.256348,4260.000000,4108.205078,4118.974121,4249.230957,0.000000,4.000000,86.000000,,,,0.000000,4.000000,4.000000,4.000000,4.000000,4.000000,100.000000,,,,,,,,,,,,,,,,,,,,,,,,,,,,,,,,,,,,,,,,,,,,,,,,,,,,,,,,,,,,,,,
1656264722.957048,28.000000,0.000000,4294.871582,4264.615234,4106.666504,4135.897461,4258.974121,0.000000,4.000000,86.000000,,,,0.000000,4.000000,4.000000,4.000000,4.000000,4.000000,100.000000,,,,,,,,,,,,,,,,,,,,,,,,,,,,,,,,,,,,,,,,,,,,,,,,,,,,,,,,,,,,,,,
1656264722.964862,29.000000,0.000000,4292.307617,4238.974121,4091.281982,4123.589844,4240.512695,0.000000,4.000000,86.000000,,,,0.000000,4.000000,4.000000,4.000000,4.000000,4.000000,100.000000,,,,,,,,,,,,,,,,,,,,,,,,,,,,,,,,,,,,,,,2.274526,1.396305,2.495352,0.771579,1.172072,1.277307,1.414492,1.051724,1.094367,0.957392,7.902804,5.281717,2.078527,1.948286,1.187879,3.119265,2.269391,1.819095,0.705990,1.156575,4.509893,2.376460,4.578988,1.407148,1.075020
1656264722.972776,30.000000,0.000000,4261.538574,4232.820313,4078.974365,4091.281982,4224.102539,0.000000,4.000000,86.000000,,,,0.000000,4.000000,4.000000,4.000000,4.000000,4.000000,100.000000,,,,,,,,,,,,,,,,,,,,,,,,,,,,,,,,,,,,,,,,,,,,,,,,,,,,,,,,,,,,,,,
1656264722.980591,31.000000,0.000000,4262.563965,4255.897461,4081.025635,4101.538574,4234.871582,0.000000,4.000000,86.000000,,,,0.000000,4.000000,4.000000,4.000000,4.000000,4.000000,100.000000,,,,,,,,,,,,,,,,,,,,,,,,,,,,,,,,,,,,,,,,,,,,,,,,,,,,,,,,,,,,,,,
1656264722.988505,32.000000,0.000000,4281.025879,4245.641113,4087.692383,4106.153809,4233.333496,0.000000,4.000000,86.000000,,,,0.000000,4.000000,4.000000,4.000000,4.000000,4.000000,100.000000,,,,,,,,,,,,,,,,,,,,,,,,,,,,,,,,,,,,,,,,,,,,,,,,,,,,,,,,,,,,,,,
1656264722.996320,33.000000,0.000000,4288.717773,4235.384766,4108.205078,4087.179443,4226.666504,0.000000,4.000000,86.000000,,,,0.000000,4.000000,4.000000,4.000000,4.000000,4.000000,100.000000,,,,,,,,,,,,,,,,,,,,,,,,,,,,,,,,,,,,,,,,,,,,,,,,,,,,,,,,,,,,,,,
1656264723.004234,34.000000,0.000000,4266.666504,4236.922852,4098.461426,4079.487061,4224.615234,0.000000,4.000000,86.000000,,,,0.000000,4.000000,4.000000,4.000000,4.000000,4.000000,100.000000,,,,,,,,,,,,,,,,,,,,,,,,,,,,,,,,,,,,,,,,,,,,,,,,,,,,,,,,,,,,,,,
1656264723.012048,35.000000,0.000000,4263.077148,4220.512695,4090.256348,4092.307617,4235.897461,0.000000,4.000000,86.000000,,,,0.000000,4.000000,4.000000,4.000000,4.000000,4.000000,100.000000,,,,,,,,,,,,,,,,,,,,,,,,,,,,,,,,,,,,,,,,,,,,,,,,,,,,,,,,,,,,,,,
1656264723.019963,36.000000,0.000000,4288.717773,4204.615234,4116.410156,4100.512695,4239.487305,0.000000,4.000000,86.000000,,,,0.000000,4.000000,4.000000,4.000000,4.000000,4.000000,100.000000,,,,,,,,,,,,,,,,,,,,,,,,,,,,,,,,,,,,,,,,,,,,,,,,,,,,,,,,,,,,,,,
1656264723.027877,37.000000,0.000000,4295.897461,4209.230957,4121.538574,4097.436035,4236.410156,0.000000,4.000000,86.000000,,,,0.000000,4.000000,4.000000,4.000000,4.000000,4.000000,100.000000,,,,,,,,,,,,,,,,,,,,,,,,,,,,,,,,,,,,,,,,,,,,,,,,,,,,,,,,,,,,,,,
1656264723.035691,38.000000,0.000000,4292.307617,4223.589844,4096.922852,4111.282227,4251.282227,0.000000,4.000000,86.000000,,,,0.000000,4.000000,4.000000,4.000000,4.000000,4.000000,100.000000,,,,,,,,,,,,,,,,,,,,,,,,,,,,,,,,,,,,,,,,,,,,,,,,,,,,,,,,,,,,,,,
1656264723.043506,39.000000,0.000000,4286.153809,4211.282227,4092.307617,4115.897461,4243.077148,0.000000,4.000000,86.000000,,,,0.000000,4.000000,4.000000,4.000000,4.000000,4.000000,100.000000,,,,,,,,,,,,,,,,,,,,,,,,,,,,,,,,,,,,,,,,,,,,,,,,,,,,,,,,,,,,,,,
1656264723.051320,40.000000,0.000000,4282.051270,4216.922852,4110.256348,4102.563965,4235.897461,0.000000,4.000000,86.000000,,,,0.000000,4.000000,4.000000,4.000000,4.000000,4.000000,100.000000,,,,,,,,,,,,,,,,,,,,,,,,,,,,,,,,,,,,,,,,,,,,,,,,,,,,,,,,,,,,,,,
1656264723.059234,41.000000,0.000000,4269.230957,4251.794922,4100.512695,4090.256348,4243.077148,0.000000,4.000000,86.000000,,,,0.000000,4.000000,4.000000,4.000000,4.000000,4.000000,100.000000,,,,,,,,,,,,,,,,,,,,,,,,,,,,,,,,,,,,,,,,,,,,,,,,,,,,,,,,,,,,,,,
1656264723.067049,42.000000,0.000000,4266.666504,4262.051270,4096.410156,4091.794922,4246.666504,0.000000,4.000000,86.000000,,,,0.000000,4.000000,4.000000,4.000000,4.000000,4.000000,100.000000,,,,,,,,,,,,,,,,,,,,,,,,,,,,,,,,,,,,,,,,,,,,,,,,,,,,,,,,,,,,,,,
1656264723.074963,43.000000,0.000000,4284.615234,4250.256348,4116.410156,4107.692383,4255.897461,0.000000,4.000000,86.000000,,,,0.000000,4.000000,4.000000,4.000000,4.000000,4.000000,100.000000,,,,,,,,,,,,,,,,,,,,,,,,,,,,,,,,,,,,,,,,,,,,,,,,,,,,,,,,,,,,,,,
1656264723.082778,44.000000,0.000000,4271.282227,4234.358887,4115.897461,4098.461426,4237.436035,0.000000,4.000000,86.000000,,,,0.000000,4.000000,4.000000,4.000000,4.000000,4.000000,100.000000,,,,,,,,,,,,,,,,,,,,,,,,,,,,,,,,,,,,,,,,,,,,,,,,,,,,,,,,,,,,,,,
1656264723.090692,45.000000,0.000000,4263.077148,4239.487305,4115.384766,4093.333252,4207.692383,0.000000,4.000000,86.000000,,,,0.000000,4.000000,4.000000,4.000000,4.000000,4.000000,100.000000,,,,,,,,,,,,,,,,,,,,,,,,,,,,,,,,,,,,,,,2.406697,1.721217,2.705062,0.696166,1.066320,1.164886,1.105662,1.188554,1.205552,1.072247,7.278277,5.912289,2.295428,1.681732,1.263186,3.650186,1.832086,2.312779,0.610875,1.059610,5.470411,3.022825,4.461032,1.366654,1.072058
1656264723.098506,46.000000,0.000000,4286.666504,4234.871582,4131.794922,4103.077148,4206.153809,0.000000,4.000000,86.000000,,,,0.000000,4.000000,4.000000,4.000000,4.000000,4.000000,100.000000,,,,,,,,,,,,,,,,,,,,,,,,,,,,,,,,,,,,,,,,,,,,,,,,,,,,,,,,,,,,,,,
1656264723.106421,47.000000,0.000000,4283.589844,4216.410156,4130.769043,4101.025879,4215.384766,0.000000,4.000000,86.000000,,,,0.000000,4.000000,4.000000,4.000000,4.000000,4.000000,100.000000,,,,,,,,,,,,,,,,,,,,,,,,,,,,,,,,,,,,,,,,,,,,,,,,,,,,,,,,,,,,,,,
1656264723.114335,48.000000,0.000000,4279.487305,4227.179688,4123.077148,4107.179688,4223.589844,0.000000,4.000000,86.000000,,,,0.000000,4.000000,4.000000,4.000000,4.000000,4.000000,100.000000,,,,,,,,,,,,,,,,,,,,,,,,,,,,,,,,,,,,,,,,,,,,,,,,,,,,,,,,,,,,,,,
1656264723.122149,49.000000,0.000000,4289.230957,4236.410156,4125.128418,4103.077148,4215.897461,0.000000,4.000000,86.000000,,,,0.000000,4.000000,4.000000,4.000000,4.000000,4.000000,100.000000,,,,,,,,,,,,,,,,,,,,,,,,,,,,,,,,,,,,,,,,,,,,,,,,,,,,,,,,,,,,,,,
1656264723.130064,50.000000,0.000000,4275.897461,4233.846191,4124.615234,4087.692383,4193.846191,0.000000,4.000000,86.000000,,,,0.000000,4.000000,4.000000,4.000000,4.000000,4.000000,100.000000,,,,,,,,,,,,,,,,,,,,,,,,,,,,,,,,,,,,,,,,,,,,,,,,,,,,,,,,,,,,,,,
1656264723.137878,51.000000,0.000000,4264.615234,4225.641113,4099.487305,4091.281982,4187.179688,0.000000,4.000000,86.000000,,,,0.000000,4.000000,4.000000,4.000000,4.000000,4.000000,100.000000,,,,,,,,,,,,,,,,,,,,,,,,,,,,,,,,,,,,,,,,,,,,,,,,,,,,,,,,,,,,,,,
1656264723.145792,52.000000,0.000000,4270.769043,4204.615234,4083.589844,4077.435791,4196.922852,0.000000,4.000000,86.000000,,,,0.000000,4.000000,4.000000,4.000000,4.000000,4.000000,100.000000,,,,,,,,,,,,,,,,,,,,,,,,,,,,,,,,,,,,,,,,,,,,,,,,,,,,,,,,,,,,,,,
1656264723.153607,53.000000,0.000000,4269.230957,4204.102539,4112.820313,4060.000000,4207.179688,0.000000,4.000000,86.000000,,,,0.000000,4.000000,4.000000,4.000000,4.000000,4.000000,100.000000,,,,,,,,,,,,,,,,,,,,,,,,,,,,,,,,,,,,,,,,,,,,,,,,,,,,,,,,,,,,,,,
1656264723.161421,54.000000,0.000000,4251.282227,4232.820313,4116.922852,4078.974365,4211.794922,0.000000,4.000000,86.000000,,,,0.000000,4.000000,4.000000,4.000000,4.000000,4.000000,100.000000,,,,,,,,,,,,,,,,,,,,,,,,,,,,,,,,,,,,,,,,,,,,,,,,,,,,,,,,,,,,,,,
1656264723.169335,55.000000,0.000000,4255.384766,4243.589844,4089.743652,4112.307617,4222.563965,0.000000,4.000000,86.000000,,,,0.000000,4.000000,4.000000,4.000000,4.000000,4.000000,100.000000,,,,,,,,,,,,,,,,,,,,,,,,,,,,,,,,,,,,,,,,,,,,,,,,,,,,,,,,,,,,,,,
1656264723.177250,56.000000,0.000000,4284.102539,4230.769043,4103.077148,4128.205078,4230.769043,0.000000,4.000000,86.000000,,,,0.000000,4.000000,4.000000,4.000000,4.000000,4.000000,100.000000,,,,,,,,,,,,,,,,,,,,,,,,,,,,,,,,,,,,,,,,,,,,,,,,,,,,,,,,,,,,,,,
1656264723.185064,57.000000,0.000000,4282.051270,4215.897461,4123.077148,4110.256348,4212.307617,0.000000,4.000000,86.000000,,,,0.000000,4.000000,4.000000,4.000000,4.000000,4.000000,100.000000,,,,,,,,,,,,,,,,,,,,,,,,,,,,,,,,,,,,,,,,,,,,,,,,,,,,,,,,,,,,,,,
1656264723.192978,58.000000,0.000000,4258.461426,4226.666504,4114.358887,4106.153809,4207.692383,0.000000,4.000000,86.000000,,,,0.000000,4.000000,4.000000,4.000000,4.000000,4.000000,100.000000,,,,,,,,,,,,,,,,,,,,,,,,,,,,,,,,,,,,,,,,,,,,,,,,,,,,,,,,,,,,,,,
1656264723.200793,59.000000,0.000000,4255.897461,4240.000000,4097.948730,4120.512695,4219.487305,0.000000,4.000000,86.000000,,,,0.000000,4.000000,4.000000,4.000000,4.000000,4.000000,100.000000,,,,,,,,,,,,,,,,,,,,,,,,,,,,,,,,,,,,,,,,,,,,,,,,,,,,,,,,,,,,,,,
1656264723.208707,60.000000,0.000000,4271.282227,4221.538574,4097.436035,4111.794922,4217.948730,0.000000,4.000000,86.000000,,,,0.000000,4.000000,4.000000,4.000000,4.000000,4.000000,100.000000,,,,,,,,,,,,,,,,,,,,,,,,,,,,,,,,,,,,,,,,,,,,,,,,,,,,,,,,,,,,,,,
1656264723.216522,61.000000,0.000000,4285.641113,4221.538574,4115.897461,4107.179688,4214.358887,0.000000,4.000000,86.000000,,,,0.000000,4.000000,4.000000,4.000000,4.000000,4.000000,100.000000,,,,,,,,,,,,,,,,,,,,,,,,,,,,,,,,,,,,,,,2.494517,2.125080,2.803409,0.711810,0.999395,1.101418,0.984383,1.337948,1.319455,1.164484,6.747962,6.540430,2.578220,1.379079,1.337830,3.975842,1.445170,2.685210,0.612656,0.943790,6.144513,3.572303,4.029553,1.371468,1.040834
1656264723.224436,62.000000,0.000000,4277.948730,4225.641113,4132.820313,4106.153809,4198.461426,0.000000,4.000000,86.000000,,,,0.000000,4.000000,4.000000,4.000000,4.000000,4.000000,100.000000,,,,,,,,,,,,,,,,,,,,,,,,,,,,,,,,,,,,,,,,,,,,,,,,,,,,,,,,,,,,,,,
1656264723.232250,63.000000,0.000000,4264.102539,4224.102539,4138.461426,4098.974121,4195.897461,0.000000,4.000000,86.000000,,,,0.000000,4.000000,4.000000,4.000000,4.000000,4.000000,100.000000,,,,,,,,,,,,,,,,,,,,,,,,,,,,,,,,,,,,,,,,,,,,,,,,,,,,,,,,,,,,,,,
1656264723.240165,64.000000,0.000000,4263.589844,4233.846191,4124.102539,4105.641113,4219.487305,450.000000,4.000000,86.000000,,,,0.000000,4.000000,4.000000,4.000000,4.000000,4.000000,100.000000,,,,,,,,,,,,,,,,,,,,,,,,,,,,,,,,,,,,,,,,,,,,,,,,,,,,,,,,,,,,,,,
1656264723.248079,65.000000,0.000000,4258.974121,4230.256348,4110.769043,4110.256348,4215.384766,450.000000,4.000000,86.000000,,,,0.000000,4.000000,4.000000,4.000000,4.000000,4.000000,100.000000,,,,,,,,,,,,,,,,,,,,,,,,,,,,,,,,,,,,,,,,,,,,,,,,,,,,,,,,,,,,,,,
1656264723.255893,66.000000,0.000000,4260.512695,4232.307617,4120.000000,4102.563965,4202.051270,16171.000000,4.000000,86.000000,,,,0.000000,4.000000,4.000000,4.000000,4.000000,4.000000,100.000000,,,,,,,,,,,,,,,,,,,,,,,,,,,,,,,,,,,,,,,,,,,,,,,,,,,,,,,,,,,,,,,
1656264723.263808,67.000000,0.000000,4268.205078,4237.948730,4109.230957,4096.922852,4214.871582,450.000000,4.000000,86.000000,,,,0.000000,4.000000,4.000000,4.000000,4.000000,4.000000,100.000000,,,,,,,,,,,,,,,,,,,,,,,,,,,,,,,,,,,,,,,,,,,,,,,,,,,,,,,,,,,,,,,
1656264723.271622,68.000000,0.000000,4281.538574,4236.410156,4096.410156,4101.538574,4222.563965,16180.000000,4.000000,86.000000,,,,0.000000,4.000000,4.000000,4.000000,4.000000,4.000000,100.000000,,,,,,,,,,,,,,,,,,,,,,,,,,,,,,,,,,,,,,,,,,,,,,,,,,,,,,,,,,,,,,,
1656264723.279536,69.000000,0.000000,4288.717773,4232.820313,4102.563965,4090.769287,4209.743652,450.000000,4.000000,86.000000,,,,0.000000,4.000000,4.000000,4.000000,4.000000,4.000000,100.000000,,,,,,,,,,,,,,,,,,,,,,,,,,,,,,,,,,,,,,,,,,,,,,,,,,,,,,,,,,,,,,,
1656264723.287351,70.000000,0.000000,4271.794922,4230.769043,4099.487305,4066.153809,4204.102539,16125.000000,4.000000,86.000000,,,,0.000000,4.000000,4.000000,4.000000,4.000000,4.000000,100.000000,,,,,,,,,,,,,,,,,,,,,,,,,,,,,,,,,,,,,,,,,,,,,,,,,,,,,,,,,,,,,,,
1656264723.295165,71.000000,0.000000,4266.153809,4245.641113,4086.666748,4076.410156,4228.205078,450.000000,4.000000,86.000000,,,,0.000000,4.000000,4.000000,4.000000,4.000000,4.000000,100.000000,,,,,,,,,,,,,,,,,,,,,,,,,,,,,,,,,,,,,,,,,,,,,,,,,,,,,,,,,,,,,,,
1656264723.303079,72.000000,0.000000,4263.077148,4248.717773,4067.179443,4087.179443,4235.897461,450.000000,4.000000,86.000000,,,,0.000000,4.000000,4.000000,4.000000,4.000000,4.000000,100.000000,,,,,,,,,,,,,,,,,,,,,,,,,,,,,,,,,,,,,,,,,,,,,,,,,,,,,,,,,,,,,,,
1656264723.310994,73.000000,0.000000,4267.179688,4238.974121,4074.358887,4072.820557,4219.487305,16114.000000,4.000000,86.000000,,,,0.000000,4.000000,4.000000,4.000000,4.000000,4.000000,100.000000,,,,,,,,,,,,,,,,,,,,,,,,,,,,,,,,,,,,,,,,,,,,,,,,,,,,,,,,,,,,,,,
1656264723.318808,74.000000,0.000000,4277.948730,4242.563965,4092.820557,4073.333252,4221.538574,450.000000,4.000000,86.000000,,,,0.000000,4.000000,4.000000,4.000000,4.000000,4.000000,100.000000,,,,,,,,,,,,,,,,,,,,,,,,,,,,,,,,,,,,,,,,,,,,,,,,,,,,,,,,,,,,,,,
1656264723.326722,75.000000,0.000000,4245.128418,4226.666504,4074.871826,4074.871826,4214.871582,16235.000000,4.000000,86.000000,,,,0.000000,4.000000,4.000000,4.000000,4.000000,4.000000,100.000000,,,,,,,,,,,,,,,,,,,,,,,,,,,,,,,,,,,,,,,,,,,,,,,,,,,,,,,,,,,,,,,
1656264723.334537,76.000000,0.000000,4238.461426,4215.897461,4064.102539,4088.205078,4212.820313,450.000000,4.000000,86.000000,,,,0.000000,4.000000,4.000000,4.000000,4.000000,4.000000,100.000000,,,,,,,,,,,,,,,,,,,,,,,,,,,,,,,,,,,,,,,,,,,,,,,,,,,,,,,,,,,,,,,
1656264723.342451,77.000000,0.000000,4267.692383,4224.102539,4076.410156,4100.512695,4224.102539,450.000000,4.000000,86.000000,,,,0.000000,4.000000,4.000000,4.000000,4.000000,4.000000,100.000000,1.000000,100.000000,4.000000,4.000000,4.000000,4.000000,4.000000,,,,,,,,,,,,,,,,,,,,,,,,,,,,,,,,2.448942,2.502145,2.772027,0.790817,0.988664,1.174519,1.030067,1.493461,1.407933,1.224103,6.273008,6.825589,2.921040,1.158299,1.378409,3.976380,1.140790,2.894699,0.707944,0.841442,6.323298,3.933481,3.374238,1.431034,1.004694
1656264723.350266,78.000000,0.000000,4253.333496,4202.051270,4078.461426,4079.487061,4206.666504,450.000000,4.000000,86.000000,,,,0.000000,4.000000,4.000000,4.000000,4.000000,4.000000,100.000000,,,,,,,,,,,,,,,,,,,,,,,,,,,,,,,,,,,,,,,,,,,,,,,,,,,,,,,,,,,,,,,
1656264723.358180,79.000000,0.000000,4241.538574,4186.666504,4089.230713,4082.051270,4199.487305,16235.000000,4.000000,86.000000,,,,0.000000,4.000000,4.000000,4.000000,4.000000,4.000000,100.000000,,,,,,,,,,,,,,,,,,,,,,,,,,,,,,,,,,,,,,,,,,,,,,,,,,,,,,,,,,,,,,,
1656264723.365994,80.000000,0.000000,4249.743652,4205.641113,4093.333252,4092.820557,4208.717773,450.000000,4.000000,86.000000,,,,0.000000,4.000000,4.000000,4.000000,4.000000,4.000000,100.000000,,,,,,,,,,,,,,,,,,,,,,,,,,,,,,,,,,,,,,,,,,,,,,,,,,,,,,,,,,,,,,,
1656264723.373909,81.000000,0.000000,4256.922852,4222.563965,4090.769287,4076.410156,4214.871582,450.000000,4.000000,86.000000,,,,0.000000,4.000000,4.000000,4.000000,4.000000,4.000000,100.000000,,,,,,,,,,,,,,,,,,,,,,,,,,,,,,,,,,,,,,,,,,,,,,,,,,,,,,,,,,,,,,,
1656264723.381823,82.000000,0.000000,4266.666504,4225.641113,4093.846191,4084.102539,4221.025879,450.000000,4.000000,86.000000,,,,0.000000,4.000000,4.000000,4.000000,4.000000,4.000000,100.000000,,,,,,,,,,,,,,,,,,,,,,,,,,,,,,,,,,,,,,,,,,,,,,,,,,,,,,,,,,,,,,,
1656264723.389637,83.000000,0.000000,4245.641113,4209.230957,4075.384521,4084.102539,4213.333496,16235.000000,4.000000,86.000000,,,,0.000000,4.000000,4.000000,4.000000,4.000000,4.000000,100.000000,,,,,,,,,,,,,,,,,,,,,,,,,,,,,,,,,,,,,,,,,,,,,,,,,,,,,,,,,,,,,,,
1656264723.397452,84.000000,0.000000,4234.871582,4231.794922,4081.025635,4075.897461,4230.769043,450.000000,4.000000,86.000000,,,,0.000000,4.000000,4.000000,4.000000,4.000000,4.000000,100.000000,,,,,,,,,,,,,,,,,,,,,,,,,,,,,,,,,,,,,,,,,,,,,,,,,,,,,,,,,,,,,,,
1656264723.405366,85.000000,0.000000,4245.128418,4258.974121,4089.230713,4089.230713,4240.512695,450.000000,4.000000,86.000000,,,,0.000000,4.000000,4.000000,4.000000,4.000000,4.000000,100.000000,,,,,,,,,,,,,,,,,,,,,,,,,,,,,,,,,,,,,,,,,,,,,,,,,,,,,,,,,,,,,,,
1656264723.413180,86.000000,0.000000,4235.897461,4230.256348,4075.384521,4091.794922,4212.307617,450.000000,4.000000,86.000000,,,,0.000000,4.000000,4.000000,4.000000,4.000000,4.000000,100.000000,,,,,,,,,,,,,,,,,,,,,,,,,,,,,,,,,,,,,,,,,,,,,,,,,,,,,,,,,,,,,,,
1656264723.421095,87.000000,0.000000,4243.589844,4219.487305,4092.820557,4094.871826,4217.948730,16235.000000,4.000000,86.000000,,,,0.000000,4.000000,4.000000,4.000000,4.000000,4.000000,100.000000,,,,,,,,,,,,,,,,,,,,,,,,,,,,,,,,,,,,,,,,,,,,,,,,,,,,,,,,,,,,,,,
1656264723.428909,88.000000,0.000000,4249.230957,4220.512695,4106.153809,4089.743652,4228.717773,450.000000,4.000000,86.000000,,,,0.000000,4.000000,4.000000,4.000000,4.000000,4.000000,100.000000,,,,,,,,,,,,,,,,,,,,,,,,,,,,,,,,,,,,,,,,,,,,,,,,,,,,,,,,,,,,,,,
1656264723.436823,89.000000,0.000000,4245.641113,4224.102539,4100.000000,4086.666748,4225.128418,450.000000,4.000000,86.000000,,,,0.000000,4.000000,4.000000,4.000000,4.000000,4.000000,100.000000,,,,,,,,,,,,,,,,,,,,,,,,,,,,,,,,,,,,,,,,,,,,,,,,,,,,,,,,,,,,,,,
1656264723.444638,90.000000,0.000000,4249.230957,4234.871582,4091.794922,4096.410156,4229.743652,450.000000,4.000000,86.000000,,,,0.000000,4.000000,4.000000,4.000000,4.000000,4.000000,100.000000,,,,,,,,,,,,,,,,,,,,,,,,,,,,,,,,,,,,,,,,,,,,,,,,,,,,,,,,,,,,,,,
1656264723.452552,91.000000,0.000000,4237.948730,4227.179688,4081.538574,4092.307617,4231.794922,16235.000000,4.000000,86.000000,,,,0.000000,4.000000,4.000000,4.000000,4.000000,4.000000,100.000000,,,,,,,,,,,,,,,,,,,,,,,,,,,,,,,,,,,,,,,,,,,,,,,,,,,,,,,,,,,,,,,
1656264723.460466,92.000000,0.000000,4225.641113,4221.025879,4075.897461,4079.487061,4224.615234,450.000000,4.000000,86.000000,,,,0.000000,4.000000,4.000000,4.000000,4.000000,4.000000,100.000000,,,,,,,,,,,,,,,,,,,,,,,,,,,,,,,,,,,,,,,,,,,,,,,,,,,,,,,,,,,,,,,
1656264723.468381,93.000000,0.000000,4233.846191,4227.179688,4087.692383,4081.538574,4218.461426,450.000000,4.000000,86.000000,,,,0.000000,4.000000,4.000000,4.000000,4.000000,4.000000,100.000000,,,,,,,,,,,,,,,,,,,,,,,,,,,,,,,,,,,,,,,2.282618,2.757494,2.637936,0.878386,1.029166,1.417835,1.237091,1.647811,1.452852,1.256490,5.691842,6.537576,3.287652,1.085780,1.368431,3.674639,0.916420,2.975888,0.854519,0.776810,5.996145,4.110484,2.620583,1.523965,0.982030
1656264723.476195,94.000000,0.000000,4246.153809,4236.410156,4089.230713,4102.563965,4226.666504,450.000000,4.000000,86.000000,,,,0.000000,4.000000,4.000000,4.000000,4.000000,4.000000,100.000000,,,,,,,,,,,,,,,,,,,,,,,,,,,,,,,,,,,,,,,,,,,,,,,,,,,,,,,,,,,,,,,
1656264723.484109,95.000000,0.000000,4237.436035,4232.820313,4055.384521,4091.794922,4226.666504,16235.000000,4.000000,86.000000,,,,0.000000,4.000000,4.000000,4.000000,4.000000,4.000000,100.000000,,,,,,,,,,,,,,,,,,,,,,,,,,,,,,,,,,,,,,,,,,,,,,,,,,,,,,,,,,,,,,,
1656264723.491924,96.000000,0.000000,4251.794922,4236.410156,4053.333252,4083.076904,4236.410156,450.000000,4.000000,86.000000,,,,0.000000,4.000000,4.000000,4.000000,4.000000,4.000000,100.000000,,,,,,,,,,,,,,,,,,,,,,,,,,,,,,,,,,,,,,,,,,,,,,,,,,,,,,,,,,,,,,,
1656264723.499838,97.000000,0.000000,4268.205078,4227.692383,4066.153809,4096.410156,4238.974121,450.000000,4.000000,86.000000,,,,0.000000,4.000000,4.000000,4.000000,4.000000,4.000000,100.000000,,,,,,,,,,,,,,,,,,,,,,,,,,,,,,,,,,,,,,,,,,,,,,,,,,,,,,,,,,,,,,,
1656264723.507653,98.000000,1.000000,4263.589844,4228.910156,4067.179443,4094.551270,4231.730957,450.000000,4.000000,86.000000,,,,0.000000,4.000000,4.000000,4.000000,4.000000,4.000000,100.000000,,,,,,,,,,,,,,,,,,,,,,,,,,,,,,,,,,,,,,,,,,,,,,,,,,,,,,,,,,,,,,,
1656264723.515467,99.000000,1.000000,4258.974121,4230.128418,4068.205078,4092.692383,4224.487305,450.000000,4.000000,86.000000,,,,0.000000,4.000000,4.000000,4.000000,4.000000,4.000000,100.000000,,,,,,,,,,,,,,,,,,,,,,,,,,,,,,,,,,,,,,,,,,,,,,,,,,,,,,,,,,,,,,,
1656264723.523281,100.000000,1.000000,4254.358887,4231.346191,4069.230713,4090.833252,4217.243652,450.000000,4.000000,86.000000,,,,0.000000,4.000000,4.000000,4.000000,4.000000,4.000000,100.000000,,,,,,,,,,,,,,,,,,,,,,,,,,,,,,,,,,,,,,,,,,,,,,,,,,,,,,,,,,,,,,,
1656264723.531096,101.000000,1.000000,4249.743652,4232.563965,4070.256348,4088.974365,4210.000000,450.000000,4.000000,86.000000,,,,0.000000,4.000000,4.000000,4.000000,4.000000,4.000000,100.000000,,,,,,,,,,,,,,,,,,,,,,,,,,,,,,,,,,,,,,,,,,,,,,,,,,,,,,,,,,,,,,,
1656264723.538910,102.000000,1.000000,4245.128418,4233.782227,4071.281982,4087.115479,4202.756348,450.000000,4.000000,86.000000,,,,0.000000,4.000000,4.000000,4.000000,4.000000,4.000000,100.000000,,,,,,,,,,,,,,,,,,,,,,,,,,,,,,,,,,,,,,,,,,,,,,,,,,,,,,,,,,,,,,,
1656264723.546725,103.000000,1.000000,4240.512695,4235.000000,4072.307617,4085.256348,4195.512695,450.000000,4.000000,86.000000,,,,0.000000,4.000000,4.000000,4.000000,4.000000,4.000000,100.000000,,,,,,,,,,,,,,,,,,,,,,,,,,,,,,,,,,,,,,,,,,,,,,,,,,,,,,,,,,,,,,,
1656264723.554539,104.000000,1.000000,4235.897461,4236.217773,4073.333252,4083.397461,4188.269043,450.000000,4.000000,86.000000,,,,0.000000,4.000000,4.000000,4.000000,4.000000,4.000000,100.000000,,,,,,,,,,,,,,,,,,,,,,,,,,,,,,,,,,,,,,,,,,,,,,,,,,,,,,,,,,,,,,,
1656264723.562353,105.000000,0.000000,4231.282227,4237.436035,4074.358887,4081.538574,4181.025879,450.000000,4.000000,86.000000,,,,0.000000,4.000000,4.000000,4.000000,4.000000,4.000000,100.000000,,,,,,,,,,,,,,,,,,,,,,,,,,,,,,,,,,,,,,,,,,,,,,,,,,,,,,,,,,,,,,,
1656264723.570068,106.000000,0.000000,4223.077148,4216.922852,4069.743652,4053.333252,4160.000000,450.000000,4.000000,86.000000,,,,0.000000,4.000000,4.000000,4.000000,4.000000,4.000000,100.000000,,,,,,,,,,,,,,,,,,,,,,,,,,,,,,,,,,,,,,,,,,,,,,,,,,,,,,,,,,,,,,,
1656264723.577882,107.000000,0.000000,4232.307617,4227.692383,4071.281982,4080.512939,4188.205078,16235.000000,4.000000,86.000000,,,,0.000000,4.000000,4.000000,4.000000,4.000000,4.000000,100.000000,,,,,,,,,,,,,,,,,,,,,,,,,,,,,,,,,,,,,,,,,,,,,,,,,,,,,,,,,,,,,,,
1656264723.585597,108.000000,0.000000,4246.666504,4218.974121,4081.538574,4105.128418,4200.512695,450.000000,4.000000,86.000000,,,,0.000000,4.000000,4.000000,4.000000,4.000000,4.000000,100.000000,,,,,,,,,,,,,,,,,,,,,,,,,,,,,,,,,,,,,,,,,,,,,,,,,,,,,,,,,,,,,,,
1656264723.593311,109.000000,0.000000,4233.846191,4206.153809,4077.948730,4090.256348,4190.769043,450.000000,4.000000,86.000000,,,,0.000000,4.000000,4.000000,4.000000,4.000000,4.000000,100.000000,,,,,,,,,,,,,,,,,,,,,,,,,,,,,,,,,,,,,,,2.024476,2.814794,2.444625,0.933184,1.095383,1.797467,1.583112,1.789858,1.445399,1.271470,4.907425,5.694042,3.613480,1.152844,1.316302,3.225751,0.762612,3.009068,0.993168,0.755360,5.314107,4.173275,1.900002,1.611840,0.976090
1656264723.601126,110.000000,0.000000,4228.717773,4227.692383,4056.923096,4094.871826,4203.589844,450.000000,4.000000,86.000000,,,,0.000000,4.000000,4.000000,4.000000,4.000000,4.000000,100.000000,,,,,,,,,,,,,,,,,,,,,,,,,,,,,,,,,,,,,,,,,,,,,,,,,,,,,,,,,,,,,,,
1656264723.608940,111.000000,0.000000,4240.512695,4221.538574,4064.615479,4099.487305,4211.794922,16235.000000,4.000000,86.000000,,,,0.000000,4.000000,4.000000,4.000000,4.000000,4.000000,100.000000,,,,,,,,,,,,,,,,,,,,,,,,,,,,,,,,,,,,,,,,,,,,,,,,,,,,,,,,,,,,,,,
1656264723.616655,112.000000,0.000000,4238.974121,4205.128418,4096.410156,4087.179443,4207.179688,450.000000,4.000000,86.000000,,,,0.000000,4.000000,4.000000,4.000000,4.000000,4.000000,100.000000,,,,,,,,,,,,,,,,,,,,,,,,,,,,,,,,,,,,,,,,,,,,,,,,,,,,,,,,,,,,,,,
1656264723.624469,113.000000,0.000000,4212.820313,4225.128418,4084.615479,4077.435791,4208.717773,450.000000,4.000000,86.000000,,,,0.000000,4.000000,4.000000,4.000000,4.000000,4.000000,100.000000,,,,,,,,,,,,,,,,,,,,,,,,,,,,,,,,,,,,,,,,,,,,,,,,,,,,,,,,,,,,,,,
1656264723.632184,114.000000,0.000000,4215.897461,4236.922852,4072.307617,4084.102539,4221.538574,450.000000,4.000000,86.000000,,,,0.000000,4.000000,4.000000,4.000000,4.000000,4.000000,100.000000,,,,,,,,,,,,,,,,,,,,,,,,,,,,,,,,,,,,,,,,,,,,,,,,,,,,,,,,,,,,,,,
1656264723.639998,115.000000,0.000000,4252.820313,4214.871582,4100.000000,4099.487305,4224.615234,16235.000000,4.000000,86.000000,,,,0.000000,4.000000,4.000000,4.000000,4.000000,4.000000,100.000000,,,,,,,,,,,,,,,,,,,,,,,,,,,,,,,,,,,,,,,,,,,,,,,,,,,,,,,,,,,,,,,
1656264723.647713,116.000000,0.000000,4242.563965,4195.384766,4110.769043,4088.205078,4193.333496,450.000000,4.000000,86.000000,,,,0.000000,4.000000,4.000000,4.000000,4.000000,4.000000,100.000000,,,,,,,,,,,,,,,,,,,,,,,,,,,,,,,,,,,,,,,,,,,,,,,,,,,,,,,,,,,,,,,
1656264723.655527,117.000000,0.000000,4226.666504,4211.282227,4094.358887,4083.076904,4179.487305,450.000000,4.000000,86.000000,,,,0.000000,4.000000,4.000000,4.000000,4.000000,4.000000,100.000000,,,,,,,,,,,,,,,,,,,,,,,,,,,,,,,,,,,,,,,,,,,,,,,,,,,,,,,,,,,,,,,
1656264723.663241,118.000000,0.000000,4244.102539,4219.487305,4075.897461,4093.846191,4196.410156,450.000000,4.000000,86.000000,,,,0.000000,4.000000,4.000000,4.000000,4.000000,4.000000,100.000000,,,,,,,,,,,,,,,,,,,,,,,,,,,,,,,,,,,,,,,,,,,,,,,,,,,,,,,,,,,,,,,
1656264723.671056,119.000000,0.000000,4260.000000,4204.615234,4088.205078,4083.589844,4201.025879,16235.000000,4.000000,86.000000,,,,0.000000,4.000000,4.000000,4.000000,4.000000,4.000000,100.000000,,,,,,,,,,,,,,,,,,,,,,,,,,,,,,,,,,,,,,,,,,,,,,,,,,,,,,,,,,,,,,,
1656264723.678770,120.000000,0.000000,4256.922852,4202.051270,4111.794922,4072.307617,4195.384766,450.000000,4.000000,86.000000,,,,0.000000,4.000000,4.000000,4.000000,4.000000,4.000000,100.000000,,,,,,,,,,,,,,,,,,,,,,,,,,,,,,,,,,,,,,,,,,,,,,,,,,,,,,,,,,,,,,,
1656264723.686585,121.000000,0.000000,4233.846191,4207.179688,4100.000000,4070.769287,4186.666504,450.000000,4.000000,86.000000,,,,0.000000,4.000000,4.000000,4.000000,4.000000,4.000000,100.000000,,,,,,,,,,,,,,,,,,,,,,,,,,,,,,,,,,,,,,,,,,,,,,,,,,,,,,,,,,,,,,,
1656264723.694299,122.000000,0.000000,4240.512695,4223.589844,4078.461426,4076.410156,4199.487305,450.000000,4.000000,86.000000,,,,0.000000,4.000000,4.000000,4.000000,4.000000,4.000000,100.000000,,,,,,,,,,,,,,,,,,,,,,,,,,,,,,,,,,,,,,,,,,,,,,,,,,,,,,,,,,,,,,,
1656264723.702114,123.000000,0.000000,4257.948730,4226.153809,4056.410156,4084.102539,4217.948730,16235.000000,4.000000,86.000000,,,,0.000000,4.000000,4.000000,4.000000,4.000000,4.000000,100.000000,,,,,,,,,,,,,,,,,,,,,,,,,,,,,,,,,,,,,,,,,,,,,,,,,,,,,,,,,,,,,,,
1656264723.709828,124.000000,0.000000,4248.205078,4209.743652,4039.487061,4091.794922,4215.897461,450.000000,4.000000,86.000000,,,,0.000000,4.000000,4.000000,4.000000,4.000000,4.000000,100.000000,,,,,,,,,,,,,,,,,,,,,,,,,,,,,,,,,,,,,,,,,,,,,,,,,,,,,,,,,,,,,,,
1656264723.717643,125.000000,0.000000,4244.102539,4196.410156,4054.871826,4091.794922,4201.538574,450.000000,4.000000,86.000000,,,,0.000000,4.000000,4.000000,4.000000,4.000000,4.000000,100.000000,,,,,,,,,,,,,,,,,,,,,,,,,,,,,,,,,,,,,,,1.727286,2.653359,2.229048,0.935231,1.154874,2.243345,2.040149,1.912200,1.382234,1.275954,4.082294,4.510277,3.811782,1.287438,1.245841,2.844748,0.663045,3.058685,1.071104,0.762702,4.502984,4.163510,1.316020,1.655257,0.974835
1656264723.725357,126.000000,0.000000,4241.025879,4178.461426,4075.384521,4073.333252,4177.948730,450.000000,4.000000,86.000000,,,,0.000000,4.000000,4.000000,4.000000,4.000000,4.000000,100.000000,,,,,,,,,,,,,,,,,,,,,,,,,,,,,,,,,,,,,,,,,,,,,,,,,,,,,,,,,,,,,,,
1656264723.733172,127.000000,0.000000,4227.692383,4193.333496,4073.846191,4067.179443,4186.153809,241.000000,4.000000,86.000000,,,,0.000000,4.000000,4.000000,4.000000,4.000000,4.000000,100.000000,,,,,,,,,,,,,,,,,,,,,,,,,,,,,,,,,,,,,,,,,,,,,,,,,,,,,,,,,,,,,,,
1656264723.740886,0.000000,0.000000,4216.410156,4226.666504,4063.589844,4075.897461,4208.205078,450.000000,4.000000,86.000000,,,,0.000000,4.000000,4.000000,4.000000,4.000000,4.000000,100.000000,,,,,,,,,,,,,,,,,,,,,,,,,,,,,,,,,,,,,,,,,,,,,,,,,,,,,,,,,,,,,,,
1656264723.748601,1.000000,0.000000,4229.230957,4230.256348,4074.358887,4081.025635,4205.641113,450.000000,4.000000,86.000000,,,,0.000000,4.000000,4.000000,4.000000,4.000000,4.000000,100.000000,,,,,,,,,,,,,,,,,,,,,,,,,,,,,,,,,,,,,,,,,,,,,,,,,,,,,,,,,,,,,,,
1656264723.756415,2.000000,0.000000,4251.282227,4230.256348,4086.153809,4083.076904,4208.717773,16168.000000,4.000000,86.000000,,,,0.000000,4.000000,4.000000,4.000000,4.000000,4.000000,100.000000,,,,,,,,,,,,,,,,,,,,,,,,,,,,,,,,,,,,,,,,,,,,,,,,,,,,,,,,,,,,,,,
1656264723.764129,3.000000,0.000000,4249.743652,4231.794922,4077.435791,4071.281982,4213.846191,450.000000,4.000000,86.000000,,,,0.000000,4.000000,4.000000,4.000000,4.000000,4.000000,100.000000,,,,,,,,,,,,,,,,,,,,,,,,,,,,,,,,,,,,,,,,,,,,,,,,,,,,,,,,,,,,,,,
1656264723.771944,4.000000,0.000000,4247.179688,4231.794922,4089.230713,4067.692383,4217.436035,16159.000000,4.000000,86.000000,,,,0.000000,4.000000,4.000000,4.000000,4.000000,4.000000,100.000000,,,,,,,,,,,,,,,,,,,,,,,,,,,,,,,,,,,,,,,,,,,,,,,,,,,,,,,,,,,,,,,
1656264723.779658,5.000000,0.000000,4234.871582,4215.897461,4090.256348,4066.666748,4203.589844,450.000000,4.000000,86.000000,,,,0.000000,4.000000,4.000000,4.000000,4.000000,4.000000,100.000000,,,,,,,,,,,,,,,,,,,,,,,,,,,,,,,,,,,,,,,,,,,,,,,,,,,,,,,,,,,,,,,
1656264723.787473,6.000000,0.000000,4236.922852,4208.717773,4070.256348,4066.153809,4199.487305,16107.000000,4.000000,86.000000,,,,0.000000,4.000000,4.000000,4.000000,4.000000,4.000000,100.000000,,,,,,,,,,,,,,,,,,,,,,,,,,,,,,,,,,,,,,,,,,,,,,,,,,,,,,,,,,,,,,,
1656264723.795187,7.000000,0.000000,4268.717773,4237.948730,4065.641113,4079.487061,4230.256348,450.000000,4.000000,86.000000,,,,0.000000,4.000000,4.000000,4.000000,4.000000,4.000000,100.000000,,,,,,,,,,,,,,,,,,,,,,,,,,,,,,,,,,,,,,,,,,,,,,,,,,,,,,,,,,,,,,,
1656264723.803002,8.000000,0.000000,4244.615234,4227.692383,4045.641113,4056.923096,4215.384766,450.000000,4.000000,86.000000,,,,0.000000,4.000000,4.000000,4.000000,4.000000,4.000000,100.000000,,,,,,,,,,,,,,,,,,,,,,,,,,,,,,,,,,,,,,,,,,,,,,,,,,,,,,,,,,,,,,,
1656264723.810716,9.000000,0.000000,4250.769043,4235.384766,4061.538574,4078.461426,4220.000000,16107.000000,4.000000,86.000000,,,,0.000000,4.000000,4.000000,4.000000,4.000000,4.000000,100.000000,,,,,,,,,,,,,,,,,,,,,,,,,,,,,,,,,,,,,,,,,,,,,,,,,,,,,,,,,,,,,,,
1656264723.818531,10.000000,0.000000,4273.333496,4252.820313,4078.461426,4112.820313,4236.922852,450.000000,4.000000,86.000000,,,,0.000000,4.000000,4.000000,4.000000,4.000000,4.000000,100.000000,,,,,,,,,,,,,,,,,,,,,,,,,,,,,,,,,,,,,,,,,,,,,,,,,,,,,,,,,,,,,,,
1656264723.826245,11.000000,0.000000,4244.102539,4227.179688,4082.564209,4074.871826,4213.846191,16286.000000,4.000000,86.000000,,,,0.000000,4.000000,4.000000,4.000000,4.000000,4.000000,100.000000,,,,,,,,,,,,,,,,,,,,,,,,,,,,,,,,,,,,,,,,,,,,,,,,,,,,,,,,,,,,,,,
1656264723.834060,12.000000,0.000000,4290.256348,4241.538574,4125.128418,4100.000000,4242.563965,450.000000,4.000000,86.000000,,,,0.000000,4.000000,4.000000,4.000000,4.000000,4.000000,100.000000,,,,,,,,,,,,,,,,,,,,,,,,,,,,,,,,,,,,,,,,,,,,,,,,,,,,,,,,,,,,,,,
1656264723.841774,13.000000,0.000000,4277.948730,4210.256348,4078.974365,4086.153809,4220.000000,450.000000,4.000000,86.000000,,,,0.000000,4.000000,4.000000,4.000000,4.000000,4.000000,100.000000,0.972656,100.000000,4.000000,4.000000,4.000000,4.000000,4.000000,,,,,,,,,,,,,,,,,,,,,,,,,,,,,,,,1.530642,2.331407,2.030449,0.893652,1.183211,2.647297,2.550614,2.022180,1.268212,1.267287,3.522711,3.291919,3.790265,1.404330,1.177690,2.702626,0.621453,3.134813,1.066168,0.776593,3.871745,4.112653,0.918917,1.624700,0.962708
1656264723.849588,14.000000,0.000000,4234.871582,4206.666504,4067.692383,4063.589844,4191.282227,450.000000,4.000000,86.000000,,,,0.000000,4.000000,4.000000,4.000000,4.000000,4.000000,100.000000,,,,,,,,,,,,,,,,,,,,,,,,,,,,,,,,,,,,,,,,,,,,,,,,,,,,,,,,,,,,,,,
1656264723.857303,15.000000,0.000000,4260.512695,4248.717773,4100.000000,4100.512695,4204.102539,16286.000000,4.000000,86.000000,,,,0.000000,4.000000,4.000000,4.000000,4.000000,4.000000,100.000000,,,,,,,,,,,,,,,,,,,,,,,,,,,,,,,,,,,,,,,,,,,,,,,,,,,,,,,,,,,,,,,
1656264723.865117,16.000000,0.000000,4243.077148,4220.000000,4073.846191,4065.641113,4174.871582,0.000000,4.000000,86.000000,,,,0.000000,4.000000,4.000000,4.000000,4.000000,4.000000,100.000000,,,,,,,,,,,,,,,,,,,,,,,,,,,,,,,,,,,,,,,,,,,,,,,,,,,,,,,,,,,,,,,
1656264723.872832,17.000000,0.000000,4251.794922,4259.487305,4109.743652,4078.461426,4209.743652,0.000000,4.000000,86.000000,,,,0.000000,4.000000,4.000000,4.000000,4.000000,4.000000,100.000000,,,,,,,,,,,,,,,,,,,,,,,,,,,,,,,,,,,,,,,,,,,,,,,,,,,,,,,,,,,,,,,
1656264723.880546,18.000000,0.000000,4218.974121,4254.358887,4085.641113,4070.256348,4198.461426,0.000000,4.000000,86.000000,,,,0.000000,4.000000,4.000000,4.000000,4.000000,4.000000,100.000000,,,,,,,,,,,,,,,,,,,,,,,,,,,,,,,,,,,,,,,,,,,,,,,,,,,,,,,,,,,,,,,
1656264723.888361,19.000000,0.000000,4216.410156,4209.230957,4064.615479,4059.487061,4185.641113,0.000000,4.000000,86.000000,,,,0.000000,4.000000,4.000000,4.000000,4.000000,4.000000,100.000000,,,,,,,,,,,,,,,,,,,,,,,,,,,,,,,,,,,,,,,,,,,,,,,,,,,,,,,,,,,,,,,
1656264723.896175,20.000000,0.000000,4278.461426,4242.563965,4110.256348,4109.743652,4232.820313,0.000000,4.000000,86.000000,,,,0.000000,4.000000,4.000000,4.000000,4.000000,4.000000,100.000000,,,,,,,,,,,,,,,,,,,,,,,,,,,,,,,,,,,,,,,,,,,,,,,,,,,,,,,,,,,,,,,
1656264723.903890,21.000000,0.000000,4227.692383,4233.846191,4100.512695,4065.641113,4188.717773,0.000000,4.000000,86.000000,,,,0.000000,4.000000,4.000000,4.000000,4.000000,4.000000,100.000000,,,,,,,,,,,,,,,,,,,,,,,,,,,,,,,,,,,,,,,,,,,,,,,,,,,,,,,,,,,,,,,
1656264723.911604,22.000000,0.000000,4240.512695,4242.051270,4114.871582,4073.333252,4194.358887,0.000000,4.000000,86.000000,,,,0.000000,4.000000,4.000000,4.000000,4.000000,4.000000,100.000000,,,,,,,,,,,,,,,,,,,,,,,,,,,,,,,,,,,,,,,,,,,,,,,,,,,,,,,,,,,,,,,
1656264723.919419,23.000000,0.000000,4281.538574,4221.025879,4093.333252,4102.563965,4212.307617,0.000000,4.000000,86.000000,,,,0.000000,4.000000,4.000000,4.000000,4.000000,4.000000,100.000000,,,,,,,,,,,,,,,,,,,,,,,,,,,,,,,,,,,,,,,,,,,,,,,,,,,,,,,,,,,,,,,
1656264723.927133,24.000000,0.000000,4254.871582,4188.205078,4077.948730,4073.333252,4193.333496,0.000000,4.000000,86.000000,,,,0.000000,4.000000,4.000000,4.000000,4.000000,4.000000,100.000000,,,,,,,,,,,,,,,,,,,,,,,,,,,,,,,,,,,,,,,,,,,,,,,,,,,,,,,,,,,,,,,
1656264723.934948,25.000000,0.000000,4266.153809,4217.948730,4114.358887,4085.128174,4217.436035,0.000000,4.000000,86.000000,,,,0.000000,4.000000,4.000000,4.000000,4.000000,4.000000,100.000000,,,,,,,,,,,,,,,,,,,,,,,,,,,,,,,,,,,,,,,,,,,,,,,,,,,,,,,,,,,,,,,
1656264723.942662,26.000000,0.000000,4254.871582,4187.179688,4093.846191,4063.589844,4194.358887,0.000000,4.000000,86.000000,,,,0.000000,4.000000,4.000000,4.000000,4.000000,4.000000,100.000000,,,,,,,,,,,,,,,,,,,,,,,,,,,,,,,,,,,,,,,,,,,,,,,,,,,,,,,,,,,,,,,
1656264723.950476,27.000000,0.000000,4264.615234,4197.948730,4092.820557,4069.743652,4206.153809,0.000000,4.000000,86.000000,,,,0.000000,4.000000,4.000000,4.000000,4.000000,4.000000,100.000000,,,,,,,,,,,,,,,,,,,,,,,,,,,,,,,,,,,,,,,,,,,,,,,,,,,,,,,,,,,,,,,
1656264723.958191,28.000000,0.000000,4274.871582,4235.384766,4068.205078,4100.000000,4233.846191,0.000000,4.000000,86.000000,,,,0.000000,4.000000,4.000000,4.000000,4.000000,4.000000,100.000000,,,,,,,,,,,,,,,,,,,,,,,,,,,,,,,,,,,,,,,,,,,,,,,,,,,,,,,,,,,,,,,
1656264723.966005,29.000000,0.000000,4260.000000,4216.922852,4040.000000,4084.615479,4209.743652,0.000000,4.000000,86.000000,,,,0.000000,4.000000,4.000000,4.000000,4.000000,4.000000,100.000000,,,,,,,,,,,,,,,,,,,,,,,,,,,,,,,,,,,,,,,1.484269,1.929537,1.866482,0.835575,1.173250,2.871717,2.996538,2.127115,1.122258,1.238846,3.505150,2.339099,3.522111,1.452458,1.123732,2.814541,0.632520,3.164037,0.991363,0.778630,3.602269,4.066010,0.706819,1.520941,0.931477
1656264723.973720,30.000000,0.000000,4283.589844,4242.051270,4076.923096,4091.794922,4227.179688,0.000000,4.000000,86.000000,,,,0.000000,4.000000,4.000000,4.000000,4.000000,4.000000,100.000000,,,,,,,,,,,,,,,,,,,,,,,,,,,,,,,,,,,,,,,,,,,,,,,,,,,,,,,,,,,,,,,
1656264723.981534,31.000000,0.000000,4251.794922,4241.538574,4065.641113,4073.333252,4223.077148,0.000000,4.000000,86.000000,,,,0.000000,4.000000,4.000000,4.000000,4.000000,4.000000,100.000000,,,,,,,,,,,,,,,,,,,,,,,,,,,,,,,,,,,,,,,,,,,,,,,,,,,,,,,,,,,,,,,
1656264723.989249,32.000000,0.000000,4236.922852,4230.769043,4052.820557,4077.948730,4213.846191,0.000000,4.000000,86.000000,,,,0.000000,4.000000,4.000000,4.000000,4.000000,4.000000,100.000000,,,,,,,,,,,,,,,,,,,,,,,,,,,,,,,,,,,,,,,,,,,,,,,,,,,,,,,,,,,,,,,
1656264723.997063,33.000000,0.000000,4262.563965,4235.384766,4051.794922,4111.282227,4229.743652,0.000000,4.000000,86.000000,,,,0.000000,4.000000,4.000000,4.000000,4.000000,4.000000,100.000000,,,,,,,,,,,,,,,,,,,,,,,,,,,,,,,,,,,,,,,,,,,,,,,,,,,,,,,,,,,,,,,
1656264724.004778,34.000000,0.000000,4250.256348,4223.589844,4043.076904,4102.563965,4226.153809,0.000000,4.000000,86.000000,,,,0.000000,4.000000,4.000000,4.000000,4.000000,4.000000,100.000000,,,,,,,,,,,,,,,,,,,,,,,,,,,,,,,,,,,,,,,,,,,,,,,,,,,,,,,,,,,,,,,
1656264724.012592,35.000000,0.000000,4264.102539,4239.487305,4081.538574,4102.051270,4219.487305,0.000000,4.000000,86.000000,,,,0.000000,4.000000,4.000000,4.000000,4.000000,4.000000,100.000000,,,,,,,,,,,,,,,,,,,,,,,,,,,,,,,,,,,,,,,,,,,,,,,,,,,,,,,,,,,,,,,
1656264724.020307,36.000000,0.000000,4264.615234,4218.461426,4100.512695,4074.358887,4178.461426,0.000000,4.000000,86.000000,,,,0.000000,4.000000,4.000000,4.000000,4.000000,4.000000,100.000000,,,,,,,,,,,,,,,,,,,,,,,,,,,,,,,,,,,,,,,,,,,,,,,,,,,,,,,,,,,,,,,
1656264724.028021,37.000000,0.000000,4265.128418,4220.000000,4096.922852,4069.230713,4188.205078,0.000000,4.000000,86.000000,,,,0.000000,4.000000,4.000000,4.000000,4.000000,4.000000,100.000000,,,,,,,,,,,,,,,,,,,,,,,,,,,,,,,,,,,,,,,,,,,,,,,,,,,,,,,,,,,,,,,
1656264724.035836,38.000000,0.000000,4270.256348,4253.846191,4065.128174,4103.589844,4235.384766,0.000000,4.000000,86.000000,,,,0.000000,4.000000,4.000000,4.000000,4.000000,4.000000,100.000000,,,,,,,,,,,,,,,,,,,,,,,,,,,,,,,,,,,,,,,,,,,,,,,,,,,,,,,,,,,,,,,
1656264724.043550,39.000000,0.000000,4240.512695,4220.000000,4022.564209,4092.820557,4216.922852,0.000000,4.000000,86.000000,,,,0.000000,4.000000,4.000000,4.000000,4.000000,4.000000,100.000000,,,,,,,,,,,,,,,,,,,,,,,,,,,,,,,,,,,,,,,,,,,,,,,,,,,,,,,,,,,,,,,
1656264724.051364,40.000000,0.000000,4262.563965,4207.179688,4036.410156,4092.820557,4219.487305,0.000000,4.000000,86.000000,,,,0.000000,4.000000,4.000000,4.000000,4.000000,4.000000,100.000000,,,,,,,,,,,,,,,,,,,,,,,,,,,,,,,,,,,,,,,,,,,,,,,,,,,,,,,,,,,,,,,
1656264724.059179,41.000000,0.000000,4270.769043,4222.051270,4020.512939,4093.846191,4227.179688,0.000000,4.000000,86.000000,,,,0.000000,4.000000,4.000000,4.000000,4.000000,4.000000,100.000000,,,,,,,,,,,,,,,,,,,,,,,,,,,,,,,,,,,,,,,,,,,,,,,,,,,,,,,,,,,,,,,
1656264724.066893,42.000000,0.000000,4250.256348,4228.205078,4018.974365,4090.256348,4217.436035,0.000000,4.000000,86.000000,,,,0.000000,4.000000,4.000000,4.000000,4.000000,4.000000,100.000000,,,,,,,,,,,,,,,,,,,,,,,,,,,,,,,,,,,,,,,,,,,,,,,,,,,,,,,,,,,,,,,
1656264724.074708,43.000000,0.000000,4269.743652,4225.128418,4069.743652,4094.358887,4219.487305,0.000000,4.000000,86.000000,,,,0.000000,4.000000,4.000000,4.000000,4.000000,4.000000,100.000000,,,,,,,,,,,,,,,,,,,,,,,,,,,,,,,,,,,,,,,,,,,,,,,,,,,,,,,,,,,,,,,
1656264724.082422,44.000000,0.000000,4267.692383,4208.205078,4066.153809,4073.846191,4207.692383,0.000000,4.000000,86.000000,,,,0.000000,4.000000,4.000000,4.000000,4.000000,4.000000,100.000000,,,,,,,,,,,,,,,,,,,,,,,,,,,,,,,,,,,,,,,,,,,,,,,,,,,,,,,,,,,,,,,
1656264724.090137,45.000000,0.000000,4271.794922,4232.307617,4058.461426,4091.281982,4220.000000,0.000000,4.000000,86.000000,,,,0.000000,4.000000,4.000000,4.000000,4.000000,4.000000,100.000000,,,,,,,,,,,,,,,,,,,,,,,,,,,,,,,,,,,,,,,1.652879,1.534794,1.741310,0.786738,1.136847,2.841065,3.240189,2.220135,0.987133,1.187607,4.003578,1.834496,3.069313,1.430848,1.088842,3.026498,0.672947,3.048337,0.886778,0.762862,3.701348,4.004095,0.640156,1.372588,0.883665
1656264724.097951,46.000000,0.000000,4282.051270,4238.461426,4061.025635,4116.922852,4222.051270,0.000000,4.000000,86.000000,,,,0.000000,4.000000,4.000000,4.000000,4.000000,4.000000,100.000000,,,,,,,,,,,,,,,,,,,,,,,,,,,,,,,,,,,,,,,,,,,,,,,,,,,,,,,,,,,,,,,
1656264724.105666,47.000000,0.000000,4263.589844,4204.615234,4046.666748,4097.436035,4209.743652,0.000000,4.000000,86.000000,,,,0.000000,4.000000,4.000000,4.000000,4.000000,4.000000,100.000000,,,,,,,,,,,,,,,,,,,,,,,,,,,,,,,,,,,,,,,,,,,,,,,,,,,,,,,,,,,,,,,
1656264724.113480,48.000000,0.000000,4265.128418,4228.717773,4061.025635,4091.794922,4241.538574,0.000000,4.000000,86.000000,,,,0.000000,4.000000,4.000000,4.000000,4.000000,4.000000,100.000000,,,,,,,,,,,,,,,,,,,,,,,,,,,,,,,,,,,,,,,,,,,,,,,,,,,,,,,,,,,,,,,
1656264724.121195,49.000000,0.000000,4255.897461,4250.256348,4063.589844,4079.487061,4234.358887,0.000000,4.000000,86.000000,,,,0.000000,4.000000,4.000000,4.000000,4.000000,4.000000,100.000000,,,,,,,,,,,,,,,,,,,,,,,,,,,,,,,,,,,,,,,,,,,,,,,,,,,,,,,,,,,,,,,
1656264724.129009,50.000000,0.000000,4227.179688,4225.641113,4042.051270,4055.897461,4201.025879,0.000000,4.000000,86.000000,,,,0.000000,4.000000,4.000000,4.000000,4.000000,4.000000,100.000000,,,,,,,,,,,,,,,,,,,,,,,,,,,,,,,,,,,,,,,,,,,,,,,,,,,,,,,,,,,,,,,
1656264724.136724,51.000000,0.000000,4265.641113,4274.871582,4078.974365,4107.692383,4257.948730,0.000000,4.000000,86.000000,,,,0.000000,4.000000,4.000000,4.000000,4.000000,4.000000,100.000000,,,,,,,,,,,,,,,,,,,,,,,,,,,,,,,,,,,,,,,,,,,,,,,,,,,,,,,,,,,,,,,
1656264724.144538,52.000000,0.000000,4229.743652,4251.282227,4051.281982,4075.897461,4221.538574,0.000000,4.000000,86.000000,,,,0.000000,4.000000,4.000000,4.000000,4.000000,4.000000,100.000000,,,,,,,,,,,,,,,,,,,,,,,,,,,,,,,,,,,,,,,,,,,,,,,,,,,,,,,,,,,,,,,
1656264724.152252,53.000000,0.000000,4171.282227,4175.384766,4028.205078,3998.461426,4155.384766,0.000000,4.000000,86.000000,,,,0.000000,4.000000,4.000000,4.000000,4.000000,4.000000,100.000000,,,,,,,,,,,,,,,,,,,,,,,,,,,,,,,,,,,,,,,,,,,,,,,,,,,,,,,,,,,,,,,
1656264724.160067,54.000000,0.000000,4368.205078,4342.051270,4168.717773,4192.307617,4349.743652,0.000000,4.000000,86.000000,,,,0.000000,4.000000,4.000000,4.000000,4.000000,4.000000,100.000000,,,,,,,,,,,,,,,,,,,,,,,,,,,,,,,,,,,,,,,,,,,,,,,,,,,,,,,,,,,,,,,
1656264724.167781,55.000000,0.000000,4329.743652,4285.641113,4062.051270,4176.922852,4304.102539,0.000000,4.000000,86.000000,,,,0.000000,4.000000,4.000000,4.000000,4.000000,4.000000,100.000000,,,,,,,,,,,,,,,,,,,,,,,,,,,,,,,,,,,,,,,,,,,,,,,,,,,,,,,,,,,,,,,
1656264724.175496,56.000000,0.000000,4137.948730,4092.307617,3956.923096,3977.435791,4104.102539,0.000000,4.000000,86.000000,,,,0.000000,4.000000,4.000000,4.000000,4.000000,4.000000,100.000000,,,,,,,,,,,,,,,,,,,,,,,,,,,,,,,,,,,,,,,,,,,,,,,,,,,,,,,,,,,,,,,
1656264724.183310,57.000000,0.000000,4270.769043,4248.717773,4134.871582,4098.974121,4238.461426,0.000000,4.000000,86.000000,,,,0.000000,4.000000,4.000000,4.000000,4.000000,4.000000,100.000000,,,,,,,,,,,,,,,,,,,,,,,,,,,,,,,,,,,,,,,,,,,,,,,,,,,,,,,,,,,,,,,
1656264724.191025,58.000000,0.000000,4277.948730,4265.641113,4104.102539,4120.000000,4258.974121,0.000000,4.000000,86.000000,,,,0.000000,4.000000,4.000000,4.000000,4.000000,4.000000,100.000000,,,,,,,,,,,,,,,,,,,,,,,,,,,,,,,,,,,,,,,,,,,,,,,,,,,,,,,,,,,,,,,
1656264724.198839,59.000000,0.000000,4222.563965,4173.846191,4044.102539,4061.025635,4191.282227,0.000000,4.000000,86.000000,,,,0.000000,4.000000,4.000000,4.000000,4.000000,4.000000,100.000000,,,,,,,,,,,,,,,,,,,,,,,,,,,,,,,,,,,,,,,,,,,,,,,,,,,,,,,,,,,,,,,
1656264724.206554,60.000000,0.000000,4288.717773,4229.230957,4099.487305,4123.589844,4244.615234,0.000000,4.000000,86.000000,,,,0.000000,4.000000,4.000000,4.000000,4.000000,4.000000,100.000000,,,,,,,,,,,,,,,,,,,,,,,,,,,,,,,,,,,,,,,,,,,,,,,,,,,,,,,,,,,,,,,
1656264724.214368,61.000000,0.000000,4264.615234,4229.743652,4078.974365,4103.077148,4237.948730,0.000000,4.000000,86.000000,,,,0.000000,4.000000,4.000000,4.000000,4.000000,4.000000,100.000000,,,,,,,,,,,,,,,,,,,,,,,,,,,,,,,,,,,,,,,2.028905,1.247855,1.654021,0.760961,1.099954,2.569005,3.242655,2.303026,0.914331,1.118431,4.807787,1.835081,2.557644,1.385575,1.077212,3.104142,0.735051,2.737011,0.797864,0.736563,3.996665,3.872390,0.679882,1.222713,0.830487
1656264724.222083,62.000000,0.000000,4261.538574,4210.256348,4078.461426,4081.025635,4222.051270,0.000000,4.000000,86.000000,,,,0.000000,4.000000,4.000000,4.000000,4.000000,4.000000,100.000000,,,,,,,,,,,,,,,,,,,,,,,,,,,,,,,,,,,,,,,,,,,,,,,,,,,,,,,,,,,,,,,
1656264724.229897,63.000000,0.000000,4278.974121,4214.871582,4095.897461,4086.666748,4221.538574,0.000000,4.000000,86.000000,,,,0.000000,4.000000,4.000000,4.000000,4.000000,4.000000,100.000000,,,,,,,,,,,,,,,,,,,,,,,,,,,,,,,,,,,,,,,,,,,,,,,,,,,,,,,,,,,,,,,
1656264724.237612,64.000000,0.000000,4257.436035,4245.128418,4082.564209,4079.487061,4236.410156,450.000000,4.000000,86.000000,,,,0.000000,4.000000,4.000000,4.000000,4.000000,4.000000,100.000000,,,,,,,,,,,,,,,,,,,,,,,,,,,,,,,,,,,,,,,,,,,,,,,,,,,,,,,,,,,,,,,
1656264724.245326,65.000000,0.000000,4250.769043,4268.717773,4062.564209,4079.487061,4246.666504,450.000000,4.000000,86.000000,,,,0.000000,4.000000,4.000000,4.000000,4.000000,4.000000,100.000000,,,,,,,,,,,,,,,,,,,,,,,,,,,,,,,,,,,,,,,,,,,,,,,,,,,,,,,,,,,,,,,
1656264724.253041,66.000000,0.000000,4282.563965,4242.051270,4088.718018,4097.436035,4227.179688,16166.000000,4.000000,86.000000,,,,0.000000,4.000000,4.000000,4.000000,4.000000,4.000000,100.000000,,,,,,,,,,,,,,,,,,,,,,,,,,,,,,,,,,,,,,,,,,,,,,,,,,,,,,,,,,,,,,,
1656264724.260855,67.000000,0.000000,4288.717773,4201.538574,4106.666504,4096.922852,4215.897461,450.000000,4.000000,86.000000,,,,0.000000,4.000000,4.000000,4.000000,4.000000,4.000000,100.000000,,,,,,,,,,,,,,,,,,,,,,,,,,,,,,,,,,,,,,,,,,,,,,,,,,,,,,,,,,,,,,,
1656264724.268570,68.000000,0.000000,4272.820313,4221.025879,4104.102539,4093.846191,4227.179688,16170.000000,4.000000,86.000000,,,,0.000000,4.000000,4.000000,4.000000,4.000000,4.000000,100.000000,,,,,,,,,,,,,,,,,,,,,,,,,,,,,,,,,,,,,,,,,,,,,,,,,,,,,,,,,,,,,,,
1656264724.276384,69.000000,0.000000,4271.794922,4246.153809,4118.974121,4095.897461,4222.563965,450.000000,4.000000,86.000000,,,,0.000000,4.000000,4.000000,4.000000,4.000000,4.000000,100.000000,,,,,,,,,,,,,,,,,,,,,,,,,,,,,,,,,,,,,,,,,,,,,,,,,,,,,,,,,,,,,,,
1656264724.284098,70.000000,0.000000,4277.948730,4222.563965,4128.205078,4091.281982,4210.256348,16164.000000,4.000000,86.000000,,,,0.000000,4.000000,4.000000,4.000000,4.000000,4.000000,100.000000,,,,,,,,,,,,,,,,,,,,,,,,,,,,,,,,,,,,,,,,,,,,,,,,,,,,,,,,,,,,,,,
1656264724.291913,71.000000,0.000000,4282.563965,4223.589844,4123.077148,4087.179443,4222.051270,450.000000,4.000000,86.000000,,,,0.000000,4.000000,4.000000,4.000000,4.000000,4.000000,100.000000,,,,,,,,,,,,,,,,,,,,,,,,,,,,,,,,,,,,,,,,,,,,,,,,,,,,,,,,,,,,,,,
1656264724.299627,72.000000,0.000000,4258.461426,4244.615234,4109.743652,4062.564209,4226.153809,450.000000,4.000000,86.000000,,,,0.000000,4.000000,4.000000,4.000000,4.000000,4.000000,100.000000,,,,,,,,,,,,,,,,,,,,,,,,,,,,,,,,,,,,,,,,,,,,,,,,,,,,,,,,,,,,,,,
1656264724.307442,73.000000,0.000000,4249.230957,4256.922852,4115.897461,4069.743652,4227.692383,16191.000000,4.000000,86.000000,,,,0.000000,4.000000,4.000000,4.000000,4.000000,4.000000,100.000000,,,,,,,,,,,,,,,,,,,,,,,,,,,,,,,,,,,,,,,,,,,,,,,,,,,,,,,,,,,,,,,
1656264724.315156,74.000000,0.000000,4267.692383,4236.410156,4116.922852,4098.974121,4223.589844,450.000000,4.000000,86.000000,,,,0.000000,4.000000,4.000000,4.000000,4.000000,4.000000,100.000000,,,,,,,,,,,,,,,,,,,,,,,,,,,,,,,,,,,,,,,,,,,,,,,,,,,,,,,,,,,,,,,
1656264724.322971,75.000000,0.000000,4274.358887,4207.179688,4107.179688,4100.000000,4214.358887,16248.000000,4.000000,86.000000,,,,0.000000,4.000000,4.000000,4.000000,4.000000,4.000000,100.000000,,,,,,,,,,,,,,,,,,,,,,,,,,,,,,,,,,,,,,,,,,,,,,,,,,,,,,,,,,,,,,,
1656264724.330685,76.000000,0.000000,4271.282227,4238.461426,4113.333496,4102.563965,4222.563965,450.000000,4.000000,86.000000,,,,0.000000,4.000000,4.000000,4.000000,4.000000,4.000000,100.000000,,,,,,,,,,,,,,,,,,,,,,,,,,,,,,,,,,,,,,,,,,,,,,,,,,,,,,,,,,,,,,,
1656264724.338500,77.000000,0.000000,4254.871582,4267.179688,4114.871582,4093.333252,4217.436035,450.000000,4.000000,86.000000,,,,0.000000,4.000000,4.000000,4.000000,4.000000,4.000000,100.000000,0.972656,75.000000,3.000000,3.000000,3.000000,3.000000,3.000000,,,,,,,,,,,,,,,,,,,,,,,,,,,,,,,,2.570670,1.140874,1.623573,0.761324,1.120776,2.202284,3.087950,2.384463,0.936785,1.083147,5.475729,2.297540,2.187213,1.396478,1.114908,2.898797,0.825947,2.280577,0.768079,0.753498,4.290237,3.647150,0.797776,1.118081,0.827001
1656264724.346214,78.000000,0.000000,4258.461426,4251.282227,4113.333496,4086.666748,4213.846191,450.000000,4.000000,86.000000,,,,0.000000,4.000000,4.000000,4.000000,4.000000,4.000000,100.000000,,,,,,,,,,,,,,,,,,,,,,,,,,,,,,,,,,,,,,,,,,,,,,,,,,,,,,,,,,,,,,,
1656264724.354029,79.000000,0.000000,4275.897461,4240.512695,4096.410156,4104.615234,4229.230957,16248.000000,4.000000,86.000000,,,,0.000000,4.000000,4.000000,4.000000,4.000000,4.000000,100.000000,,,,,,,,,,,,,,,,,,,,,,,,,,,,,,,,,,,,,,,,,,,,,,,,,,,,,,,,,,,,,,,
1656264724.361743,80.000000,0.000000,4273.846191,4246.153809,4081.025635,4113.846191,4231.282227,450.000000,4.000000,86.000000,,,,0.000000,4.000000,4.000000,4.000000,4.000000,4.000000,100.000000,,,,,,,,,,,,,,,,,,,,,,,,,,,,,,,,,,,,,,,,,,,,,,,,,,,,,,,,,,,,,,,
