title:david_g_Right, start timestamp:1656265742.796196, stop timestamp:1656265747.830083, headset type:INSIGHT, headset serial:A2D201AE, headset firmware:932, channels:84, sampling rate:eeg_128;pm_0.1;pow_8, samples:641       , version:2.1, 
Timestamp,EEG.Counter,EEG.Interpolated,EEG.AF3,EEG.T7,EEG.Pz,EEG.T8,EEG.AF4,EEG.RawCq,EEG.Battery,EEG.BatteryPercent,MarkerIndex,MarkerType,MarkerValueInt,EEG.MarkerHardware,CQ.AF3,CQ.T7,CQ.Pz,CQ.T8,CQ.AF4,CQ.Overall,EQ.SampleRateQuality,EQ.OVERALL,EQ.AF3,EQ.T7,EQ.Pz,EQ.T8,EQ.AF4,PM.Engagement.IsActive,PM.Engagement.Scaled,PM.Engagement.Raw,PM.Engagement.Min,PM.Engagement.Max,PM.Excitement.IsActive,PM.Excitement.Scaled,PM.Excitement.Raw,PM.Excitement.Min,PM.Excitement.Max,PM.LongTermExcitement,PM.Stress.IsActive,PM.Stress.Scaled,PM.Stress.Raw,PM.Stress.Min,PM.Stress.Max,PM.Relaxation.IsActive,PM.Relaxation.Scaled,PM.Relaxation.Raw,PM.Relaxation.Min,PM.Relaxation.Max,PM.Interest.IsActive,PM.Interest.Scaled,PM.Interest.Raw,PM.Interest.Min,PM.Interest.Max,PM.Focus.IsActive,PM.Focus.Scaled,PM.Focus.Raw,PM.Focus.Min,PM.Focus.Max,POW.AF3.Theta,POW.AF3.Alpha,POW.AF3.BetaL,POW.AF3.BetaH,POW.AF3.Gamma,POW.T7.Theta,POW.T7.Alpha,POW.T7.BetaL,POW.T7.BetaH,POW.T7.Gamma,POW.Pz.Theta,POW.Pz.Alpha,POW.Pz.BetaL,POW.Pz.BetaH,POW.Pz.Gamma,POW.T8.Theta,POW.T8.Alpha,POW.T8.BetaL,POW.T8.BetaH,POW.T8.Gamma,POW.AF4.Theta,POW.AF4.Alpha,POW.AF4.BetaL,POW.AF4.BetaH,POW.AF4.Gamma
1656265742.796196,22.000000,0.000000,4609.230957,4628.717773,4435.897461,4432.307617,4573.846191,0.000000,4.000000,95.000000,,,,0.000000,4.000000,4.000000,4.000000,4.000000,4.000000,100.000000,,,,,,,,,,,,,,,,,,,,,,,,,,,,,,,,,,,,,,,,,,,,,,,,,,,,,,,,,,,,,,,
1656265742.804111,23.000000,0.000000,4581.538574,4608.205078,4463.589844,4368.205078,4498.974121,0.000000,4.000000,95.000000,,,,0.000000,4.000000,4.000000,4.000000,4.000000,4.000000,100.000000,,,,,,,,,,,,,,,,,,,,,,,,,,,,,,,,,,,,,,,,,,,,,,,,,,,,,,,,,,,,,,,
1656265742.812025,24.000000,0.000000,4542.563965,4550.256348,4433.846191,4321.025879,4460.000000,0.000000,4.000000,95.000000,,,,0.000000,4.000000,4.000000,4.000000,4.000000,4.000000,100.000000,,,,,,,,,,,,,,,,,,,,,,,,,,,,,,,,,,,,,,,,,,,,,,,,,,,,,,,,,,,,,,,
1656265742.819839,25.000000,0.000000,4571.794922,4561.025879,4439.487305,4363.589844,4514.871582,0.000000,4.000000,95.000000,,,,0.000000,4.000000,4.000000,4.000000,4.000000,4.000000,100.000000,1.000000,75.000000,3.000000,3.000000,3.000000,3.000000,3.000000,,,,,,,,,,,,,,,,,,,,,,,,,,,,,,,,19.309771,3.823179,2.578928,11.610537,6.362849,6.139442,3.030116,4.356886,7.074446,5.010846,10.717864,7.799915,1.956426,3.137193,3.138232,1.356415,1.940380,1.039060,3.994887,3.099846,18.386898,5.444689,3.152305,5.511887,3.461782
1656265742.827754,26.000000,0.000000,4608.717773,4626.666504,4473.846191,4415.384766,4560.512695,0.000000,4.000000,95.000000,,,,0.000000,4.000000,4.000000,4.000000,4.000000,4.000000,100.000000,,,,,,,,,,,,,,,,,,,,,,,,,,,,,,,,,,,,,,,,,,,,,,,,,,,,,,,,,,,,,,,
1656265742.835568,27.000000,0.000000,4587.692383,4634.358887,4453.333496,4401.538574,4533.333496,0.000000,4.000000,95.000000,,,,0.000000,4.000000,4.000000,4.000000,4.000000,4.000000,100.000000,,,,,,,,,,,,,,,,,,,,,,,,,,,,,,,,,,,,,,,,,,,,,,,,,,,,,,,,,,,,,,,
1656265742.843382,28.000000,0.000000,4551.794922,4590.769043,4409.743652,4360.000000,4490.769043,0.000000,4.000000,95.000000,,,,0.000000,4.000000,4.000000,4.000000,4.000000,4.000000,100.000000,,,,,,,,,,,,,,,,,,,,,,,,,,,,,,,,,,,,,,,,,,,,,,,,,,,,,,,,,,,,,,,
1656265742.851297,29.000000,0.000000,4514.358887,4552.820313,4390.256348,4330.769043,4463.589844,0.000000,4.000000,95.000000,,,,0.000000,4.000000,4.000000,4.000000,4.000000,4.000000,100.000000,,,,,,,,,,,,,,,,,,,,,,,,,,,,,,,,,,,,,,,,,,,,,,,,,,,,,,,,,,,,,,,
1656265742.859211,30.000000,0.000000,4542.563965,4583.077148,4426.666504,4353.333496,4475.384766,0.000000,4.000000,95.000000,,,,0.000000,4.000000,4.000000,4.000000,4.000000,4.000000,100.000000,,,,,,,,,,,,,,,,,,,,,,,,,,,,,,,,,,,,,,,,,,,,,,,,,,,,,,,,,,,,,,,
1656265742.867025,31.000000,0.000000,4603.589844,4636.410156,4458.974121,4373.333496,4500.512695,0.000000,4.000000,95.000000,,,,0.000000,4.000000,4.000000,4.000000,4.000000,4.000000,100.000000,,,,,,,,,,,,,,,,,,,,,,,,,,,,,,,,,,,,,,,,,,,,,,,,,,,,,,,,,,,,,,,
1656265742.874940,32.000000,0.000000,4603.077148,4628.205078,4440.000000,4364.615234,4524.615234,0.000000,4.000000,95.000000,,,,0.000000,4.000000,4.000000,4.000000,4.000000,4.000000,100.000000,,,,,,,,,,,,,,,,,,,,,,,,,,,,,,,,,,,,,,,,,,,,,,,,,,,,,,,,,,,,,,,
1656265742.882754,33.000000,0.000000,4578.974121,4591.282227,4429.230957,4384.102539,4526.153809,0.000000,4.000000,95.000000,,,,0.000000,4.000000,4.000000,4.000000,4.000000,4.000000,100.000000,,,,,,,,,,,,,,,,,,,,,,,,,,,,,,,,,,,,,,,,,,,,,,,,,,,,,,,,,,,,,,,
1656265742.890668,34.000000,0.000000,4549.230957,4570.769043,4421.025879,4387.692383,4471.282227,0.000000,4.000000,95.000000,,,,0.000000,4.000000,4.000000,4.000000,4.000000,4.000000,100.000000,,,,,,,,,,,,,,,,,,,,,,,,,,,,,,,,,,,,,,,,,,,,,,,,,,,,,,,,,,,,,,,
1656265742.898583,35.000000,0.000000,4550.256348,4592.820313,4430.256348,4385.641113,4469.743652,0.000000,4.000000,95.000000,,,,0.000000,4.000000,4.000000,4.000000,4.000000,4.000000,100.000000,,,,,,,,,,,,,,,,,,,,,,,,,,,,,,,,,,,,,,,,,,,,,,,,,,,,,,,,,,,,,,,
1656265742.906397,36.000000,0.000000,4587.692383,4611.282227,4470.256348,4418.974121,4529.230957,0.000000,4.000000,95.000000,,,,0.000000,4.000000,4.000000,4.000000,4.000000,4.000000,100.000000,,,,,,,,,,,,,,,,,,,,,,,,,,,,,,,,,,,,,,,,,,,,,,,,,,,,,,,,,,,,,,,
1656265742.914212,37.000000,0.000000,4597.948730,4610.769043,4496.922852,4431.794922,4541.025879,0.000000,4.000000,95.000000,,,,0.000000,4.000000,4.000000,4.000000,4.000000,4.000000,100.000000,,,,,,,,,,,,,,,,,,,,,,,,,,,,,,,,,,,,,,,,,,,,,,,,,,,,,,,,,,,,,,,
1656265742.922126,38.000000,0.000000,4595.897461,4618.461426,4484.102539,4408.717773,4513.846191,0.000000,4.000000,95.000000,,,,0.000000,4.000000,4.000000,4.000000,4.000000,4.000000,100.000000,,,,,,,,,,,,,,,,,,,,,,,,,,,,,,,,,,,,,,,,,,,,,,,,,,,,,,,,,,,,,,,
1656265742.929940,39.000000,0.000000,4601.025879,4600.000000,4443.589844,4378.974121,4494.871582,0.000000,4.000000,95.000000,,,,0.000000,4.000000,4.000000,4.000000,4.000000,4.000000,100.000000,,,,,,,,,,,,,,,,,,,,,,,,,,,,,,,,,,,,,,,,,,,,,,,,,,,,,,,,,,,,,,,
1656265742.937855,40.000000,0.000000,4621.025879,4601.025879,4439.487305,4381.538574,4531.794922,0.000000,4.000000,95.000000,,,,0.000000,4.000000,4.000000,4.000000,4.000000,4.000000,100.000000,,,,,,,,,,,,,,,,,,,,,,,,,,,,,,,,,,,,,,,,,,,,,,,,,,,,,,,,,,,,,,,
1656265742.945669,41.000000,0.000000,4613.846191,4620.000000,4454.358887,4386.666504,4560.512695,0.000000,4.000000,95.000000,,,,0.000000,4.000000,4.000000,4.000000,4.000000,4.000000,100.000000,,,,,,,,,,,,,,,,,,,,,,,,,,,,,,,,,,,,,,,29.154036,4.889434,3.767103,11.888093,7.514388,6.129765,3.024172,4.050101,7.702637,5.524745,10.504631,7.799515,1.960776,3.256262,3.153907,1.362318,2.351943,1.147944,4.350600,3.543988,27.335430,6.909266,3.913714,5.725806,4.310710
1656265742.953583,42.000000,0.000000,4570.256348,4602.051270,4452.820313,4375.384766,4528.205078,0.000000,4.000000,95.000000,,,,0.000000,4.000000,4.000000,4.000000,4.000000,4.000000,100.000000,,,,,,,,,,,,,,,,,,,,,,,,,,,,,,,,,,,,,,,,,,,,,,,,,,,,,,,,,,,,,,,
1656265742.961498,43.000000,0.000000,4587.179688,4603.589844,4464.615234,4409.743652,4531.794922,0.000000,4.000000,95.000000,,,,0.000000,4.000000,4.000000,4.000000,4.000000,4.000000,100.000000,,,,,,,,,,,,,,,,,,,,,,,,,,,,,,,,,,,,,,,,,,,,,,,,,,,,,,,,,,,,,,,
1656265742.969312,44.000000,0.000000,4641.538574,4627.179688,4470.769043,4436.410156,4556.922852,0.000000,4.000000,95.000000,,,,0.000000,4.000000,4.000000,4.000000,4.000000,4.000000,100.000000,,,,,,,,,,,,,,,,,,,,,,,,,,,,,,,,,,,,,,,,,,,,,,,,,,,,,,,,,,,,,,,
1656265742.977226,45.000000,0.000000,4646.153809,4633.846191,4471.794922,4409.743652,4556.410156,0.000000,4.000000,95.000000,,,,0.000000,4.000000,4.000000,4.000000,4.000000,4.000000,100.000000,,,,,,,,,,,,,,,,,,,,,,,,,,,,,,,,,,,,,,,,,,,,,,,,,,,,,,,,,,,,,,,
1656265742.985041,46.000000,0.000000,4591.282227,4627.692383,4448.717773,4370.769043,4534.871582,0.000000,4.000000,95.000000,,,,0.000000,4.000000,4.000000,4.000000,4.000000,4.000000,100.000000,,,,,,,,,,,,,,,,,,,,,,,,,,,,,,,,,,,,,,,,,,,,,,,,,,,,,,,,,,,,,,,
1656265742.992855,47.000000,0.000000,4536.922852,4599.487305,4408.717773,4356.410156,4491.794922,0.000000,4.000000,95.000000,,,,0.000000,4.000000,4.000000,4.000000,4.000000,4.000000,100.000000,,,,,,,,,,,,,,,,,,,,,,,,,,,,,,,,,,,,,,,,,,,,,,,,,,,,,,,,,,,,,,,
1656265743.000769,48.000000,0.000000,4573.333496,4604.615234,4440.000000,4390.769043,4508.717773,0.000000,4.000000,95.000000,,,,0.000000,4.000000,4.000000,4.000000,4.000000,4.000000,100.000000,,,,,,,,,,,,,,,,,,,,,,,,,,,,,,,,,,,,,,,,,,,,,,,,,,,,,,,,,,,,,,,
1656265743.008584,49.000000,0.000000,4638.461426,4648.205078,4494.871582,4407.692383,4563.077148,0.000000,4.000000,95.000000,,,,0.000000,4.000000,4.000000,4.000000,4.000000,4.000000,100.000000,,,,,,,,,,,,,,,,,,,,,,,,,,,,,,,,,,,,,,,,,,,,,,,,,,,,,,,,,,,,,,,
1656265743.016498,50.000000,0.000000,4640.000000,4657.948730,4491.794922,4391.794922,4555.897461,0.000000,4.000000,95.000000,,,,0.000000,4.000000,4.000000,4.000000,4.000000,4.000000,100.000000,,,,,,,,,,,,,,,,,,,,,,,,,,,,,,,,,,,,,,,,,,,,,,,,,,,,,,,,,,,,,,,
1656265743.024412,51.000000,0.000000,4603.589844,4630.769043,4446.666504,4383.589844,4521.538574,0.000000,4.000000,95.000000,,,,0.000000,4.000000,4.000000,4.000000,4.000000,4.000000,100.000000,,,,,,,,,,,,,,,,,,,,,,,,,,,,,,,,,,,,,,,,,,,,,,,,,,,,,,,,,,,,,,,
1656265743.032227,52.000000,0.000000,4562.051270,4582.051270,4402.563965,4381.025879,4511.282227,0.000000,4.000000,95.000000,,,,0.000000,4.000000,4.000000,4.000000,4.000000,4.000000,100.000000,,,,,,,,,,,,,,,,,,,,,,,,,,,,,,,,,,,,,,,,,,,,,,,,,,,,,,,,,,,,,,,
1656265743.040141,53.000000,0.000000,4571.794922,4595.897461,4427.179688,4403.077148,4542.051270,0.000000,4.000000,95.000000,,,,0.000000,4.000000,4.000000,4.000000,4.000000,4.000000,100.000000,,,,,,,,,,,,,,,,,,,,,,,,,,,,,,,,,,,,,,,,,,,,,,,,,,,,,,,,,,,,,,,
1656265743.047956,54.000000,0.000000,4616.410156,4681.538574,4481.025879,4418.974121,4569.230957,0.000000,4.000000,95.000000,,,,0.000000,4.000000,4.000000,4.000000,4.000000,4.000000,100.000000,,,,,,,,,,,,,,,,,,,,,,,,,,,,,,,,,,,,,,,,,,,,,,,,,,,,,,,,,,,,,,,
1656265743.055770,55.000000,0.000000,4633.333496,4707.179688,4491.794922,4416.410156,4562.051270,0.000000,4.000000,95.000000,,,,0.000000,4.000000,4.000000,4.000000,4.000000,4.000000,100.000000,,,,,,,,,,,,,,,,,,,,,,,,,,,,,,,,,,,,,,,,,,,,,,,,,,,,,,,,,,,,,,,
1656265743.063684,56.000000,0.000000,4617.948730,4655.897461,4466.153809,4412.307617,4551.282227,0.000000,4.000000,95.000000,,,,0.000000,4.000000,4.000000,4.000000,4.000000,4.000000,100.000000,,,,,,,,,,,,,,,,,,,,,,,,,,,,,,,,,,,,,,,,,,,,,,,,,,,,,,,,,,,,,,,
1656265743.071599,57.000000,0.000000,4583.589844,4616.922852,4434.358887,4388.205078,4531.794922,0.000000,4.000000,95.000000,,,,0.000000,4.000000,4.000000,4.000000,4.000000,4.000000,100.000000,,,,,,,,,,,,,,,,,,,,,,,,,,,,,,,,,,,,,,,38.289555,5.987855,5.020196,12.074109,8.738075,5.835521,3.046710,3.757617,8.269935,6.132048,9.568922,7.978820,2.097921,3.560314,3.117869,1.395972,2.869679,1.381218,4.483259,3.964210,35.557247,8.855202,4.664592,5.932564,5.344995
1656265743.079413,58.000000,0.000000,4605.641113,4645.641113,4462.051270,4398.974121,4545.128418,0.000000,4.000000,95.000000,,,,0.000000,4.000000,4.000000,4.000000,4.000000,4.000000,100.000000,,,,,,,,,,,,,,,,,,,,,,,,,,,,,,,,,,,,,,,,,,,,,,,,,,,,,,,,,,,,,,,
1656265743.087327,59.000000,0.000000,4648.205078,4666.666504,4504.102539,4432.820313,4578.974121,0.000000,4.000000,95.000000,,,,0.000000,4.000000,4.000000,4.000000,4.000000,4.000000,100.000000,,,,,,,,,,,,,,,,,,,,,,,,,,,,,,,,,,,,,,,,,,,,,,,,,,,,,,,,,,,,,,,
1656265743.095142,60.000000,0.000000,4626.153809,4640.512695,4492.307617,4413.333496,4562.563965,0.000000,4.000000,95.000000,,,,0.000000,4.000000,4.000000,4.000000,4.000000,4.000000,100.000000,,,,,,,,,,,,,,,,,,,,,,,,,,,,,,,,,,,,,,,,,,,,,,,,,,,,,,,,,,,,,,,
1656265743.103056,61.000000,0.000000,4607.179688,4644.102539,4451.282227,4396.922852,4552.820313,0.000000,4.000000,95.000000,,,,0.000000,4.000000,4.000000,4.000000,4.000000,4.000000,100.000000,,,,,,,,,,,,,,,,,,,,,,,,,,,,,,,,,,,,,,,,,,,,,,,,,,,,,,,,,,,,,,,
1656265743.110870,62.000000,0.000000,4620.000000,4658.974121,4419.487305,4399.487305,4566.666504,0.000000,4.000000,95.000000,,,,0.000000,4.000000,4.000000,4.000000,4.000000,4.000000,100.000000,,,,,,,,,,,,,,,,,,,,,,,,,,,,,,,,,,,,,,,,,,,,,,,,,,,,,,,,,,,,,,,
1656265743.118785,63.000000,0.000000,4652.820313,4670.256348,4450.256348,4417.948730,4582.051270,0.000000,4.000000,95.000000,,,,0.000000,4.000000,4.000000,4.000000,4.000000,4.000000,100.000000,,,,,,,,,,,,,,,,,,,,,,,,,,,,,,,,,,,,,,,,,,,,,,,,,,,,,,,,,,,,,,,
1656265743.126599,64.000000,0.000000,4660.000000,4670.769043,4470.769043,4453.333496,4591.794922,450.000000,4.000000,95.000000,,,,0.000000,4.000000,4.000000,4.000000,4.000000,4.000000,100.000000,,,,,,,,,,,,,,,,,,,,,,,,,,,,,,,,,,,,,,,,,,,,,,,,,,,,,,,,,,,,,,,
1656265743.134513,65.000000,0.000000,4611.282227,4631.794922,4436.922852,4442.051270,4567.179688,450.000000,4.000000,95.000000,,,,0.000000,4.000000,4.000000,4.000000,4.000000,4.000000,100.000000,,,,,,,,,,,,,,,,,,,,,,,,,,,,,,,,,,,,,,,,,,,,,,,,,,,,,,,,,,,,,,,
1656265743.142428,66.000000,0.000000,4614.871582,4626.153809,4430.256348,4431.794922,4571.794922,16116.000000,4.000000,95.000000,,,,0.000000,4.000000,4.000000,4.000000,4.000000,4.000000,100.000000,,,,,,,,,,,,,,,,,,,,,,,,,,,,,,,,,,,,,,,,,,,,,,,,,,,,,,,,,,,,,,,
1656265743.150242,67.000000,0.000000,4672.820313,4667.692383,4432.820313,4467.692383,4621.538574,450.000000,4.000000,95.000000,,,,0.000000,4.000000,4.000000,4.000000,4.000000,4.000000,100.000000,,,,,,,,,,,,,,,,,,,,,,,,,,,,,,,,,,,,,,,,,,,,,,,,,,,,,,,,,,,,,,,
1656265743.158156,68.000000,0.000000,4681.025879,4691.282227,4457.948730,4493.333496,4628.717773,16074.000000,4.000000,95.000000,,,,0.000000,4.000000,4.000000,4.000000,4.000000,4.000000,100.000000,,,,,,,,,,,,,,,,,,,,,,,,,,,,,,,,,,,,,,,,,,,,,,,,,,,,,,,,,,,,,,,
1656265743.165971,69.000000,0.000000,4623.077148,4657.948730,4498.974121,4446.666504,4556.922852,450.000000,4.000000,95.000000,,,,0.000000,4.000000,4.000000,4.000000,4.000000,4.000000,100.000000,,,,,,,,,,,,,,,,,,,,,,,,,,,,,,,,,,,,,,,,,,,,,,,,,,,,,,,,,,,,,,,
1656265743.173885,70.000000,0.000000,4570.769043,4604.102539,4475.897461,4381.538574,4501.538574,16130.000000,4.000000,95.000000,,,,0.000000,4.000000,4.000000,4.000000,4.000000,4.000000,100.000000,,,,,,,,,,,,,,,,,,,,,,,,,,,,,,,,,,,,,,,,,,,,,,,,,,,,,,,,,,,,,,,
1656265743.181799,71.000000,0.000000,4602.563965,4635.384766,4455.384766,4407.179688,4562.563965,450.000000,4.000000,95.000000,,,,0.000000,4.000000,4.000000,4.000000,4.000000,4.000000,100.000000,,,,,,,,,,,,,,,,,,,,,,,,,,,,,,,,,,,,,,,,,,,,,,,,,,,,,,,,,,,,,,,
1656265743.189614,72.000000,0.000000,4650.769043,4695.384766,4480.000000,4450.769043,4623.589844,450.000000,4.000000,95.000000,,,,0.000000,4.000000,4.000000,4.000000,4.000000,4.000000,100.000000,,,,,,,,,,,,,,,,,,,,,,,,,,,,,,,,,,,,,,,,,,,,,,,,,,,,,,,,,,,,,,,
1656265743.197428,73.000000,0.000000,4644.102539,4693.846191,4486.153809,4435.897461,4596.410156,16117.000000,4.000000,95.000000,,,,0.000000,4.000000,4.000000,4.000000,4.000000,4.000000,100.000000,,,,,,,,,,,,,,,,,,,,,,,,,,,,,,,,,,,,,,,44.422523,6.738863,5.943118,12.237514,9.806369,5.136977,2.964916,3.539036,8.873080,6.811709,8.467175,8.255184,2.527205,4.116904,3.128336,1.616173,3.400556,1.656682,4.404781,4.301980,40.872818,10.594938,5.092628,6.309855,6.435239
1656265743.205343,74.000000,0.000000,4608.717773,4657.948730,4447.179688,4408.205078,4548.205078,450.000000,4.000000,95.000000,,,,0.000000,4.000000,4.000000,4.000000,4.000000,4.000000,100.000000,,,,,,,,,,,,,,,,,,,,,,,,,,,,,,,,,,,,,,,,,,,,,,,,,,,,,,,,,,,,,,,
1656265743.213157,75.000000,0.000000,4567.692383,4603.077148,4405.128418,4378.461426,4509.230957,16119.000000,4.000000,95.000000,,,,0.000000,4.000000,4.000000,4.000000,4.000000,4.000000,100.000000,,,,,,,,,,,,,,,,,,,,,,,,,,,,,,,,,,,,,,,,,,,,,,,,,,,,,,,,,,,,,,,
1656265743.221071,76.000000,0.000000,4582.563965,4611.282227,4427.179688,4388.717773,4532.307617,450.000000,4.000000,95.000000,,,,0.000000,4.000000,4.000000,4.000000,4.000000,4.000000,100.000000,,,,,,,,,,,,,,,,,,,,,,,,,,,,,,,,,,,,,,,,,,,,,,,,,,,,,,,,,,,,,,,
1656265743.228986,77.000000,0.000000,4622.563965,4678.461426,4473.846191,4443.077148,4595.384766,450.000000,4.000000,95.000000,,,,0.000000,4.000000,4.000000,4.000000,4.000000,4.000000,100.000000,,,,,,,,,,,,,,,,,,,,,,,,,,,,,,,,,,,,,,,,,,,,,,,,,,,,,,,,,,,,,,,
1656265743.236800,78.000000,0.000000,4628.717773,4691.282227,4477.948730,4458.974121,4619.487305,450.000000,4.000000,95.000000,,,,0.000000,4.000000,4.000000,4.000000,4.000000,4.000000,100.000000,,,,,,,,,,,,,,,,,,,,,,,,,,,,,,,,,,,,,,,,,,,,,,,,,,,,,,,,,,,,,,,
1656265743.244714,79.000000,0.000000,4622.051270,4657.436035,4458.461426,4412.307617,4590.769043,16119.000000,4.000000,95.000000,,,,0.000000,4.000000,4.000000,4.000000,4.000000,4.000000,100.000000,,,,,,,,,,,,,,,,,,,,,,,,,,,,,,,,,,,,,,,,,,,,,,,,,,,,,,,,,,,,,,,
1656265743.252529,80.000000,0.000000,4594.871582,4624.615234,4436.922852,4378.974121,4544.615234,450.000000,4.000000,95.000000,,,,0.000000,4.000000,4.000000,4.000000,4.000000,4.000000,100.000000,,,,,,,,,,,,,,,,,,,,,,,,,,,,,,,,,,,,,,,,,,,,,,,,,,,,,,,,,,,,,,,
1656265743.260443,81.000000,0.000000,4598.461426,4640.512695,4448.717773,4420.512695,4551.282227,450.000000,4.000000,95.000000,,,,0.000000,4.000000,4.000000,4.000000,4.000000,4.000000,100.000000,,,,,,,,,,,,,,,,,,,,,,,,,,,,,,,,,,,,,,,,,,,,,,,,,,,,,,,,,,,,,,,
1656265743.268257,82.000000,0.000000,4641.538574,4668.717773,4482.563965,4450.769043,4575.384766,450.000000,4.000000,95.000000,,,,0.000000,4.000000,4.000000,4.000000,4.000000,4.000000,100.000000,,,,,,,,,,,,,,,,,,,,,,,,,,,,,,,,,,,,,,,,,,,,,,,,,,,,,,,,,,,,,,,
1656265743.276172,83.000000,0.000000,4643.589844,4647.692383,4481.538574,4423.589844,4563.589844,16119.000000,4.000000,95.000000,,,,0.000000,4.000000,4.000000,4.000000,4.000000,4.000000,100.000000,,,,,,,,,,,,,,,,,,,,,,,,,,,,,,,,,,,,,,,,,,,,,,,,,,,,,,,,,,,,,,,
1656265743.283986,84.000000,0.000000,4637.436035,4640.512695,4465.128418,4418.461426,4566.666504,450.000000,4.000000,95.000000,,,,0.000000,4.000000,4.000000,4.000000,4.000000,4.000000,100.000000,,,,,,,,,,,,,,,,,,,,,,,,,,,,,,,,,,,,,,,,,,,,,,,,,,,,,,,,,,,,,,,
1656265743.291900,85.000000,0.000000,4640.000000,4651.282227,4449.230957,4417.948730,4567.179688,450.000000,4.000000,95.000000,,,,0.000000,4.000000,4.000000,4.000000,4.000000,4.000000,100.000000,,,,,,,,,,,,,,,,,,,,,,,,,,,,,,,,,,,,,,,,,,,,,,,,,,,,,,,,,,,,,,,
1656265743.299715,86.000000,0.000000,4634.871582,4646.153809,4427.179688,4410.256348,4557.948730,450.000000,4.000000,95.000000,,,,0.000000,4.000000,4.000000,4.000000,4.000000,4.000000,100.000000,,,,,,,,,,,,,,,,,,,,,,,,,,,,,,,,,,,,,,,,,,,,,,,,,,,,,,,,,,,,,,,
1656265743.307629,87.000000,0.000000,4618.974121,4624.102539,4417.436035,4406.153809,4545.641113,16119.000000,4.000000,95.000000,,,,0.000000,4.000000,4.000000,4.000000,4.000000,4.000000,100.000000,,,,,,,,,,,,,,,,,,,,,,,,,,,,,,,,,,,,,,,,,,,,,,,,,,,,,,,,,,,,,,,
1656265743.315444,88.000000,0.000000,4593.333496,4583.077148,4428.205078,4372.820313,4515.897461,450.000000,4.000000,95.000000,,,,0.000000,4.000000,4.000000,4.000000,4.000000,4.000000,100.000000,,,,,,,,,,,,,,,,,,,,,,,,,,,,,,,,,,,,,,,,,,,,,,,,,,,,,,,,,,,,,,,
1656265743.323358,89.000000,0.000000,4615.384766,4600.512695,4440.000000,4376.410156,4553.333496,450.000000,4.000000,95.000000,,,,0.000000,4.000000,4.000000,4.000000,4.000000,4.000000,100.000000,1.000000,75.000000,3.000000,3.000000,3.000000,3.000000,3.000000,,,,,,,,,,,,,,,,,,,,,,,,,,,,,,,,44.883133,6.878691,6.250207,12.390895,10.512625,4.603369,2.734598,3.387447,9.500647,7.485745,7.072196,8.460102,3.198555,4.927392,3.252520,2.222279,3.835482,1.937271,4.265672,4.557357,41.461037,11.538339,5.005381,6.943151,7.407845
1656265743.331172,90.000000,0.000000,4651.282227,4669.743652,4428.205078,4419.487305,4607.692383,450.000000,4.000000,95.000000,,,,0.000000,4.000000,4.000000,4.000000,4.000000,4.000000,100.000000,,,,,,,,,,,,,,,,,,,,,,,,,,,,,,,,,,,,,,,,,,,,,,,,,,,,,,,,,,,,,,,
1656265743.339087,91.000000,0.000000,4640.512695,4687.179688,4442.563965,4429.743652,4569.743652,16119.000000,4.000000,95.000000,,,,0.000000,4.000000,4.000000,4.000000,4.000000,4.000000,100.000000,,,,,,,,,,,,,,,,,,,,,,,,,,,,,,,,,,,,,,,,,,,,,,,,,,,,,,,,,,,,,,,
1656265743.346901,92.000000,0.000000,4608.717773,4630.769043,4453.846191,4406.666504,4525.641113,450.000000,4.000000,95.000000,,,,0.000000,4.000000,4.000000,4.000000,4.000000,4.000000,100.000000,,,,,,,,,,,,,,,,,,,,,,,,,,,,,,,,,,,,,,,,,,,,,,,,,,,,,,,,,,,,,,,
1656265743.354815,93.000000,0.000000,4582.563965,4586.666504,4431.282227,4381.025879,4523.589844,450.000000,4.000000,95.000000,,,,0.000000,4.000000,4.000000,4.000000,4.000000,4.000000,100.000000,,,,,,,,,,,,,,,,,,,,,,,,,,,,,,,,,,,,,,,,,,,,,,,,,,,,,,,,,,,,,,,
1656265743.362730,94.000000,0.000000,4612.307617,4642.051270,4451.794922,4423.077148,4553.846191,450.000000,4.000000,95.000000,,,,0.000000,4.000000,4.000000,4.000000,4.000000,4.000000,100.000000,,,,,,,,,,,,,,,,,,,,,,,,,,,,,,,,,,,,,,,,,,,,,,,,,,,,,,,,,,,,,,,
1656265743.370544,95.000000,0.000000,4683.077148,4701.538574,4459.487305,4483.077148,4607.179688,16119.000000,4.000000,95.000000,,,,0.000000,4.000000,4.000000,4.000000,4.000000,4.000000,100.000000,,,,,,,,,,,,,,,,,,,,,,,,,,,,,,,,,,,,,,,,,,,,,,,,,,,,,,,,,,,,,,,
1656265743.378358,96.000000,0.000000,4690.769043,4687.179688,4437.948730,4465.128418,4631.794922,450.000000,4.000000,95.000000,,,,0.000000,4.000000,4.000000,4.000000,4.000000,4.000000,100.000000,,,,,,,,,,,,,,,,,,,,,,,,,,,,,,,,,,,,,,,,,,,,,,,,,,,,,,,,,,,,,,,
1656265743.386273,97.000000,0.000000,4616.922852,4643.077148,4436.410156,4414.871582,4583.589844,450.000000,4.000000,95.000000,,,,0.000000,4.000000,4.000000,4.000000,4.000000,4.000000,100.000000,,,,,,,,,,,,,,,,,,,,,,,,,,,,,,,,,,,,,,,,,,,,,,,,,,,,,,,,,,,,,,,
1656265743.394087,98.000000,0.000000,4560.000000,4590.256348,4415.897461,4380.000000,4511.282227,450.000000,4.000000,95.000000,,,,0.000000,4.000000,4.000000,4.000000,4.000000,4.000000,100.000000,,,,,,,,,,,,,,,,,,,,,,,,,,,,,,,,,,,,,,,,,,,,,,,,,,,,,,,,,,,,,,,
1656265743.402001,99.000000,0.000000,4608.717773,4607.179688,4413.846191,4397.948730,4535.897461,16119.000000,4.000000,95.000000,,,,0.000000,4.000000,4.000000,4.000000,4.000000,4.000000,100.000000,,,,,,,,,,,,,,,,,,,,,,,,,,,,,,,,,,,,,,,,,,,,,,,,,,,,,,,,,,,,,,,
1656265743.409916,100.000000,0.000000,4658.974121,4671.282227,4438.461426,4416.410156,4596.410156,450.000000,4.000000,95.000000,,,,0.000000,4.000000,4.000000,4.000000,4.000000,4.000000,100.000000,,,,,,,,,,,,,,,,,,,,,,,,,,,,,,,,,,,,,,,,,,,,,,,,,,,,,,,,,,,,,,,
1656265743.417730,101.000000,0.000000,4617.436035,4666.153809,4440.000000,4390.769043,4575.384766,450.000000,4.000000,95.000000,,,,0.000000,4.000000,4.000000,4.000000,4.000000,4.000000,100.000000,,,,,,,,,,,,,,,,,,,,,,,,,,,,,,,,,,,,,,,,,,,,,,,,,,,,,,,,,,,,,,,
1656265743.425644,102.000000,0.000000,4579.487305,4617.948730,4418.974121,4385.641113,4532.307617,450.000000,4.000000,95.000000,,,,0.000000,4.000000,4.000000,4.000000,4.000000,4.000000,100.000000,,,,,,,,,,,,,,,,,,,,,,,,,,,,,,,,,,,,,,,,,,,,,,,,,,,,,,,,,,,,,,,
1656265743.433459,103.000000,0.000000,4585.641113,4594.871582,4393.846191,4382.051270,4524.102539,16119.000000,4.000000,95.000000,,,,0.000000,4.000000,4.000000,4.000000,4.000000,4.000000,100.000000,,,,,,,,,,,,,,,,,,,,,,,,,,,,,,,,,,,,,,,,,,,,,,,,,,,,,,,,,,,,,,,
1656265743.441373,104.000000,0.000000,4611.282227,4628.205078,4416.410156,4378.974121,4552.820313,450.000000,4.000000,95.000000,,,,0.000000,4.000000,4.000000,4.000000,4.000000,4.000000,100.000000,,,,,,,,,,,,,,,,,,,,,,,,,,,,,,,,,,,,,,,,,,,,,,,,,,,,,,,,,,,,,,,
1656265743.449188,105.000000,0.000000,4606.666504,4626.666504,4455.897461,4391.794922,4560.000000,450.000000,4.000000,95.000000,,,,0.000000,4.000000,4.000000,4.000000,4.000000,4.000000,100.000000,,,,,,,,,,,,,,,,,,,,,,,,,,,,,,,,,,,,,,,39.875465,6.310559,5.839155,12.472714,10.753847,3.887758,2.372896,3.299908,10.037459,8.056273,5.848220,8.425759,3.887406,5.890127,3.514445,3.073954,4.132239,2.193480,4.228811,4.759719,37.326744,11.397741,4.396996,7.792230,8.110966
1656265743.457102,106.000000,0.000000,4583.589844,4578.974121,4456.922852,4389.230957,4529.230957,450.000000,4.000000,95.000000,,,,0.000000,4.000000,4.000000,4.000000,4.000000,4.000000,100.000000,,,,,,,,,,,,,,,,,,,,,,,,,,,,,,,,,,,,,,,,,,,,,,,,,,,,,,,,,,,,,,,
1656265743.464916,107.000000,0.000000,4613.846191,4605.641113,4448.717773,4391.794922,4534.358887,16119.000000,4.000000,95.000000,,,,0.000000,4.000000,4.000000,4.000000,4.000000,4.000000,100.000000,,,,,,,,,,,,,,,,,,,,,,,,,,,,,,,,,,,,,,,,,,,,,,,,,,,,,,,,,,,,,,,
1656265743.472831,108.000000,0.000000,4627.692383,4638.974121,4431.794922,4407.692383,4557.948730,450.000000,4.000000,95.000000,,,,0.000000,4.000000,4.000000,4.000000,4.000000,4.000000,100.000000,,,,,,,,,,,,,,,,,,,,,,,,,,,,,,,,,,,,,,,,,,,,,,,,,,,,,,,,,,,,,,,
1656265743.480645,109.000000,0.000000,4618.974121,4625.641113,4434.358887,4423.077148,4571.282227,450.000000,4.000000,95.000000,,,,0.000000,4.000000,4.000000,4.000000,4.000000,4.000000,100.000000,,,,,,,,,,,,,,,,,,,,,,,,,,,,,,,,,,,,,,,,,,,,,,,,,,,,,,,,,,,,,,,
1656265743.488559,110.000000,0.000000,4616.922852,4618.461426,4446.153809,4403.077148,4565.641113,450.000000,4.000000,95.000000,,,,0.000000,4.000000,4.000000,4.000000,4.000000,4.000000,100.000000,,,,,,,,,,,,,,,,,,,,,,,,,,,,,,,,,,,,,,,,,,,,,,,,,,,,,,,,,,,,,,,
1656265743.496374,111.000000,0.000000,4582.563965,4591.282227,4429.230957,4369.230957,4534.358887,16119.000000,4.000000,95.000000,,,,0.000000,4.000000,4.000000,4.000000,4.000000,4.000000,100.000000,,,,,,,,,,,,,,,,,,,,,,,,,,,,,,,,,,,,,,,,,,,,,,,,,,,,,,,,,,,,,,,
1656265743.504288,112.000000,0.000000,4593.846191,4594.871582,4443.077148,4384.615234,4539.487305,450.000000,4.000000,95.000000,,,,0.000000,4.000000,4.000000,4.000000,4.000000,4.000000,100.000000,,,,,,,,,,,,,,,,,,,,,,,,,,,,,,,,,,,,,,,,,,,,,,,,,,,,,,,,,,,,,,,
1656265743.512102,113.000000,0.000000,4641.025879,4656.410156,4463.589844,4402.051270,4570.256348,450.000000,4.000000,95.000000,,,,0.000000,4.000000,4.000000,4.000000,4.000000,4.000000,100.000000,,,,,,,,,,,,,,,,,,,,,,,,,,,,,,,,,,,,,,,,,,,,,,,,,,,,,,,,,,,,,,,
1656265743.520017,114.000000,0.000000,4635.384766,4671.794922,4455.384766,4390.769043,4571.282227,450.000000,4.000000,95.000000,,,,0.000000,4.000000,4.000000,4.000000,4.000000,4.000000,100.000000,,,,,,,,,,,,,,,,,,,,,,,,,,,,,,,,,,,,,,,,,,,,,,,,,,,,,,,,,,,,,,,
1656265743.527831,115.000000,0.000000,4604.615234,4617.436035,4442.051270,4378.974121,4547.692383,16119.000000,4.000000,95.000000,,,,0.000000,4.000000,4.000000,4.000000,4.000000,4.000000,100.000000,,,,,,,,,,,,,,,,,,,,,,,,,,,,,,,,,,,,,,,,,,,,,,,,,,,,,,,,,,,,,,,
1656265743.535745,116.000000,0.000000,4567.179688,4576.410156,4425.128418,4382.051270,4512.820313,450.000000,4.000000,95.000000,,,,0.000000,4.000000,4.000000,4.000000,4.000000,4.000000,100.000000,,,,,,,,,,,,,,,,,,,,,,,,,,,,,,,,,,,,,,,,,,,,,,,,,,,,,,,,,,,,,,,
1656265743.543660,117.000000,0.000000,4583.589844,4611.282227,4451.282227,4412.820313,4528.717773,450.000000,4.000000,95.000000,,,,0.000000,4.000000,4.000000,4.000000,4.000000,4.000000,100.000000,,,,,,,,,,,,,,,,,,,,,,,,,,,,,,,,,,,,,,,,,,,,,,,,,,,,,,,,,,,,,,,
1656265743.551474,118.000000,0.000000,4643.589844,4664.102539,4486.666504,4414.871582,4573.333496,450.000000,4.000000,95.000000,,,,0.000000,4.000000,4.000000,4.000000,4.000000,4.000000,100.000000,,,,,,,,,,,,,,,,,,,,,,,,,,,,,,,,,,,,,,,,,,,,,,,,,,,,,,,,,,,,,,,
1656265743.559388,119.000000,0.000000,4645.128418,4658.461426,4470.256348,4393.333496,4574.358887,16119.000000,4.000000,95.000000,,,,0.000000,4.000000,4.000000,4.000000,4.000000,4.000000,100.000000,,,,,,,,,,,,,,,,,,,,,,,,,,,,,,,,,,,,,,,,,,,,,,,,,,,,,,,,,,,,,,,
1656265743.567203,120.000000,0.000000,4594.871582,4613.333496,4447.179688,4398.974121,4541.538574,450.000000,4.000000,95.000000,,,,0.000000,4.000000,4.000000,4.000000,4.000000,4.000000,100.000000,,,,,,,,,,,,,,,,,,,,,,,,,,,,,,,,,,,,,,,,,,,,,,,,,,,,,,,,,,,,,,,
1656265743.575117,121.000000,0.000000,4549.230957,4574.358887,4442.563965,4370.256348,4492.820313,450.000000,4.000000,95.000000,,,,0.000000,4.000000,4.000000,4.000000,4.000000,4.000000,100.000000,,,,,,,,,,,,,,,,,,,,,,,,,,,,,,,,,,,,,,,31.217319,5.200442,4.865649,12.396991,10.549434,3.499869,1.946959,3.275452,10.373078,8.454688,4.636443,8.177369,4.298230,6.823475,3.878471,4.344681,4.368145,2.431077,4.402548,4.953207,30.179293,10.231111,3.436894,8.783254,8.472665
1656265743.582932,122.000000,0.000000,4581.025879,4609.743652,4441.538574,4358.974121,4512.307617,450.000000,4.000000,95.000000,,,,0.000000,4.000000,4.000000,4.000000,4.000000,4.000000,100.000000,,,,,,,,,,,,,,,,,,,,,,,,,,,,,,,,,,,,,,,,,,,,,,,,,,,,,,,,,,,,,,,
1656265743.590746,123.000000,0.000000,4652.307617,4660.512695,4436.410156,4417.436035,4576.410156,16119.000000,4.000000,95.000000,,,,0.000000,4.000000,4.000000,4.000000,4.000000,4.000000,100.000000,,,,,,,,,,,,,,,,,,,,,,,,,,,,,,,,,,,,,,,,,,,,,,,,,,,,,,,,,,,,,,,
1656265743.598660,124.000000,0.000000,4653.846191,4637.436035,4445.128418,4428.717773,4574.871582,450.000000,4.000000,95.000000,,,,0.000000,4.000000,4.000000,4.000000,4.000000,4.000000,100.000000,,,,,,,,,,,,,,,,,,,,,,,,,,,,,,,,,,,,,,,,,,,,,,,,,,,,,,,,,,,,,,,
1656265743.606575,125.000000,0.000000,4602.051270,4605.128418,4446.666504,4383.589844,4555.384766,450.000000,4.000000,95.000000,,,,0.000000,4.000000,4.000000,4.000000,4.000000,4.000000,100.000000,,,,,,,,,,,,,,,,,,,,,,,,,,,,,,,,,,,,,,,,,,,,,,,,,,,,,,,,,,,,,,,
1656265743.614389,126.000000,0.000000,4573.846191,4603.077148,4416.922852,4358.461426,4545.641113,450.000000,4.000000,95.000000,,,,0.000000,4.000000,4.000000,4.000000,4.000000,4.000000,100.000000,,,,,,,,,,,,,,,,,,,,,,,,,,,,,,,,,,,,,,,,,,,,,,,,,,,,,,,,,,,,,,,
1656265743.622303,127.000000,0.000000,4611.282227,4620.000000,4437.948730,4383.077148,4542.563965,243.000000,4.000000,95.000000,,,,0.000000,4.000000,4.000000,4.000000,4.000000,4.000000,100.000000,,,,,,,,,,,,,,,,,,,,,,,,,,,,,,,,,,,,,,,,,,,,,,,,,,,,,,,,,,,,,,,
1656265743.630118,0.000000,0.000000,4632.820313,4640.512695,4484.102539,4406.666504,4551.794922,450.000000,4.000000,95.000000,,,,0.000000,4.000000,4.000000,4.000000,4.000000,4.000000,100.000000,,,,,,,,,,,,,,,,,,,,,,,,,,,,,,,,,,,,,,,,,,,,,,,,,,,,,,,,,,,,,,,
1656265743.638032,1.000000,0.000000,4588.717773,4633.333496,4466.153809,4387.692383,4547.692383,450.000000,4.000000,95.000000,,,,0.000000,4.000000,4.000000,4.000000,4.000000,4.000000,100.000000,,,,,,,,,,,,,,,,,,,,,,,,,,,,,,,,,,,,,,,,,,,,,,,,,,,,,,,,,,,,,,,
1656265743.645846,2.000000,0.000000,4577.436035,4604.615234,4438.974121,4397.436035,4548.717773,16120.000000,4.000000,95.000000,,,,0.000000,4.000000,4.000000,4.000000,4.000000,4.000000,100.000000,,,,,,,,,,,,,,,,,,,,,,,,,,,,,,,,,,,,,,,,,,,,,,,,,,,,,,,,,,,,,,,
1656265743.653761,3.000000,0.000000,4612.820313,4589.743652,4436.922852,4425.128418,4561.538574,450.000000,4.000000,95.000000,,,,0.000000,4.000000,4.000000,4.000000,4.000000,4.000000,100.000000,,,,,,,,,,,,,,,,,,,,,,,,,,,,,,,,,,,,,,,,,,,,,,,,,,,,,,,,,,,,,,,
1656265743.661575,4.000000,0.000000,4633.333496,4622.563965,4445.128418,4430.769043,4580.000000,16107.000000,4.000000,95.000000,,,,0.000000,4.000000,4.000000,4.000000,4.000000,4.000000,100.000000,,,,,,,,,,,,,,,,,,,,,,,,,,,,,,,,,,,,,,,,,,,,,,,,,,,,,,,,,,,,,,,
1656265743.669489,5.000000,0.000000,4606.666504,4623.589844,4432.307617,4394.871582,4564.102539,450.000000,4.000000,95.000000,,,,0.000000,4.000000,4.000000,4.000000,4.000000,4.000000,100.000000,,,,,,,,,,,,,,,,,,,,,,,,,,,,,,,,,,,,,,,,,,,,,,,,,,,,,,,,,,,,,,,
1656265743.677304,6.000000,0.000000,4549.230957,4564.102539,4405.641113,4348.205078,4520.000000,16093.000000,4.000000,95.000000,,,,0.000000,4.000000,4.000000,4.000000,4.000000,4.000000,100.000000,,,,,,,,,,,,,,,,,,,,,,,,,,,,,,,,,,,,,,,,,,,,,,,,,,,,,,,,,,,,,,,
1656265743.685218,7.000000,0.000000,4571.794922,4587.692383,4440.512695,4380.000000,4537.436035,450.000000,4.000000,95.000000,,,,0.000000,4.000000,4.000000,4.000000,4.000000,4.000000,100.000000,,,,,,,,,,,,,,,,,,,,,,,,,,,,,,,,,,,,,,,,,,,,,,,,,,,,,,,,,,,,,,,
1656265743.693132,8.000000,0.000000,4635.897461,4645.641113,4477.948730,4422.563965,4575.384766,450.000000,4.000000,95.000000,,,,0.000000,4.000000,4.000000,4.000000,4.000000,4.000000,100.000000,,,,,,,,,,,,,,,,,,,,,,,,,,,,,,,,,,,,,,,,,,,,,,,,,,,,,,,,,,,,,,,
1656265743.700947,9.000000,0.000000,4622.563965,4636.410156,4458.974121,4402.563965,4572.307617,16117.000000,4.000000,95.000000,,,,0.000000,4.000000,4.000000,4.000000,4.000000,4.000000,100.000000,,,,,,,,,,,,,,,,,,,,,,,,,,,,,,,,,,,,,,,21.776718,3.925428,3.653618,12.156584,10.043757,2.945829,1.579544,3.264994,10.473794,8.679509,3.782712,7.869060,4.224371,7.524408,4.252080,5.412312,4.726320,2.666025,4.770501,5.163400,21.965616,8.413692,2.379060,9.835185,8.520782
1656265743.708861,10.000000,0.000000,4577.436035,4598.974121,4416.922852,4388.205078,4553.846191,450.000000,4.000000,95.000000,,,,0.000000,4.000000,4.000000,4.000000,4.000000,4.000000,100.000000,,,,,,,,,,,,,,,,,,,,,,,,,,,,,,,,,,,,,,,,,,,,,,,,,,,,,,,,,,,,,,,
1656265743.716676,11.000000,0.000000,4562.563965,4567.179688,4393.333496,4383.589844,4523.077148,16117.000000,4.000000,95.000000,,,,0.000000,4.000000,4.000000,4.000000,4.000000,4.000000,100.000000,,,,,,,,,,,,,,,,,,,,,,,,,,,,,,,,,,,,,,,,,,,,,,,,,,,,,,,,,,,,,,,
1656265743.724490,12.000000,0.000000,4596.922852,4611.794922,4433.333496,4393.846191,4547.179688,450.000000,4.000000,95.000000,,,,0.000000,4.000000,4.000000,4.000000,4.000000,4.000000,100.000000,,,,,,,,,,,,,,,,,,,,,,,,,,,,,,,,,,,,,,,,,,,,,,,,,,,,,,,,,,,,,,,
1656265743.732404,13.000000,0.000000,4632.820313,4673.333496,4467.692383,4426.666504,4603.589844,450.000000,4.000000,95.000000,,,,0.000000,4.000000,4.000000,4.000000,4.000000,4.000000,100.000000,,,,,,,,,,,,,,,,,,,,,,,,,,,,,,,,,,,,,,,,,,,,,,,,,,,,,,,,,,,,,,,
1656265743.740219,14.000000,0.000000,4630.769043,4651.794922,4456.410156,4444.615234,4594.358887,450.000000,4.000000,95.000000,,,,0.000000,4.000000,4.000000,4.000000,4.000000,4.000000,100.000000,,,,,,,,,,,,,,,,,,,,,,,,,,,,,,,,,,,,,,,,,,,,,,,,,,,,,,,,,,,,,,,
1656265743.748133,15.000000,0.000000,4609.230957,4611.282227,4457.948730,4409.230957,4537.436035,16117.000000,4.000000,95.000000,,,,0.000000,4.000000,4.000000,4.000000,4.000000,4.000000,100.000000,,,,,,,,,,,,,,,,,,,,,,,,,,,,,,,,,,,,,,,,,,,,,,,,,,,,,,,,,,,,,,,
1656265743.755947,16.000000,0.000000,4574.358887,4596.922852,4439.487305,4345.641113,4497.948730,0.000000,4.000000,95.000000,,,,0.000000,4.000000,4.000000,4.000000,4.000000,4.000000,100.000000,,,,,,,,,,,,,,,,,,,,,,,,,,,,,,,,,,,,,,,,,,,,,,,,,,,,,,,,,,,,,,,
1656265743.763862,17.000000,0.000000,4596.922852,4606.666504,4429.743652,4367.179688,4529.230957,0.000000,4.000000,95.000000,,,,0.000000,4.000000,4.000000,4.000000,4.000000,4.000000,100.000000,,,,,,,,,,,,,,,,,,,,,,,,,,,,,,,,,,,,,,,,,,,,,,,,,,,,,,,,,,,,,,,
1656265743.771776,18.000000,0.000000,4634.871582,4618.974121,4458.974121,4414.871582,4562.563965,0.000000,4.000000,95.000000,,,,0.000000,4.000000,4.000000,4.000000,4.000000,4.000000,100.000000,,,,,,,,,,,,,,,,,,,,,,,,,,,,,,,,,,,,,,,,,,,,,,,,,,,,,,,,,,,,,,,
1656265743.779590,19.000000,0.000000,4592.820313,4596.410156,4455.384766,4368.717773,4532.820313,0.000000,4.000000,95.000000,,,,0.000000,4.000000,4.000000,4.000000,4.000000,4.000000,100.000000,,,,,,,,,,,,,,,,,,,,,,,,,,,,,,,,,,,,,,,,,,,,,,,,,,,,,,,,,,,,,,,
1656265743.787505,20.000000,0.000000,4555.897461,4578.974121,4412.307617,4326.153809,4514.871582,0.000000,4.000000,95.000000,,,,0.000000,4.000000,4.000000,4.000000,4.000000,4.000000,100.000000,,,,,,,,,,,,,,,,,,,,,,,,,,,,,,,,,,,,,,,,,,,,,,,,,,,,,,,,,,,,,,,
1656265743.795319,21.000000,0.000000,4553.846191,4567.179688,4365.641113,4331.794922,4511.282227,0.000000,4.000000,95.000000,,,,0.000000,4.000000,4.000000,4.000000,4.000000,4.000000,100.000000,,,,,,,,,,,,,,,,,,,,,,,,,,,,,,,,,,,,,,,,,,,,,,,,,,,,,,,,,,,,,,,
1656265743.803233,22.000000,0.000000,4548.205078,4560.512695,4363.589844,4337.436035,4507.692383,0.000000,4.000000,95.000000,,,,0.000000,4.000000,4.000000,4.000000,4.000000,4.000000,100.000000,,,,,,,,,,,,,,,,,,,,,,,,,,,,,,,,,,,,,,,,,,,,,,,,,,,,,,,,,,,,,,,
1656265743.811048,23.000000,0.000000,4513.846191,4555.384766,4376.922852,4325.128418,4493.333496,0.000000,4.000000,95.000000,,,,0.000000,4.000000,4.000000,4.000000,4.000000,4.000000,100.000000,,,,,,,,,,,,,,,,,,,,,,,,,,,,,,,,,,,,,,,,,,,,,,,,,,,,,,,,,,,,,,,
1656265743.818962,24.000000,0.000000,4470.256348,4514.871582,4350.256348,4296.410156,4452.307617,0.000000,4.000000,95.000000,,,,0.000000,4.000000,4.000000,4.000000,4.000000,4.000000,100.000000,,,,,,,,,,,,,,,,,,,,,,,,,,,,,,,,,,,,,,,,,,,,,,,,,,,,,,,,,,,,,,,
1656265743.826777,25.000000,0.000000,4507.692383,4521.025879,4336.410156,4306.666504,4472.307617,0.000000,4.000000,95.000000,,,,0.000000,4.000000,4.000000,4.000000,4.000000,4.000000,100.000000,1.000000,75.000000,3.000000,3.000000,3.000000,3.000000,3.000000,,,,,,,,,,,,,,,,,,,,,,,,,,,,,,,,14.500175,2.910976,2.553826,11.800197,9.453975,2.757878,1.342284,3.156838,10.409571,8.803985,2.918628,7.644672,3.651558,7.824422,4.523394,6.351330,5.409416,2.902693,5.206245,5.376440,15.269354,6.509191,1.472862,10.865029,8.360755
1656265743.834691,26.000000,0.000000,4535.897461,4556.410156,4345.641113,4319.487305,4504.102539,0.000000,4.000000,95.000000,,,,0.000000,4.000000,4.000000,4.000000,4.000000,4.000000,100.000000,,,,,,,,,,,,,,,,,,,,,,,,,,,,,,,,,,,,,,,,,,,,,,,,,,,,,,,,,,,,,,,
1656265743.842605,27.000000,0.000000,4496.922852,4531.282227,4349.230957,4301.538574,4464.615234,0.000000,4.000000,95.000000,,,,0.000000,4.000000,4.000000,4.000000,4.000000,4.000000,100.000000,,,,,,,,,,,,,,,,,,,,,,,,,,,,,,,,,,,,,,,,,,,,,,,,,,,,,,,,,,,,,,,
1656265743.850420,28.000000,0.000000,4480.000000,4491.794922,4335.384766,4283.589844,4423.589844,0.000000,4.000000,95.000000,,,,0.000000,4.000000,4.000000,4.000000,4.000000,4.000000,100.000000,,,,,,,,,,,,,,,,,,,,,,,,,,,,,,,,,,,,,,,,,,,,,,,,,,,,,,,,,,,,,,,
1656265743.858234,29.000000,0.000000,4457.436035,4481.538574,4312.307617,4267.692383,4402.563965,0.000000,4.000000,95.000000,,,,0.000000,4.000000,4.000000,4.000000,4.000000,4.000000,100.000000,,,,,,,,,,,,,,,,,,,,,,,,,,,,,,,,,,,,,,,,,,,,,,,,,,,,,,,,,,,,,,,
1656265743.866148,30.000000,0.000000,4455.384766,4514.871582,4317.948730,4295.384766,4423.589844,0.000000,4.000000,95.000000,,,,0.000000,4.000000,4.000000,4.000000,4.000000,4.000000,100.000000,,,,,,,,,,,,,,,,,,,,,,,,,,,,,,,,,,,,,,,,,,,,,,,,,,,,,,,,,,,,,,,
1656265743.873963,31.000000,0.000000,4500.512695,4540.000000,4326.666504,4325.641113,4465.128418,0.000000,4.000000,95.000000,,,,0.000000,4.000000,4.000000,4.000000,4.000000,4.000000,100.000000,,,,,,,,,,,,,,,,,,,,,,,,,,,,,,,,,,,,,,,,,,,,,,,,,,,,,,,,,,,,,,,
1656265743.881877,32.000000,0.000000,4522.051270,4540.000000,4330.256348,4311.282227,4466.153809,0.000000,4.000000,95.000000,,,,0.000000,4.000000,4.000000,4.000000,4.000000,4.000000,100.000000,,,,,,,,,,,,,,,,,,,,,,,,,,,,,,,,,,,,,,,,,,,,,,,,,,,,,,,,,,,,,,,
1656265743.889691,33.000000,0.000000,4480.512695,4521.025879,4333.846191,4283.077148,4434.358887,0.000000,4.000000,95.000000,,,,0.000000,4.000000,4.000000,4.000000,4.000000,4.000000,100.000000,,,,,,,,,,,,,,,,,,,,,,,,,,,,,,,,,,,,,,,,,,,,,,,,,,,,,,,,,,,,,,,
1656265743.897606,34.000000,0.000000,4422.563965,4482.051270,4323.077148,4272.307617,4401.025879,0.000000,4.000000,95.000000,,,,0.000000,4.000000,4.000000,4.000000,4.000000,4.000000,100.000000,,,,,,,,,,,,,,,,,,,,,,,,,,,,,,,,,,,,,,,,,,,,,,,,,,,,,,,,,,,,,,,
1656265743.905420,35.000000,0.000000,4460.000000,4495.897461,4341.538574,4315.897461,4425.128418,0.000000,4.000000,95.000000,,,,0.000000,4.000000,4.000000,4.000000,4.000000,4.000000,100.000000,,,,,,,,,,,,,,,,,,,,,,,,,,,,,,,,,,,,,,,,,,,,,,,,,,,,,,,,,,,,,,,
1656265743.913334,36.000000,0.000000,4522.563965,4530.256348,4371.282227,4343.077148,4462.051270,0.000000,4.000000,95.000000,,,,0.000000,4.000000,4.000000,4.000000,4.000000,4.000000,100.000000,,,,,,,,,,,,,,,,,,,,,,,,,,,,,,,,,,,,,,,,,,,,,,,,,,,,,,,,,,,,,,,
1656265743.921149,37.000000,0.000000,4500.512695,4528.717773,4365.641113,4322.563965,4452.307617,0.000000,4.000000,95.000000,,,,0.000000,4.000000,4.000000,4.000000,4.000000,4.000000,100.000000,,,,,,,,,,,,,,,,,,,,,,,,,,,,,,,,,,,,,,,,,,,,,,,,,,,,,,,,,,,,,,,
1656265743.929063,38.000000,0.000000,4454.358887,4521.025879,4337.948730,4304.102539,4434.358887,0.000000,4.000000,95.000000,,,,0.000000,4.000000,4.000000,4.000000,4.000000,4.000000,100.000000,,,,,,,,,,,,,,,,,,,,,,,,,,,,,,,,,,,,,,,,,,,,,,,,,,,,,,,,,,,,,,,
1656265743.936878,39.000000,0.000000,4432.820313,4494.871582,4307.179688,4274.871582,4405.641113,0.000000,4.000000,95.000000,,,,0.000000,4.000000,4.000000,4.000000,4.000000,4.000000,100.000000,,,,,,,,,,,,,,,,,,,,,,,,,,,,,,,,,,,,,,,,,,,,,,,,,,,,,,,,,,,,,,,
1656265743.944792,40.000000,0.000000,4463.077148,4493.333496,4326.666504,4291.282227,4418.461426,0.000000,4.000000,95.000000,,,,0.000000,4.000000,4.000000,4.000000,4.000000,4.000000,100.000000,,,,,,,,,,,,,,,,,,,,,,,,,,,,,,,,,,,,,,,,,,,,,,,,,,,,,,,,,,,,,,,
1656265743.952606,41.000000,0.000000,4505.128418,4527.692383,4366.153809,4346.666504,4468.717773,0.000000,4.000000,95.000000,,,,0.000000,4.000000,4.000000,4.000000,4.000000,4.000000,100.000000,,,,,,,,,,,,,,,,,,,,,,,,,,,,,,,,,,,,,,,9.825084,2.417872,1.763562,11.362208,8.990069,2.550297,1.261386,2.870725,10.293929,8.936355,2.501374,7.553012,2.771414,7.671872,4.613964,6.619410,6.436891,3.079352,5.544414,5.549602,10.335106,4.987621,0.885912,11.748671,8.105257
1656265743.960521,42.000000,0.000000,4500.000000,4535.897461,4362.563965,4341.538574,4474.358887,0.000000,4.000000,95.000000,,,,0.000000,4.000000,4.000000,4.000000,4.000000,4.000000,100.000000,,,,,,,,,,,,,,,,,,,,,,,,,,,,,,,,,,,,,,,,,,,,,,,,,,,,,,,,,,,,,,,
1656265743.968435,43.000000,0.000000,4492.307617,4539.487305,4345.128418,4303.589844,4454.358887,0.000000,4.000000,95.000000,,,,0.000000,4.000000,4.000000,4.000000,4.000000,4.000000,100.000000,,,,,,,,,,,,,,,,,,,,,,,,,,,,,,,,,,,,,,,,,,,,,,,,,,,,,,,,,,,,,,,
1656265743.976249,44.000000,0.000000,4490.256348,4524.102539,4322.563965,4267.179688,4433.846191,0.000000,4.000000,95.000000,,,,0.000000,4.000000,4.000000,4.000000,4.000000,4.000000,100.000000,,,,,,,,,,,,,,,,,,,,,,,,,,,,,,,,,,,,,,,,,,,,,,,,,,,,,,,,,,,,,,,
1656265743.984064,45.000000,0.000000,4478.461426,4506.153809,4325.641113,4271.794922,4433.333496,0.000000,4.000000,95.000000,,,,0.000000,4.000000,4.000000,4.000000,4.000000,4.000000,100.000000,,,,,,,,,,,,,,,,,,,,,,,,,,,,,,,,,,,,,,,,,,,,,,,,,,,,,,,,,,,,,,,
1656265743.991978,46.000000,0.000000,4455.897461,4505.641113,4334.871582,4302.563965,4430.256348,0.000000,4.000000,95.000000,,,,0.000000,4.000000,4.000000,4.000000,4.000000,4.000000,100.000000,,,,,,,,,,,,,,,,,,,,,,,,,,,,,,,,,,,,,,,,,,,,,,,,,,,,,,,,,,,,,,,
1656265743.999892,47.000000,0.000000,4416.410156,4476.922852,4318.461426,4295.384766,4397.948730,0.000000,4.000000,95.000000,,,,0.000000,4.000000,4.000000,4.000000,4.000000,4.000000,100.000000,,,,,,,,,,,,,,,,,,,,,,,,,,,,,,,,,,,,,,,,,,,,,,,,,,,,,,,,,,,,,,,
1656265744.007707,48.000000,0.000000,4438.974121,4478.461426,4330.256348,4306.666504,4412.307617,0.000000,4.000000,95.000000,,,,0.000000,4.000000,4.000000,4.000000,4.000000,4.000000,100.000000,,,,,,,,,,,,,,,,,,,,,,,,,,,,,,,,,,,,,,,,,,,,,,,,,,,,,,,,,,,,,,,
1656265744.015621,49.000000,0.000000,4508.205078,4512.820313,4338.461426,4346.666504,4458.461426,0.000000,4.000000,95.000000,,,,0.000000,4.000000,4.000000,4.000000,4.000000,4.000000,100.000000,,,,,,,,,,,,,,,,,,,,,,,,,,,,,,,,,,,,,,,,,,,,,,,,,,,,,,,,,,,,,,,
1656265744.023435,50.000000,0.000000,4512.820313,4517.436035,4335.384766,4357.436035,4466.153809,0.000000,4.000000,95.000000,,,,0.000000,4.000000,4.000000,4.000000,4.000000,4.000000,100.000000,,,,,,,,,,,,,,,,,,,,,,,,,,,,,,,,,,,,,,,,,,,,,,,,,,,,,,,,,,,,,,,
1656265744.031350,51.000000,0.000000,4456.922852,4484.615234,4322.563965,4332.307617,4437.436035,0.000000,4.000000,95.000000,,,,0.000000,4.000000,4.000000,4.000000,4.000000,4.000000,100.000000,,,,,,,,,,,,,,,,,,,,,,,,,,,,,,,,,,,,,,,,,,,,,,,,,,,,,,,,,,,,,,,
1656265744.039164,52.000000,0.000000,4417.948730,4448.205078,4293.846191,4301.538574,4402.563965,0.000000,4.000000,95.000000,,,,0.000000,4.000000,4.000000,4.000000,4.000000,4.000000,100.000000,,,,,,,,,,,,,,,,,,,,,,,,,,,,,,,,,,,,,,,,,,,,,,,,,,,,,,,,,,,,,,,
1656265744.047078,53.000000,0.000000,4454.358887,4485.641113,4307.179688,4312.820313,4426.666504,0.000000,4.000000,95.000000,,,,0.000000,4.000000,4.000000,4.000000,4.000000,4.000000,100.000000,,,,,,,,,,,,,,,,,,,,,,,,,,,,,,,,,,,,,,,,,,,,,,,,,,,,,,,,,,,,,,,
1656265744.054893,54.000000,0.000000,4508.717773,4535.384766,4318.974121,4332.820313,4470.256348,0.000000,4.000000,95.000000,,,,0.000000,4.000000,4.000000,4.000000,4.000000,4.000000,100.000000,,,,,,,,,,,,,,,,,,,,,,,,,,,,,,,,,,,,,,,,,,,,,,,,,,,,,,,,,,,,,,,
1656265744.062807,55.000000,0.000000,4506.666504,4517.948730,4314.871582,4312.307617,4452.820313,0.000000,4.000000,95.000000,,,,0.000000,4.000000,4.000000,4.000000,4.000000,4.000000,100.000000,,,,,,,,,,,,,,,,,,,,,,,,,,,,,,,,,,,,,,,,,,,,,,,,,,,,,,,,,,,,,,,
1656265744.070622,56.000000,0.000000,4462.051270,4478.974121,4308.205078,4265.641113,4401.538574,0.000000,4.000000,95.000000,,,,0.000000,4.000000,4.000000,4.000000,4.000000,4.000000,100.000000,,,,,,,,,,,,,,,,,,,,,,,,,,,,,,,,,,,,,,,,,,,,,,,,,,,,,,,,,,,,,,,
1656265744.078536,57.000000,0.000000,4414.358887,4454.871582,4280.512695,4250.769043,4380.000000,0.000000,4.000000,95.000000,,,,0.000000,4.000000,4.000000,4.000000,4.000000,4.000000,100.000000,,,,,,,,,,,,,,,,,,,,,,,,,,,,,,,,,,,,,,,7.875389,2.446727,1.281158,10.840723,8.787849,2.810809,1.334452,2.402154,10.177110,9.141061,2.399666,7.559598,1.964407,7.145069,4.500404,6.476773,7.585887,3.102233,5.681004,5.648046,7.488557,4.031432,0.637721,12.323332,7.834864
1656265744.086350,58.000000,0.000000,4442.563965,4481.025879,4296.922852,4296.410156,4421.025879,0.000000,4.000000,95.000000,,,,0.000000,4.000000,4.000000,4.000000,4.000000,4.000000,100.000000,,,,,,,,,,,,,,,,,,,,,,,,,,,,,,,,,,,,,,,,,,,,,,,,,,,,,,,,,,,,,,,
1656265744.094265,59.000000,0.000000,4500.512695,4529.743652,4331.794922,4322.051270,4465.641113,0.000000,4.000000,95.000000,,,,0.000000,4.000000,4.000000,4.000000,4.000000,4.000000,100.000000,,,,,,,,,,,,,,,,,,,,,,,,,,,,,,,,,,,,,,,,,,,,,,,,,,,,,,,,,,,,,,,
1656265744.102079,60.000000,0.000000,4506.153809,4536.922852,4327.179688,4312.307617,4463.589844,0.000000,4.000000,95.000000,,,,0.000000,4.000000,4.000000,4.000000,4.000000,4.000000,100.000000,,,,,,,,,,,,,,,,,,,,,,,,,,,,,,,,,,,,,,,,,,,,,,,,,,,,,,,,,,,,,,,
1656265744.109993,61.000000,0.000000,4486.153809,4519.487305,4309.230957,4316.410156,4449.230957,0.000000,4.000000,95.000000,,,,0.000000,4.000000,4.000000,4.000000,4.000000,4.000000,100.000000,,,,,,,,,,,,,,,,,,,,,,,,,,,,,,,,,,,,,,,,,,,,,,,,,,,,,,,,,,,,,,,
1656265744.117808,62.000000,0.000000,4449.230957,4501.538574,4289.230957,4304.615234,4420.512695,0.000000,4.000000,95.000000,,,,0.000000,4.000000,4.000000,4.000000,4.000000,4.000000,100.000000,,,,,,,,,,,,,,,,,,,,,,,,,,,,,,,,,,,,,,,,,,,,,,,,,,,,,,,,,,,,,,,
1656265744.125722,63.000000,0.000000,4470.769043,4518.461426,4306.666504,4321.538574,4426.666504,0.000000,4.000000,95.000000,,,,0.000000,4.000000,4.000000,4.000000,4.000000,4.000000,100.000000,,,,,,,,,,,,,,,,,,,,,,,,,,,,,,,,,,,,,,,,,,,,,,,,,,,,,,,,,,,,,,,
1656265744.133536,64.000000,0.000000,4505.641113,4521.538574,4349.743652,4356.922852,4452.307617,450.000000,4.000000,95.000000,,,,0.000000,4.000000,4.000000,4.000000,4.000000,4.000000,100.000000,,,,,,,,,,,,,,,,,,,,,,,,,,,,,,,,,,,,,,,,,,,,,,,,,,,,,,,,,,,,,,,
1656265744.141451,65.000000,0.000000,4475.384766,4488.717773,4351.282227,4327.692383,4438.461426,450.000000,4.000000,95.000000,,,,0.000000,4.000000,4.000000,4.000000,4.000000,4.000000,100.000000,,,,,,,,,,,,,,,,,,,,,,,,,,,,,,,,,,,,,,,,,,,,,,,,,,,,,,,,,,,,,,,
1656265744.149365,66.000000,0.000000,4476.922852,4493.333496,4335.897461,4308.717773,4451.282227,16079.000000,4.000000,95.000000,,,,0.000000,4.000000,4.000000,4.000000,4.000000,4.000000,100.000000,,,,,,,,,,,,,,,,,,,,,,,,,,,,,,,,,,,,,,,,,,,,,,,,,,,,,,,,,,,,,,,
1656265744.157179,67.000000,0.000000,4497.436035,4511.282227,4329.743652,4323.077148,4465.128418,450.000000,4.000000,95.000000,,,,0.000000,4.000000,4.000000,4.000000,4.000000,4.000000,100.000000,,,,,,,,,,,,,,,,,,,,,,,,,,,,,,,,,,,,,,,,,,,,,,,,,,,,,,,,,,,,,,,
1656265744.165094,68.000000,0.000000,4498.461426,4510.769043,4332.820313,4315.384766,4445.641113,16083.000000,4.000000,95.000000,,,,0.000000,4.000000,4.000000,4.000000,4.000000,4.000000,100.000000,,,,,,,,,,,,,,,,,,,,,,,,,,,,,,,,,,,,,,,,,,,,,,,,,,,,,,,,,,,,,,,
1656265744.172908,69.000000,0.000000,4482.563965,4476.922852,4338.461426,4300.000000,4424.102539,450.000000,4.000000,95.000000,,,,0.000000,4.000000,4.000000,4.000000,4.000000,4.000000,100.000000,,,,,,,,,,,,,,,,,,,,,,,,,,,,,,,,,,,,,,,,,,,,,,,,,,,,,,,,,,,,,,,
1656265744.180822,70.000000,0.000000,4452.307617,4450.769043,4331.794922,4305.641113,4414.358887,307.000000,4.000000,95.000000,,,,0.000000,4.000000,4.000000,2.000000,4.000000,4.000000,83.333336,,,,,,,,,,,,,,,,,,,,,,,,,,,,,,,,,,,,,,,,,,,,,,,,,,,,,,,,,,,,,,,
1656265744.188637,71.000000,0.000000,4480.512695,4492.820313,4340.000000,4328.717773,4432.307617,450.000000,4.000000,95.000000,,,,0.000000,4.000000,4.000000,2.000000,4.000000,4.000000,83.333336,,,,,,,,,,,,,,,,,,,,,,,,,,,,,,,,,,,,,,,,,,,,,,,,,,,,,,,,,,,,,,,
1656265744.196551,72.000000,0.000000,4535.897461,4516.922852,4358.974121,4327.692383,4445.641113,450.000000,4.000000,95.000000,,,,0.000000,4.000000,4.000000,2.000000,4.000000,4.000000,83.333336,,,,,,,,,,,,,,,,,,,,,,,,,,,,,,,,,,,,,,,,,,,,,,,,,,,,,,,,,,,,,,,
1656265744.204366,73.000000,0.000000,4545.641113,4496.410156,4375.897461,4333.333496,4460.000000,319.000000,4.000000,95.000000,,,,0.000000,4.000000,4.000000,2.000000,4.000000,4.000000,83.333336,,,,,,,,,,,,,,,,,,,,,,,,,,,,,,,,,,,,,,,7.391834,2.777386,1.019405,10.261097,8.862259,3.637416,1.540080,1.847230,10.017954,9.355562,3.243766,7.439227,1.505763,6.405693,4.211040,6.248734,8.432052,2.910930,5.656271,5.663267,5.778560,3.498267,0.624093,12.463372,7.574983
1656265744.212280,74.000000,0.000000,4509.743652,4495.384766,4369.230957,4340.512695,4457.948730,450.000000,4.000000,95.000000,,,,0.000000,4.000000,4.000000,2.000000,4.000000,4.000000,83.333336,,,,,,,,,,,,,,,,,,,,,,,,,,,,,,,,,,,,,,,,,,,,,,,,,,,,,,,,,,,,,,,
1656265744.220094,75.000000,0.000000,4469.230957,4481.025879,4333.846191,4298.461426,4431.794922,16211.000000,4.000000,95.000000,,,,0.000000,4.000000,4.000000,2.000000,4.000000,4.000000,83.333336,,,,,,,,,,,,,,,,,,,,,,,,,,,,,,,,,,,,,,,,,,,,,,,,,,,,,,,,,,,,,,,
1656265744.228009,76.000000,0.000000,4502.563965,4473.333496,4334.358887,4297.948730,4463.077148,450.000000,4.000000,95.000000,,,,0.000000,4.000000,4.000000,2.000000,4.000000,4.000000,83.333336,,,,,,,,,,,,,,,,,,,,,,,,,,,,,,,,,,,,,,,,,,,,,,,,,,,,,,,,,,,,,,,
1656265744.235823,77.000000,0.000000,4576.410156,4516.410156,4342.563965,4345.641113,4505.128418,450.000000,4.000000,95.000000,,,,0.000000,4.000000,4.000000,2.000000,4.000000,4.000000,83.333336,,,,,,,,,,,,,,,,,,,,,,,,,,,,,,,,,,,,,,,,,,,,,,,,,,,,,,,,,,,,,,,
1656265744.243737,78.000000,0.000000,4568.717773,4534.871582,4334.358887,4347.692383,4488.205078,450.000000,4.000000,95.000000,,,,0.000000,4.000000,4.000000,2.000000,4.000000,4.000000,83.333336,,,,,,,,,,,,,,,,,,,,,,,,,,,,,,,,,,,,,,,,,,,,,,,,,,,,,,,,,,,,,,,
1656265744.251552,79.000000,0.000000,4489.230957,4512.820313,4329.230957,4330.256348,4455.897461,16211.000000,4.000000,95.000000,,,,0.000000,4.000000,4.000000,2.000000,4.000000,4.000000,83.333336,,,,,,,,,,,,,,,,,,,,,,,,,,,,,,,,,,,,,,,,,,,,,,,,,,,,,,,,,,,,,,,
1656265744.259466,80.000000,0.000000,4456.922852,4481.538574,4309.230957,4328.205078,4442.563965,450.000000,4.000000,95.000000,,,,0.000000,4.000000,4.000000,2.000000,4.000000,4.000000,83.333336,,,,,,,,,,,,,,,,,,,,,,,,,,,,,,,,,,,,,,,,,,,,,,,,,,,,,,,,,,,,,,,
1656265744.267380,81.000000,0.000000,4503.077148,4492.307617,4323.077148,4349.230957,4468.717773,450.000000,4.000000,95.000000,,,,0.000000,4.000000,4.000000,2.000000,4.000000,4.000000,83.333336,,,,,,,,,,,,,,,,,,,,,,,,,,,,,,,,,,,,,,,,,,,,,,,,,,,,,,,,,,,,,,,
1656265744.275195,82.000000,0.000000,4541.025879,4545.641113,4353.846191,4360.512695,4502.563965,450.000000,4.000000,95.000000,,,,0.000000,4.000000,4.000000,2.000000,4.000000,4.000000,83.333336,,,,,,,,,,,,,,,,,,,,,,,,,,,,,,,,,,,,,,,,,,,,,,,,,,,,,,,,,,,,,,,
1656265744.283009,83.000000,0.000000,4532.820313,4551.794922,4358.974121,4348.205078,4501.538574,16211.000000,4.000000,95.000000,,,,0.000000,4.000000,4.000000,2.000000,4.000000,4.000000,83.333336,,,,,,,,,,,,,,,,,,,,,,,,,,,,,,,,,,,,,,,,,,,,,,,,,,,,,,,,,,,,,,,
1656265744.290923,84.000000,0.000000,4511.794922,4507.692383,4354.871582,4350.769043,4490.769043,450.000000,4.000000,95.000000,,,,0.000000,4.000000,4.000000,2.000000,4.000000,4.000000,83.333336,,,,,,,,,,,,,,,,,,,,,,,,,,,,,,,,,,,,,,,,,,,,,,,,,,,,,,,,,,,,,,,
1656265744.298738,85.000000,0.000000,4489.230957,4469.743652,4327.179688,4335.897461,4472.820313,450.000000,4.000000,95.000000,,,,0.000000,4.000000,4.000000,2.000000,4.000000,4.000000,83.333336,,,,,,,,,,,,,,,,,,,,,,,,,,,,,,,,,,,,,,,,,,,,,,,,,,,,,,,,,,,,,,,
1656265744.306652,86.000000,0.000000,4506.153809,4506.153809,4330.769043,4324.102539,4469.230957,450.000000,4.000000,95.000000,,,,0.000000,4.000000,4.000000,2.000000,4.000000,4.000000,83.333336,,,,,,,,,,,,,,,,,,,,,,,,,,,,,,,,,,,,,,,,,,,,,,,,,,,,,,,,,,,,,,,
1656265744.314467,87.000000,0.000000,4533.846191,4530.256348,4364.102539,4334.871582,4480.000000,16211.000000,4.000000,95.000000,,,,0.000000,4.000000,4.000000,2.000000,4.000000,4.000000,83.333336,,,,,,,,,,,,,,,,,,,,,,,,,,,,,,,,,,,,,,,,,,,,,,,,,,,,,,,,,,,,,,,
1656265744.322381,88.000000,0.000000,4511.282227,4488.717773,4357.436035,4331.794922,4464.615234,450.000000,4.000000,95.000000,,,,0.000000,4.000000,4.000000,2.000000,4.000000,4.000000,83.333336,,,,,,,,,,,,,,,,,,,,,,,,,,,,,,,,,,,,,,,,,,,,,,,,,,,,,,,,,,,,,,,
1656265744.330195,89.000000,0.000000,4521.025879,4495.384766,4353.846191,4335.897461,4460.000000,450.000000,4.000000,95.000000,,,,0.000000,4.000000,4.000000,2.000000,4.000000,4.000000,83.333336,1.000000,66.666664,3.000000,3.000000,2.000000,3.000000,3.000000,,,,,,,,,,,,,,,,,,,,,,,,,,,,,,,,7.644093,3.152122,0.909978,9.733438,9.121260,5.123087,1.835971,1.356506,9.728037,9.411952,5.207788,6.955392,1.482205,5.655865,3.819870,6.341669,8.684764,2.538455,5.595719,5.606436,4.762609,3.130897,0.742885,12.137866,7.297264
1656265744.338110,90.000000,0.000000,4540.512695,4518.461426,4361.538574,4333.333496,4459.487305,450.000000,4.000000,95.000000,,,,0.000000,4.000000,4.000000,2.000000,4.000000,4.000000,83.333336,,,,,,,,,,,,,,,,,,,,,,,,,,,,,,,,,,,,,,,,,,,,,,,,,,,,,,,,,,,,,,,
1656265744.345924,91.000000,0.000000,4523.589844,4508.205078,4363.077148,4323.589844,4442.051270,16211.000000,4.000000,95.000000,,,,0.000000,4.000000,4.000000,2.000000,4.000000,4.000000,83.333336,,,,,,,,,,,,,,,,,,,,,,,,,,,,,,,,,,,,,,,,,,,,,,,,,,,,,,,,,,,,,,,
1656265744.353838,92.000000,0.000000,4504.102539,4490.769043,4348.205078,4314.871582,4436.410156,450.000000,4.000000,95.000000,,,,0.000000,4.000000,4.000000,2.000000,4.000000,4.000000,83.333336,,,,,,,,,,,,,,,,,,,,,,,,,,,,,,,,,,,,,,,,,,,,,,,,,,,,,,,,,,,,,,,
1656265744.361653,93.000000,0.000000,4477.948730,4473.333496,4323.589844,4292.820313,4438.461426,450.000000,4.000000,95.000000,,,,0.000000,4.000000,4.000000,2.000000,4.000000,4.000000,83.333336,,,,,,,,,,,,,,,,,,,,,,,,,,,,,,,,,,,,,,,,,,,,,,,,,,,,,,,,,,,,,,,
1656265744.369567,94.000000,0.000000,4512.820313,4497.948730,4342.051270,4313.846191,4464.615234,450.000000,4.000000,95.000000,,,,0.000000,4.000000,4.000000,2.000000,4.000000,4.000000,83.333336,,,,,,,,,,,,,,,,,,,,,,,,,,,,,,,,,,,,,,,,,,,,,,,,,,,,,,,,,,,,,,,
1656265744.377381,95.000000,0.000000,4561.538574,4529.230957,4368.205078,4335.897461,4473.333496,16211.000000,4.000000,95.000000,,,,0.000000,4.000000,4.000000,2.000000,4.000000,4.000000,83.333336,,,,,,,,,,,,,,,,,,,,,,,,,,,,,,,,,,,,,,,,,,,,,,,,,,,,,,,,,,,,,,,
1656265744.385296,96.000000,0.000000,4548.205078,4516.922852,4361.025879,4317.948730,4462.563965,450.000000,4.000000,95.000000,,,,0.000000,4.000000,4.000000,2.000000,4.000000,4.000000,83.333336,,,,,,,,,,,,,,,,,,,,,,,,,,,,,,,,,,,,,,,,,,,,,,,,,,,,,,,,,,,,,,,
1656265744.393110,97.000000,0.000000,4509.230957,4491.794922,4330.256348,4295.384766,4463.589844,450.000000,4.000000,95.000000,,,,0.000000,4.000000,4.000000,2.000000,4.000000,4.000000,83.333336,,,,,,,,,,,,,,,,,,,,,,,,,,,,,,,,,,,,,,,,,,,,,,,,,,,,,,,,,,,,,,,
1656265744.401024,98.000000,0.000000,4458.974121,4472.307617,4301.538574,4282.563965,4426.666504,450.000000,4.000000,95.000000,,,,0.000000,4.000000,4.000000,2.000000,4.000000,4.000000,83.333336,,,,,,,,,,,,,,,,,,,,,,,,,,,,,,,,,,,,,,,,,,,,,,,,,,,,,,,,,,,,,,,
1656265744.408839,99.000000,0.000000,4473.846191,4496.410156,4337.436035,4307.179688,4411.794922,16211.000000,4.000000,95.000000,,,,0.000000,4.000000,4.000000,2.000000,4.000000,4.000000,83.333336,,,,,,,,,,,,,,,,,,,,,,,,,,,,,,,,,,,,,,,,,,,,,,,,,,,,,,,,,,,,,,,
1656265744.416753,100.000000,0.000000,4535.384766,4536.410156,4376.410156,4320.000000,4454.871582,450.000000,4.000000,95.000000,,,,0.000000,4.000000,4.000000,2.000000,4.000000,4.000000,83.333336,,,,,,,,,,,,,,,,,,,,,,,,,,,,,,,,,,,,,,,,,,,,,,,,,,,,,,,,,,,,,,,
1656265744.424568,101.000000,0.000000,4535.384766,4526.666504,4357.948730,4299.487305,4472.307617,450.000000,4.000000,95.000000,,,,0.000000,4.000000,4.000000,2.000000,4.000000,4.000000,83.333336,,,,,,,,,,,,,,,,,,,,,,,,,,,,,,,,,,,,,,,,,,,,,,,,,,,,,,,,,,,,,,,
1656265744.432482,102.000000,0.000000,4493.846191,4493.333496,4340.000000,4302.563965,4438.974121,450.000000,4.000000,95.000000,,,,0.000000,4.000000,4.000000,2.000000,4.000000,4.000000,83.333336,,,,,,,,,,,,,,,,,,,,,,,,,,,,,,,,,,,,,,,,,,,,,,,,,,,,,,,,,,,,,,,
1656265744.440396,103.000000,0.000000,4469.743652,4461.025879,4336.410156,4296.410156,4395.897461,16211.000000,4.000000,95.000000,,,,0.000000,4.000000,4.000000,2.000000,4.000000,4.000000,83.333336,,,,,,,,,,,,,,,,,,,,,,,,,,,,,,,,,,,,,,,,,,,,,,,,,,,,,,,,,,,,,,,
1656265744.448211,104.000000,0.000000,4496.922852,4481.538574,4340.512695,4295.897461,4432.307617,450.000000,4.000000,95.000000,,,,0.000000,4.000000,4.000000,2.000000,4.000000,4.000000,83.333336,,,,,,,,,,,,,,,,,,,,,,,,,,,,,,,,,,,,,,,,,,,,,,,,,,,,,,,,,,,,,,,
1656265744.456025,105.000000,0.000000,4529.743652,4526.153809,4334.358887,4341.025879,4496.410156,450.000000,4.000000,95.000000,,,,0.000000,4.000000,4.000000,2.000000,4.000000,4.000000,83.333336,,,,,,,,,,,,,,,,,,,,,,,,,,,,,,,,,,,,,,,8.407675,3.363153,0.950337,9.401621,9.415030,7.064350,2.130913,1.045943,9.257659,9.148397,8.307687,6.054073,1.795272,5.048025,3.414098,6.982385,8.375986,2.135555,5.615287,5.491800,4.431603,2.736670,1.019172,11.453973,6.965225
1656265744.463939,106.000000,0.000000,4507.692383,4522.051270,4327.179688,4359.487305,4478.974121,450.000000,4.000000,95.000000,,,,0.000000,4.000000,4.000000,2.000000,4.000000,4.000000,83.333336,,,,,,,,,,,,,,,,,,,,,,,,,,,,,,,,,,,,,,,,,,,,,,,,,,,,,,,,,,,,,,,
1656265744.471854,107.000000,0.000000,4474.358887,4500.512695,4335.897461,4326.153809,4432.307617,16211.000000,4.000000,95.000000,,,,0.000000,4.000000,4.000000,2.000000,4.000000,4.000000,83.333336,,,,,,,,,,,,,,,,,,,,,,,,,,,,,,,,,,,,,,,,,,,,,,,,,,,,,,,,,,,,,,,
1656265744.479668,108.000000,0.000000,4468.205078,4480.512695,4326.666504,4300.512695,4413.333496,450.000000,4.000000,95.000000,,,,0.000000,4.000000,4.000000,2.000000,4.000000,4.000000,83.333336,,,,,,,,,,,,,,,,,,,,,,,,,,,,,,,,,,,,,,,,,,,,,,,,,,,,,,,,,,,,,,,
1656265744.487582,109.000000,0.000000,4491.794922,4497.436035,4328.717773,4315.897461,4433.333496,450.000000,4.000000,95.000000,,,,0.000000,4.000000,4.000000,2.000000,4.000000,4.000000,83.333336,,,,,,,,,,,,,,,,,,,,,,,,,,,,,,,,,,,,,,,,,,,,,,,,,,,,,,,,,,,,,,,
1656265744.495397,110.000000,0.000000,4506.153809,4517.948730,4330.769043,4327.692383,4461.025879,450.000000,4.000000,95.000000,,,,0.000000,4.000000,4.000000,2.000000,4.000000,4.000000,83.333336,,,,,,,,,,,,,,,,,,,,,,,,,,,,,,,,,,,,,,,,,,,,,,,,,,,,,,,,,,,,,,,
1656265744.503311,111.000000,0.000000,4483.077148,4491.282227,4305.128418,4310.769043,4439.487305,16211.000000,4.000000,95.000000,,,,0.000000,4.000000,4.000000,2.000000,4.000000,4.000000,83.333336,,,,,,,,,,,,,,,,,,,,,,,,,,,,,,,,,,,,,,,,,,,,,,,,,,,,,,,,,,,,,,,
1656265744.511125,112.000000,0.000000,4486.153809,4485.128418,4310.769043,4315.384766,4427.692383,450.000000,4.000000,95.000000,,,,0.000000,4.000000,4.000000,2.000000,4.000000,4.000000,83.333336,,,,,,,,,,,,,,,,,,,,,,,,,,,,,,,,,,,,,,,,,,,,,,,,,,,,,,,,,,,,,,,
1656265744.519040,113.000000,0.000000,4515.384766,4495.897461,4336.410156,4313.333496,4444.615234,450.000000,4.000000,95.000000,,,,0.000000,4.000000,4.000000,2.000000,4.000000,4.000000,83.333336,,,,,,,,,,,,,,,,,,,,,,,,,,,,,,,,,,,,,,,,,,,,,,,,,,,,,,,,,,,,,,,
1656265744.526854,114.000000,0.000000,4526.666504,4491.282227,4348.205078,4296.410156,4454.358887,450.000000,4.000000,95.000000,,,,0.000000,4.000000,4.000000,2.000000,4.000000,4.000000,83.333336,,,,,,,,,,,,,,,,,,,,,,,,,,,,,,,,,,,,,,,,,,,,,,,,,,,,,,,,,,,,,,,
1656265744.534768,115.000000,0.000000,4494.871582,4474.871582,4332.307617,4288.205078,4448.205078,16211.000000,4.000000,95.000000,,,,0.000000,4.000000,4.000000,2.000000,4.000000,4.000000,83.333336,,,,,,,,,,,,,,,,,,,,,,,,,,,,,,,,,,,,,,,,,,,,,,,,,,,,,,,,,,,,,,,
1656265744.542583,116.000000,0.000000,4449.743652,4462.563965,4309.230957,4284.615234,4421.025879,450.000000,4.000000,95.000000,,,,0.000000,4.000000,4.000000,2.000000,4.000000,4.000000,83.333336,,,,,,,,,,,,,,,,,,,,,,,,,,,,,,,,,,,,,,,,,,,,,,,,,,,,,,,,,,,,,,,
1656265744.550397,117.000000,0.000000,4486.153809,4494.358887,4325.641113,4311.794922,4430.769043,450.000000,4.000000,95.000000,,,,0.000000,4.000000,4.000000,2.000000,4.000000,4.000000,83.333336,,,,,,,,,,,,,,,,,,,,,,,,,,,,,,,,,,,,,,,,,,,,,,,,,,,,,,,,,,,,,,,
1656265744.558312,118.000000,0.000000,4535.384766,4524.102539,4348.205078,4324.102539,4464.615234,450.000000,4.000000,95.000000,,,,0.000000,4.000000,4.000000,2.000000,4.000000,4.000000,83.333336,,,,,,,,,,,,,,,,,,,,,,,,,,,,,,,,,,,,,,,,,,,,,,,,,,,,,,,,,,,,,,,
1656265744.566226,119.000000,0.000000,4527.179688,4518.974121,4337.948730,4310.769043,4476.922852,16211.000000,4.000000,95.000000,,,,0.000000,4.000000,4.000000,2.000000,4.000000,4.000000,83.333336,,,,,,,,,,,,,,,,,,,,,,,,,,,,,,,,,,,,,,,,,,,,,,,,,,,,,,,,,,,,,,,
1656265744.574040,120.000000,0.000000,4506.666504,4490.769043,4295.384766,4307.692383,4465.641113,450.000000,4.000000,95.000000,,,,0.000000,4.000000,4.000000,2.000000,4.000000,4.000000,83.333336,,,,,,,,,,,,,,,,,,,,,,,,,,,,,,,,,,,,,,,,,,,,,,,,,,,,,,,,,,,,,,,
1656265744.581955,121.000000,0.000000,4468.205078,4444.615234,4261.538574,4278.974121,4427.179688,450.000000,4.000000,95.000000,,,,0.000000,4.000000,4.000000,2.000000,4.000000,4.000000,83.333336,,,,,,,,,,,,,,,,,,,,,,,,,,,,,,,,,,,,,,,9.489586,3.385965,1.127326,9.400749,9.603243,9.022677,2.317194,0.951161,8.650455,8.509915,11.898184,4.904244,2.228700,4.645848,3.066171,7.893287,7.787707,1.892691,5.721066,5.314106,4.730432,2.308076,1.478494,10.583824,6.549437
1656265744.589769,122.000000,0.000000,4469.230957,4469.743652,4289.743652,4273.846191,4432.820313,450.000000,4.000000,95.000000,,,,0.000000,4.000000,4.000000,2.000000,4.000000,4.000000,83.333336,,,,,,,,,,,,,,,,,,,,,,,,,,,,,,,,,,,,,,,,,,,,,,,,,,,,,,,,,,,,,,,
1656265744.597583,123.000000,0.000000,4518.974121,4537.948730,4311.794922,4314.871582,4460.000000,16211.000000,4.000000,95.000000,,,,0.000000,4.000000,4.000000,2.000000,4.000000,4.000000,83.333336,,,,,,,,,,,,,,,,,,,,,,,,,,,,,,,,,,,,,,,,,,,,,,,,,,,,,,,,,,,,,,,
1656265744.605498,124.000000,0.000000,4507.692383,4522.051270,4300.512695,4326.666504,4440.000000,450.000000,4.000000,95.000000,,,,0.000000,4.000000,4.000000,2.000000,4.000000,4.000000,83.333336,,,,,,,,,,,,,,,,,,,,,,,,,,,,,,,,,,,,,,,,,,,,,,,,,,,,,,,,,,,,,,,
1656265744.613412,125.000000,0.000000,4442.051270,4462.563965,4301.538574,4303.589844,4414.871582,450.000000,4.000000,95.000000,,,,0.000000,4.000000,4.000000,2.000000,4.000000,4.000000,83.333336,,,,,,,,,,,,,,,,,,,,,,,,,,,,,,,,,,,,,,,,,,,,,,,,,,,,,,,,,,,,,,,
1656265744.621226,126.000000,0.000000,4416.922852,4438.974121,4280.512695,4276.410156,4407.179688,450.000000,4.000000,95.000000,,,,0.000000,4.000000,4.000000,2.000000,4.000000,4.000000,83.333336,,,,,,,,,,,,,,,,,,,,,,,,,,,,,,,,,,,,,,,,,,,,,,,,,,,,,,,,,,,,,,,
1656265744.629141,127.000000,0.000000,4476.410156,4469.230957,4290.256348,4300.000000,4434.358887,243.000000,4.000000,95.000000,,,,0.000000,4.000000,4.000000,2.000000,4.000000,4.000000,83.333336,,,,,,,,,,,,,,,,,,,,,,,,,,,,,,,,,,,,,,,,,,,,,,,,,,,,,,,,,,,,,,,
1656265744.636955,0.000000,0.000000,4522.051270,4516.410156,4341.025879,4333.333496,4463.589844,450.000000,4.000000,95.000000,,,,0.000000,4.000000,4.000000,2.000000,4.000000,4.000000,83.333336,,,,,,,,,,,,,,,,,,,,,,,,,,,,,,,,,,,,,,,,,,,,,,,,,,,,,,,,,,,,,,,
1656265744.644869,1.000000,0.000000,4493.846191,4521.025879,4337.436035,4315.384766,4452.820313,450.000000,4.000000,95.000000,,,,0.000000,4.000000,4.000000,2.000000,4.000000,4.000000,83.333336,,,,,,,,,,,,,,,,,,,,,,,,,,,,,,,,,,,,,,,,,,,,,,,,,,,,,,,,,,,,,,,
1656265744.652784,2.000000,0.000000,4474.871582,4497.948730,4306.666504,4309.743652,4438.461426,16080.000000,4.000000,95.000000,,,,0.000000,4.000000,4.000000,2.000000,4.000000,4.000000,83.333336,,,,,,,,,,,,,,,,,,,,,,,,,,,,,,,,,,,,,,,,,,,,,,,,,,,,,,,,,,,,,,,
1656265744.660598,3.000000,0.000000,4469.743652,4474.358887,4294.358887,4307.179688,4426.153809,450.000000,4.000000,95.000000,,,,0.000000,4.000000,4.000000,2.000000,4.000000,4.000000,83.333336,,,,,,,,,,,,,,,,,,,,,,,,,,,,,,,,,,,,,,,,,,,,,,,,,,,,,,,,,,,,,,,
1656265744.668512,4.000000,0.000000,4470.769043,4485.128418,4316.922852,4292.307617,4433.333496,315.000000,4.000000,95.000000,,,,0.000000,4.000000,2.000000,4.000000,4.000000,4.000000,83.333336,,,,,,,,,,,,,,,,,,,,,,,,,,,,,,,,,,,,,,,,,,,,,,,,,,,,,,,,,,,,,,,
1656265744.676327,5.000000,0.000000,4469.230957,4496.410156,4325.641113,4289.230957,4442.051270,450.000000,4.000000,95.000000,,,,0.000000,4.000000,2.000000,4.000000,4.000000,4.000000,83.333336,,,,,,,,,,,,,,,,,,,,,,,,,,,,,,,,,,,,,,,,,,,,,,,,,,,,,,,,,,,,,,,
1656265744.684141,6.000000,0.000000,4450.256348,4469.743652,4295.384766,4297.436035,4416.922852,16105.000000,4.000000,95.000000,,,,0.000000,4.000000,2.000000,4.000000,4.000000,4.000000,83.333336,,,,,,,,,,,,,,,,,,,,,,,,,,,,,,,,,,,,,,,,,,,,,,,,,,,,,,,,,,,,,,,
1656265744.692056,7.000000,0.000000,4471.282227,4484.615234,4318.974121,4308.717773,4405.641113,450.000000,4.000000,95.000000,,,,0.000000,4.000000,2.000000,4.000000,4.000000,4.000000,83.333336,,,,,,,,,,,,,,,,,,,,,,,,,,,,,,,,,,,,,,,,,,,,,,,,,,,,,,,,,,,,,,,
1656265744.699970,8.000000,0.000000,4490.769043,4514.358887,4358.461426,4285.641113,4411.794922,450.000000,4.000000,95.000000,,,,0.000000,4.000000,2.000000,4.000000,4.000000,4.000000,83.333336,,,,,,,,,,,,,,,,,,,,,,,,,,,,,,,,,,,,,,,,,,,,,,,,,,,,,,,,,,,,,,,
1656265744.707784,9.000000,0.000000,4482.051270,4510.769043,4337.436035,4279.487305,4427.179688,16101.000000,4.000000,95.000000,,,,0.000000,4.000000,2.000000,4.000000,4.000000,4.000000,83.333336,,,,,,,,,,,,,,,,,,,,,,,,,,,,,,,,,,,,,,,10.290139,3.242502,1.363493,9.764224,9.624715,10.483152,2.326252,1.017861,8.021544,7.592786,14.900151,3.749621,2.579046,4.402011,2.810704,8.715176,7.245495,1.897361,5.819092,5.039955,5.267581,1.943691,2.074766,9.692919,6.047441
1656265744.715699,10.000000,0.000000,4451.282227,4488.205078,4280.000000,4306.666504,4427.179688,450.000000,4.000000,95.000000,,,,0.000000,4.000000,2.000000,4.000000,4.000000,4.000000,83.333336,,,,,,,,,,,,,,,,,,,,,,,,,,,,,,,,,,,,,,,,,,,,,,,,,,,,,,,,,,,,,,,
1656265744.723513,11.000000,0.000000,4399.487305,4448.205078,4267.179688,4286.666504,4389.743652,16185.000000,4.000000,95.000000,,,,0.000000,4.000000,2.000000,4.000000,4.000000,4.000000,83.333336,,,,,,,,,,,,,,,,,,,,,,,,,,,,,,,,,,,,,,,,,,,,,,,,,,,,,,,,,,,,,,,
1656265744.731427,12.000000,0.000000,4443.589844,4465.641113,4328.205078,4273.333496,4410.256348,450.000000,4.000000,95.000000,,,,0.000000,4.000000,2.000000,4.000000,4.000000,4.000000,83.333336,,,,,,,,,,,,,,,,,,,,,,,,,,,,,,,,,,,,,,,,,,,,,,,,,,,,,,,,,,,,,,,
1656265744.739242,13.000000,0.000000,4526.153809,4521.538574,4339.487305,4292.307617,4471.794922,450.000000,4.000000,95.000000,,,,0.000000,4.000000,2.000000,4.000000,4.000000,4.000000,83.333336,,,,,,,,,,,,,,,,,,,,,,,,,,,,,,,,,,,,,,,,,,,,,,,,,,,,,,,,,,,,,,,
1656265744.747156,14.000000,0.000000,4503.589844,4524.102539,4298.974121,4295.897461,4461.025879,450.000000,4.000000,95.000000,,,,0.000000,4.000000,2.000000,4.000000,4.000000,4.000000,83.333336,,,,,,,,,,,,,,,,,,,,,,,,,,,,,,,,,,,,,,,,,,,,,,,,,,,,,,,,,,,,,,,
1656265744.754970,15.000000,0.000000,4447.179688,4488.717773,4287.692383,4276.410156,4407.179688,16185.000000,4.000000,95.000000,,,,0.000000,4.000000,2.000000,4.000000,4.000000,4.000000,83.333336,,,,,,,,,,,,,,,,,,,,,,,,,,,,,,,,,,,,,,,,,,,,,,,,,,,,,,,,,,,,,,,
1656265744.762885,16.000000,0.000000,4411.282227,4449.230957,4274.358887,4237.436035,4378.974121,0.000000,4.000000,95.000000,,,,0.000000,4.000000,2.000000,4.000000,4.000000,4.000000,83.333336,,,,,,,,,,,,,,,,,,,,,,,,,,,,,,,,,,,,,,,,,,,,,,,,,,,,,,,,,,,,,,,
1656265744.770699,17.000000,0.000000,4428.205078,4455.384766,4290.256348,4241.538574,4407.179688,0.000000,4.000000,95.000000,,,,0.000000,4.000000,2.000000,4.000000,4.000000,4.000000,83.333336,,,,,,,,,,,,,,,,,,,,,,,,,,,,,,,,,,,,,,,,,,,,,,,,,,,,,,,,,,,,,,,
1656265744.778613,18.000000,0.000000,4482.563965,4503.589844,4328.205078,4278.974121,4434.358887,0.000000,4.000000,95.000000,,,,0.000000,4.000000,2.000000,4.000000,4.000000,4.000000,83.333336,,,,,,,,,,,,,,,,,,,,,,,,,,,,,,,,,,,,,,,,,,,,,,,,,,,,,,,,,,,,,,,
1656265744.786428,19.000000,0.000000,4492.307617,4520.512695,4327.179688,4292.820313,4424.615234,0.000000,4.000000,95.000000,,,,0.000000,4.000000,2.000000,4.000000,4.000000,4.000000,83.333336,,,,,,,,,,,,,,,,,,,,,,,,,,,,,,,,,,,,,,,,,,,,,,,,,,,,,,,,,,,,,,,
1656265744.794342,20.000000,0.000000,4458.461426,4494.358887,4310.256348,4300.512695,4417.948730,0.000000,4.000000,95.000000,,,,0.000000,4.000000,2.000000,4.000000,4.000000,4.000000,83.333336,,,,,,,,,,,,,,,,,,,,,,,,,,,,,,,,,,,,,,,,,,,,,,,,,,,,,,,,,,,,,,,
1656265744.802256,21.000000,0.000000,4430.256348,4462.051270,4301.538574,4278.974121,4395.897461,0.000000,4.000000,95.000000,,,,0.000000,4.000000,2.000000,4.000000,4.000000,4.000000,83.333336,,,,,,,,,,,,,,,,,,,,,,,,,,,,,,,,,,,,,,,,,,,,,,,,,,,,,,,,,,,,,,,
1656265744.810071,22.000000,0.000000,4455.897461,4483.589844,4306.666504,4268.717773,4411.794922,0.000000,4.000000,95.000000,,,,0.000000,4.000000,2.000000,4.000000,4.000000,4.000000,83.333336,,,,,,,,,,,,,,,,,,,,,,,,,,,,,,,,,,,,,,,,,,,,,,,,,,,,,,,,,,,,,,,
1656265744.817885,23.000000,0.000000,4494.871582,4506.666504,4316.922852,4300.512695,4449.230957,0.000000,4.000000,95.000000,,,,0.000000,4.000000,2.000000,4.000000,4.000000,4.000000,83.333336,,,,,,,,,,,,,,,,,,,,,,,,,,,,,,,,,,,,,,,,,,,,,,,,,,,,,,,,,,,,,,,
1656265744.825800,24.000000,0.000000,4491.282227,4473.333496,4328.717773,4300.000000,4428.717773,0.000000,4.000000,95.000000,,,,0.000000,4.000000,2.000000,4.000000,4.000000,4.000000,83.333336,,,,,,,,,,,,,,,,,,,,,,,,,,,,,,,,,,,,,,,,,,,,,,,,,,,,,,,,,,,,,,,
1656265744.833614,25.000000,0.000000,4485.128418,4475.384766,4316.410156,4278.974121,4437.436035,0.000000,4.000000,95.000000,,,,0.000000,4.000000,2.000000,4.000000,4.000000,4.000000,83.333336,1.000000,58.333332,3.000000,2.000000,2.000000,3.000000,3.000000,,,,,,,,,,,,,,,,,,,,,,,,,,,,,,,,10.316082,2.980015,1.568650,10.369517,9.498110,11.050428,2.149161,1.151367,7.512521,6.615869,16.550518,2.836158,2.735235,4.217516,2.643714,9.120320,6.895514,2.077185,5.792228,4.646953,5.739479,1.750734,2.691334,8.898597,5.507474
1656265744.841528,26.000000,0.000000,4475.897461,4503.077148,4266.666504,4273.846191,4466.666504,0.000000,4.000000,95.000000,,,,0.000000,4.000000,2.000000,4.000000,4.000000,4.000000,83.333336,,,,,,,,,,,,,,,,,,,,,,,,,,,,,,,,,,,,,,,,,,,,,,,,,,,,,,,,,,,,,,,
1656265744.849343,27.000000,0.000000,4476.922852,4505.641113,4278.974121,4278.974121,4450.769043,0.000000,4.000000,95.000000,,,,0.000000,4.000000,2.000000,4.000000,4.000000,4.000000,83.333336,,,,,,,,,,,,,,,,,,,,,,,,,,,,,,,,,,,,,,,,,,,,,,,,,,,,,,,,,,,,,,,
1656265744.857257,28.000000,0.000000,4474.871582,4478.461426,4323.077148,4262.563965,4406.153809,0.000000,4.000000,95.000000,,,,0.000000,4.000000,2.000000,4.000000,4.000000,4.000000,83.333336,,,,,,,,,,,,,,,,,,,,,,,,,,,,,,,,,,,,,,,,,,,,,,,,,,,,,,,,,,,,,,,
1656265744.865071,29.000000,0.000000,4423.077148,4437.436035,4301.538574,4237.948730,4373.333496,0.000000,4.000000,95.000000,,,,0.000000,4.000000,2.000000,4.000000,4.000000,4.000000,83.333336,,,,,,,,,,,,,,,,,,,,,,,,,,,,,,,,,,,,,,,,,,,,,,,,,,,,,,,,,,,,,,,
1656265744.872986,30.000000,0.000000,4400.512695,4461.538574,4294.358887,4260.512695,4384.102539,0.000000,4.000000,95.000000,,,,0.000000,4.000000,2.000000,4.000000,4.000000,4.000000,83.333336,,,,,,,,,,,,,,,,,,,,,,,,,,,,,,,,,,,,,,,,,,,,,,,,,,,,,,,,,,,,,,,
1656265744.880800,31.000000,0.000000,4449.743652,4506.666504,4310.256348,4276.922852,4408.205078,0.000000,4.000000,95.000000,,,,0.000000,4.000000,2.000000,4.000000,4.000000,4.000000,83.333336,,,,,,,,,,,,,,,,,,,,,,,,,,,,,,,,,,,,,,,,,,,,,,,,,,,,,,,,,,,,,,,
1656265744.888714,32.000000,0.000000,4493.846191,4506.666504,4301.538574,4289.230957,4439.487305,0.000000,4.000000,95.000000,,,,0.000000,4.000000,2.000000,4.000000,4.000000,4.000000,83.333336,,,,,,,,,,,,,,,,,,,,,,,,,,,,,,,,,,,,,,,,,,,,,,,,,,,,,,,,,,,,,,,
1656265744.896529,33.000000,0.000000,4457.436035,4476.922852,4289.743652,4295.897461,4440.512695,0.000000,4.000000,95.000000,,,,0.000000,4.000000,2.000000,4.000000,4.000000,4.000000,83.333336,,,,,,,,,,,,,,,,,,,,,,,,,,,,,,,,,,,,,,,,,,,,,,,,,,,,,,,,,,,,,,,
1656265744.904443,34.000000,0.000000,4393.846191,4440.000000,4280.512695,4261.538574,4393.333496,0.000000,4.000000,95.000000,,,,0.000000,4.000000,2.000000,4.000000,4.000000,4.000000,83.333336,,,,,,,,,,,,,,,,,,,,,,,,,,,,,,,,,,,,,,,,,,,,,,,,,,,,,,,,,,,,,,,
1656265744.912257,35.000000,0.000000,4435.384766,4462.563965,4288.205078,4277.436035,4410.769043,0.000000,4.000000,95.000000,,,,0.000000,4.000000,2.000000,4.000000,4.000000,4.000000,83.333336,,,,,,,,,,,,,,,,,,,,,,,,,,,,,,,,,,,,,,,,,,,,,,,,,,,,,,,,,,,,,,,
1656265744.920172,36.000000,0.000000,4496.410156,4500.000000,4297.948730,4308.205078,4456.410156,0.000000,4.000000,95.000000,,,,0.000000,4.000000,2.000000,4.000000,4.000000,4.000000,83.333336,,,,,,,,,,,,,,,,,,,,,,,,,,,,,,,,,,,,,,,,,,,,,,,,,,,,,,,,,,,,,,,
1656265744.928086,37.000000,0.000000,4482.051270,4496.922852,4306.666504,4293.846191,4443.077148,0.000000,4.000000,95.000000,,,,0.000000,4.000000,2.000000,4.000000,4.000000,4.000000,83.333336,,,,,,,,,,,,,,,,,,,,,,,,,,,,,,,,,,,,,,,,,,,,,,,,,,,,,,,,,,,,,,,
1656265744.936000,38.000000,0.000000,4454.871582,4483.589844,4310.256348,4289.230957,4410.256348,0.000000,4.000000,95.000000,,,,0.000000,4.000000,2.000000,4.000000,4.000000,4.000000,83.333336,,,,,,,,,,,,,,,,,,,,,,,,,,,,,,,,,,,,,,,,,,,,,,,,,,,,,,,,,,,,,,,
1656265744.943815,39.000000,0.000000,4426.666504,4450.256348,4289.230957,4272.307617,4376.922852,0.000000,4.000000,95.000000,,,,0.000000,4.000000,2.000000,4.000000,4.000000,4.000000,83.333336,,,,,,,,,,,,,,,,,,,,,,,,,,,,,,,,,,,,,,,,,,,,,,,,,,,,,,,,,,,,,,,
1656265744.951629,40.000000,0.000000,4440.512695,4461.025879,4288.205078,4266.666504,4400.512695,0.000000,4.000000,95.000000,,,,0.000000,4.000000,2.000000,4.000000,4.000000,4.000000,83.333336,,,,,,,,,,,,,,,,,,,,,,,,,,,,,,,,,,,,,,,,,,,,,,,,,,,,,,,,,,,,,,,
1656265744.959544,41.000000,0.000000,4479.487305,4504.615234,4294.871582,4291.282227,4462.051270,0.000000,4.000000,95.000000,,,,0.000000,4.000000,2.000000,4.000000,4.000000,4.000000,83.333336,,,,,,,,,,,,,,,,,,,,,,,,,,,,,,,,,,,,,,,9.242845,2.664563,1.706726,10.990358,9.276275,10.468681,1.845202,1.263286,7.220662,5.810752,16.161808,2.334343,2.676484,4.038234,2.556007,8.785708,6.638473,2.255706,5.580339,4.152794,5.777581,1.794266,3.167120,8.207026,5.013371
1656265744.967358,42.000000,0.000000,4470.256348,4499.487305,4302.563965,4293.846191,4449.743652,0.000000,4.000000,95.000000,,,,0.000000,4.000000,2.000000,4.000000,4.000000,4.000000,83.333336,,,,,,,,,,,,,,,,,,,,,,,,,,,,,,,,,,,,,,,,,,,,,,,,,,,,,,,,,,,,,,,
1656265744.975272,43.000000,0.000000,4450.256348,4475.897461,4308.717773,4267.692383,4398.974121,0.000000,4.000000,95.000000,,,,0.000000,4.000000,2.000000,4.000000,4.000000,4.000000,83.333336,,,,,,,,,,,,,,,,,,,,,,,,,,,,,,,,,,,,,,,,,,,,,,,,,,,,,,,,,,,,,,,
1656265744.983087,44.000000,0.000000,4433.333496,4462.051270,4271.794922,4244.102539,4382.563965,0.000000,4.000000,95.000000,,,,0.000000,4.000000,2.000000,4.000000,4.000000,4.000000,83.333336,,,,,,,,,,,,,,,,,,,,,,,,,,,,,,,,,,,,,,,,,,,,,,,,,,,,,,,,,,,,,,,
1656265744.991001,45.000000,0.000000,4443.077148,4485.641113,4270.769043,4264.615234,4410.769043,0.000000,4.000000,95.000000,,,,0.000000,4.000000,2.000000,4.000000,4.000000,4.000000,83.333336,,,,,,,,,,,,,,,,,,,,,,,,,,,,,,,,,,,,,,,,,,,,,,,,,,,,,,,,,,,,,,,
1656265744.998815,46.000000,0.000000,4466.666504,4495.384766,4306.153809,4294.358887,4426.666504,0.000000,4.000000,95.000000,,,,0.000000,4.000000,2.000000,4.000000,4.000000,4.000000,83.333336,,,,,,,,,,,,,,,,,,,,,,,,,,,,,,,,,,,,,,,,,,,,,,,,,,,,,,,,,,,,,,,
1656265745.006730,47.000000,0.000000,4455.897461,4461.538574,4308.205078,4289.230957,4404.615234,0.000000,4.000000,95.000000,,,,0.000000,4.000000,2.000000,4.000000,4.000000,4.000000,83.333336,,,,,,,,,,,,,,,,,,,,,,,,,,,,,,,,,,,,,,,,,,,,,,,,,,,,,,,,,,,,,,,
1656265745.014544,48.000000,0.000000,4458.461426,4469.230957,4293.333496,4293.846191,4411.794922,0.000000,4.000000,95.000000,,,,0.000000,4.000000,2.000000,4.000000,4.000000,4.000000,83.333336,,,,,,,,,,,,,,,,,,,,,,,,,,,,,,,,,,,,,,,,,,,,,,,,,,,,,,,,,,,,,,,
1656265745.022458,49.000000,0.000000,4464.615234,4471.282227,4269.230957,4296.922852,4429.743652,0.000000,4.000000,95.000000,,,,0.000000,4.000000,2.000000,4.000000,4.000000,4.000000,83.333336,,,,,,,,,,,,,,,,,,,,,,,,,,,,,,,,,,,,,,,,,,,,,,,,,,,,,,,,,,,,,,,
1656265745.030273,50.000000,0.000000,4467.179688,4447.179688,4267.179688,4291.282227,4429.743652,0.000000,4.000000,95.000000,,,,0.000000,4.000000,2.000000,4.000000,4.000000,4.000000,83.333336,,,,,,,,,,,,,,,,,,,,,,,,,,,,,,,,,,,,,,,,,,,,,,,,,,,,,,,,,,,,,,,
1656265745.038187,51.000000,0.000000,4452.820313,4430.769043,4284.102539,4287.179688,4417.436035,0.000000,4.000000,95.000000,,,,0.000000,4.000000,2.000000,4.000000,4.000000,4.000000,83.333336,,,,,,,,,,,,,,,,,,,,,,,,,,,,,,,,,,,,,,,,,,,,,,,,,,,,,,,,,,,,,,,
1656265745.046001,52.000000,0.000000,4412.820313,4416.410156,4286.153809,4262.051270,4386.153809,0.000000,4.000000,95.000000,,,,0.000000,4.000000,2.000000,4.000000,4.000000,4.000000,83.333336,,,,,,,,,,,,,,,,,,,,,,,,,,,,,,,,,,,,,,,,,,,,,,,,,,,,,,,,,,,,,,,
1656265745.053916,53.000000,0.000000,4446.153809,4431.282227,4294.358887,4274.871582,4400.512695,0.000000,4.000000,95.000000,,,,0.000000,4.000000,2.000000,4.000000,4.000000,4.000000,83.333336,,,,,,,,,,,,,,,,,,,,,,,,,,,,,,,,,,,,,,,,,,,,,,,,,,,,,,,,,,,,,,,
1656265745.061730,54.000000,0.000000,4512.307617,4440.512695,4306.153809,4308.717773,4431.794922,0.000000,4.000000,95.000000,,,,0.000000,4.000000,2.000000,4.000000,4.000000,4.000000,83.333336,,,,,,,,,,,,,,,,,,,,,,,,,,,,,,,,,,,,,,,,,,,,,,,,,,,,,,,,,,,,,,,
1656265745.069644,55.000000,0.000000,4509.743652,4431.794922,4314.358887,4303.589844,4429.230957,0.000000,4.000000,95.000000,,,,0.000000,4.000000,2.000000,4.000000,4.000000,4.000000,83.333336,,,,,,,,,,,,,,,,,,,,,,,,,,,,,,,,,,,,,,,,,,,,,,,,,,,,,,,,,,,,,,,
1656265745.077559,56.000000,0.000000,4460.000000,4426.666504,4291.282227,4291.794922,4420.000000,0.000000,4.000000,95.000000,,,,0.000000,4.000000,2.000000,4.000000,4.000000,4.000000,83.333336,,,,,,,,,,,,,,,,,,,,,,,,,,,,,,,,,,,,,,,,,,,,,,,,,,,,,,,,,,,,,,,
1656265745.085373,57.000000,0.000000,4405.128418,4401.025879,4249.230957,4271.282227,4386.666504,0.000000,4.000000,95.000000,,,,0.000000,4.000000,2.000000,4.000000,4.000000,4.000000,83.333336,,,,,,,,,,,,,,,,,,,,,,,,,,,,,,,,,,,,,,,7.451137,2.381800,1.795694,11.423881,9.033422,8.990111,1.495500,1.290457,7.173321,5.324143,14.168747,2.250151,2.439743,3.900082,2.548797,7.967579,6.313118,2.267421,5.216884,3.600713,5.456816,2.108823,3.388567,7.536201,4.645881
1656265745.093188,58.000000,0.000000,4427.692383,4405.641113,4266.666504,4276.410156,4374.871582,0.000000,4.000000,95.000000,,,,0.000000,4.000000,2.000000,4.000000,4.000000,4.000000,83.333336,,,,,,,,,,,,,,,,,,,,,,,,,,,,,,,,,,,,,,,,,,,,,,,,,,,,,,,,,,,,,,,
1656265745.101002,59.000000,0.000000,4500.512695,4450.256348,4284.102539,4299.487305,4413.333496,0.000000,4.000000,95.000000,,,,0.000000,4.000000,2.000000,4.000000,4.000000,4.000000,83.333336,,,,,,,,,,,,,,,,,,,,,,,,,,,,,,,,,,,,,,,,,,,,,,,,,,,,,,,,,,,,,,,
1656265745.108916,60.000000,0.000000,4497.948730,4442.563965,4269.230957,4293.846191,4434.358887,0.000000,4.000000,95.000000,,,,0.000000,4.000000,2.000000,4.000000,4.000000,4.000000,83.333336,,,,,,,,,,,,,,,,,,,,,,,,,,,,,,,,,,,,,,,,,,,,,,,,,,,,,,,,,,,,,,,
1656265745.116731,61.000000,0.000000,4427.179688,4404.615234,4278.974121,4273.333496,4392.307617,0.000000,4.000000,95.000000,,,,0.000000,4.000000,2.000000,4.000000,4.000000,4.000000,83.333336,,,,,,,,,,,,,,,,,,,,,,,,,,,,,,,,,,,,,,,,,,,,,,,,,,,,,,,,,,,,,,,
1656265745.124645,62.000000,0.000000,4374.358887,4394.358887,4256.922852,4243.589844,4339.487305,0.000000,4.000000,95.000000,,,,0.000000,4.000000,2.000000,4.000000,4.000000,4.000000,83.333336,,,,,,,,,,,,,,,,,,,,,,,,,,,,,,,,,,,,,,,,,,,,,,,,,,,,,,,,,,,,,,,
1656265745.132459,63.000000,0.000000,4403.077148,4405.641113,4250.256348,4245.641113,4368.205078,0.000000,4.000000,95.000000,,,,0.000000,4.000000,2.000000,4.000000,4.000000,4.000000,83.333336,,,,,,,,,,,,,,,,,,,,,,,,,,,,,,,,,,,,,,,,,,,,,,,,,,,,,,,,,,,,,,,
1656265745.140374,64.000000,0.000000,4462.563965,4425.128418,4286.666504,4267.692383,4408.205078,450.000000,4.000000,95.000000,,,,0.000000,4.000000,2.000000,4.000000,4.000000,4.000000,83.333336,,,,,,,,,,,,,,,,,,,,,,,,,,,,,,,,,,,,,,,,,,,,,,,,,,,,,,,,,,,,,,,
1656265745.148188,65.000000,0.000000,4468.717773,4433.846191,4285.641113,4274.358887,4396.922852,450.000000,4.000000,95.000000,,,,0.000000,4.000000,2.000000,4.000000,4.000000,4.000000,83.333336,,,,,,,,,,,,,,,,,,,,,,,,,,,,,,,,,,,,,,,,,,,,,,,,,,,,,,,,,,,,,,,
1656265745.156102,66.000000,0.000000,4432.820313,4427.179688,4278.974121,4271.794922,4386.666504,325.000000,4.000000,95.000000,,,,0.000000,2.000000,2.000000,4.000000,4.000000,4.000000,66.666664,,,,,,,,,,,,,,,,,,,,,,,,,,,,,,,,,,,,,,,,,,,,,,,,,,,,,,,,,,,,,,,
1656265745.163917,67.000000,0.000000,4395.897461,4409.743652,4273.846191,4249.230957,4366.153809,450.000000,4.000000,95.000000,,,,0.000000,2.000000,2.000000,4.000000,4.000000,4.000000,66.666664,,,,,,,,,,,,,,,,,,,,,,,,,,,,,,,,,,,,,,,,,,,,,,,,,,,,,,,,,,,,,,,
1656265745.171831,68.000000,0.000000,4426.153809,4422.563965,4264.615234,4266.666504,4376.410156,16071.000000,4.000000,95.000000,,,,0.000000,2.000000,4.000000,4.000000,4.000000,4.000000,83.333336,,,,,,,,,,,,,,,,,,,,,,,,,,,,,,,,,,,,,,,,,,,,,,,,,,,,,,,,,,,,,,,
1656265745.179646,69.000000,0.000000,4463.077148,4423.077148,4285.641113,4295.384766,4404.615234,450.000000,4.000000,95.000000,,,,0.000000,2.000000,4.000000,4.000000,4.000000,4.000000,83.333336,,,,,,,,,,,,,,,,,,,,,,,,,,,,,,,,,,,,,,,,,,,,,,,,,,,,,,,,,,,,,,,
1656265745.187560,70.000000,0.000000,4446.153809,4389.743652,4317.436035,4265.641113,4396.922852,307.000000,4.000000,95.000000,,,,0.000000,2.000000,4.000000,2.000000,4.000000,4.000000,66.666664,,,,,,,,,,,,,,,,,,,,,,,,,,,,,,,,,,,,,,,,,,,,,,,,,,,,,,,,,,,,,,,
1656265745.195374,71.000000,0.000000,4463.077148,4421.538574,4302.051270,4256.410156,4421.538574,450.000000,4.000000,95.000000,,,,0.000000,2.000000,4.000000,2.000000,4.000000,4.000000,66.666664,,,,,,,,,,,,,,,,,,,,,,,,,,,,,,,,,,,,,,,,,,,,,,,,,,,,,,,,,,,,,,,
1656265745.203289,72.000000,0.000000,4485.128418,4457.436035,4246.153809,4277.436035,4444.102539,450.000000,4.000000,95.000000,,,,0.000000,2.000000,4.000000,2.000000,2.000000,4.000000,50.000000,,,,,,,,,,,,,,,,,,,,,,,,,,,,,,,,,,,,,,,,,,,,,,,,,,,,,,,,,,,,,,,
1656265745.211103,73.000000,0.000000,4478.974121,4444.102539,4263.589844,4276.410156,4416.410156,265.000000,4.000000,95.000000,,,,0.000000,2.000000,4.000000,2.000000,2.000000,4.000000,50.000000,,,,,,,,,,,,,,,,,,,,,,,,,,,,,,,,,,,,,,,5.306810,2.227811,1.865469,11.544385,8.849524,6.893323,1.186853,1.207883,7.325462,5.172674,11.063670,2.452231,2.110660,3.863631,2.635524,6.711281,5.811339,2.056841,4.784414,3.055278,4.607382,2.658216,3.356571,6.800458,4.462436
1656265745.219017,74.000000,0.000000,4457.948730,4413.846191,4289.743652,4253.846191,4388.205078,450.000000,4.000000,95.000000,,,,0.000000,2.000000,4.000000,2.000000,2.000000,4.000000,50.000000,,,,,,,,,,,,,,,,,,,,,,,,,,,,,,,,,,,,,,,,,,,,,,,,,,,,,,,,,,,,,,,
1656265745.226832,75.000000,0.000000,4416.410156,4384.102539,4249.743652,4236.410156,4375.384766,16226.000000,4.000000,95.000000,,,,0.000000,2.000000,4.000000,2.000000,2.000000,4.000000,50.000000,,,,,,,,,,,,,,,,,,,,,,,,,,,,,,,,,,,,,,,,,,,,,,,,,,,,,,,,,,,,,,,
1656265745.234746,76.000000,0.000000,4443.589844,4420.512695,4267.179688,4251.794922,4395.897461,450.000000,4.000000,95.000000,,,,0.000000,2.000000,4.000000,2.000000,2.000000,4.000000,50.000000,,,,,,,,,,,,,,,,,,,,,,,,,,,,,,,,,,,,,,,,,,,,,,,,,,,,,,,,,,,,,,,
1656265745.242560,77.000000,0.000000,4502.051270,4470.256348,4314.871582,4272.820313,4428.205078,450.000000,4.000000,95.000000,,,,0.000000,2.000000,4.000000,2.000000,2.000000,4.000000,50.000000,,,,,,,,,,,,,,,,,,,,,,,,,,,,,,,,,,,,,,,,,,,,,,,,,,,,,,,,,,,,,,,
1656265745.250475,78.000000,0.000000,4498.974121,4473.333496,4316.410156,4284.102539,4442.563965,450.000000,4.000000,95.000000,,,,0.000000,2.000000,4.000000,2.000000,2.000000,4.000000,50.000000,,,,,,,,,,,,,,,,,,,,,,,,,,,,,,,,,,,,,,,,,,,,,,,,,,,,,,,,,,,,,,,
1656265745.258389,79.000000,0.000000,4460.000000,4445.641113,4301.025879,4287.179688,4414.358887,16226.000000,4.000000,95.000000,,,,0.000000,2.000000,4.000000,2.000000,2.000000,4.000000,50.000000,,,,,,,,,,,,,,,,,,,,,,,,,,,,,,,,,,,,,,,,,,,,,,,,,,,,,,,,,,,,,,,
1656265745.266203,80.000000,0.000000,4416.922852,4406.153809,4280.512695,4247.692383,4349.743652,450.000000,4.000000,95.000000,,,,0.000000,2.000000,4.000000,2.000000,2.000000,4.000000,50.000000,,,,,,,,,,,,,,,,,,,,,,,,,,,,,,,,,,,,,,,,,,,,,,,,,,,,,,,,,,,,,,,
1656265745.274118,81.000000,0.000000,4441.025879,4425.641113,4279.487305,4238.974121,4374.871582,450.000000,4.000000,95.000000,,,,0.000000,2.000000,4.000000,2.000000,2.000000,4.000000,50.000000,,,,,,,,,,,,,,,,,,,,,,,,,,,,,,,,,,,,,,,,,,,,,,,,,,,,,,,,,,,,,,,
1656265745.281932,82.000000,0.000000,4509.230957,4466.153809,4293.846191,4289.230957,4451.794922,450.000000,4.000000,95.000000,,,,0.000000,2.000000,4.000000,2.000000,2.000000,4.000000,50.000000,,,,,,,,,,,,,,,,,,,,,,,,,,,,,,,,,,,,,,,,,,,,,,,,,,,,,,,,,,,,,,,
1656265745.289846,83.000000,0.000000,4515.384766,4462.563965,4293.333496,4309.230957,4452.307617,16226.000000,4.000000,95.000000,,,,0.000000,2.000000,4.000000,2.000000,2.000000,4.000000,50.000000,,,,,,,,,,,,,,,,,,,,,,,,,,,,,,,,,,,,,,,,,,,,,,,,,,,,,,,,,,,,,,,
1656265745.297661,84.000000,0.000000,4454.871582,4435.384766,4276.410156,4267.179688,4405.128418,450.000000,4.000000,95.000000,,,,0.000000,2.000000,4.000000,2.000000,2.000000,4.000000,50.000000,,,,,,,,,,,,,,,,,,,,,,,,,,,,,,,,,,,,,,,,,,,,,,,,,,,,,,,,,,,,,,,
1656265745.305575,85.000000,0.000000,4403.589844,4392.820313,4252.307617,4218.974121,4366.666504,450.000000,4.000000,95.000000,,,,0.000000,2.000000,4.000000,2.000000,2.000000,4.000000,50.000000,,,,,,,,,,,,,,,,,,,,,,,,,,,,,,,,,,,,,,,,,,,,,,,,,,,,,,,,,,,,,,,
1656265745.313390,86.000000,0.000000,4441.538574,4398.974121,4267.692383,4257.436035,4378.974121,450.000000,4.000000,95.000000,,,,0.000000,2.000000,4.000000,2.000000,2.000000,4.000000,50.000000,,,,,,,,,,,,,,,,,,,,,,,,,,,,,,,,,,,,,,,,,,,,,,,,,,,,,,,,,,,,,,,
1656265745.321304,87.000000,0.000000,4483.077148,4437.948730,4297.436035,4296.922852,4404.102539,16226.000000,4.000000,95.000000,,,,0.000000,2.000000,4.000000,2.000000,2.000000,4.000000,50.000000,,,,,,,,,,,,,,,,,,,,,,,,,,,,,,,,,,,,,,,,,,,,,,,,,,,,,,,,,,,,,,,
1656265745.329118,88.000000,0.000000,4446.666504,4421.538574,4285.128418,4263.077148,4388.717773,450.000000,4.000000,95.000000,,,,0.000000,2.000000,4.000000,2.000000,2.000000,4.000000,50.000000,,,,,,,,,,,,,,,,,,,,,,,,,,,,,,,,,,,,,,,,,,,,,,,,,,,,,,,,,,,,,,,
1656265745.337033,89.000000,0.000000,4432.307617,4401.538574,4276.410156,4254.358887,4367.692383,450.000000,4.000000,95.000000,,,,0.000000,2.000000,4.000000,2.000000,2.000000,4.000000,50.000000,1.000000,50.000000,2.000000,2.000000,2.000000,2.000000,3.000000,,,,,,,,,,,,,,,,,,,,,,,,,,,,,,,,3.795792,2.264122,1.947353,11.387158,8.767148,4.922286,0.963353,1.040902,7.568579,5.246154,8.088939,2.767492,1.802345,3.955640,2.811748,5.617055,5.152946,1.688461,4.366316,2.597217,3.786695,3.333219,3.163779,6.044458,4.486009
1656265745.344847,90.000000,0.000000,4444.102539,4401.538574,4277.948730,4252.820313,4364.615234,450.000000,4.000000,95.000000,,,,0.000000,2.000000,4.000000,2.000000,2.000000,4.000000,50.000000,,,,,,,,,,,,,,,,,,,,,,,,,,,,,,,,,,,,,,,,,,,,,,,,,,,,,,,,,,,,,,,
1656265745.352761,91.000000,0.000000,4449.230957,4401.538574,4287.179688,4254.871582,4392.820313,16226.000000,4.000000,95.000000,,,,0.000000,2.000000,4.000000,2.000000,2.000000,4.000000,50.000000,,,,,,,,,,,,,,,,,,,,,,,,,,,,,,,,,,,,,,,,,,,,,,,,,,,,,,,,,,,,,,,
1656265745.360576,92.000000,0.000000,4454.358887,4413.333496,4304.102539,4268.717773,4402.051270,450.000000,4.000000,95.000000,,,,0.000000,2.000000,4.000000,2.000000,2.000000,4.000000,50.000000,,,,,,,,,,,,,,,,,,,,,,,,,,,,,,,,,,,,,,,,,,,,,,,,,,,,,,,,,,,,,,,
1656265745.368390,93.000000,0.000000,4433.846191,4415.384766,4290.256348,4246.666504,4368.717773,450.000000,4.000000,95.000000,,,,0.000000,2.000000,4.000000,2.000000,2.000000,4.000000,50.000000,,,,,,,,,,,,,,,,,,,,,,,,,,,,,,,,,,,,,,,,,,,,,,,,,,,,,,,,,,,,,,,
1656265745.376304,94.000000,0.000000,4436.922852,4424.102539,4253.846191,4247.692383,4394.871582,450.000000,4.000000,95.000000,,,,0.000000,2.000000,4.000000,2.000000,2.000000,4.000000,50.000000,,,,,,,,,,,,,,,,,,,,,,,,,,,,,,,,,,,,,,,,,,,,,,,,,,,,,,,,,,,,,,,
1656265745.384219,95.000000,0.000000,4475.384766,4437.948730,4230.256348,4277.948730,4435.384766,16226.000000,4.000000,95.000000,,,,0.000000,2.000000,4.000000,2.000000,2.000000,4.000000,50.000000,,,,,,,,,,,,,,,,,,,,,,,,,,,,,,,,,,,,,,,,,,,,,,,,,,,,,,,,,,,,,,,
1656265745.392033,96.000000,0.000000,4493.333496,4441.025879,4256.922852,4277.436035,4426.153809,450.000000,4.000000,95.000000,,,,0.000000,2.000000,4.000000,2.000000,2.000000,4.000000,50.000000,,,,,,,,,,,,,,,,,,,,,,,,,,,,,,,,,,,,,,,,,,,,,,,,,,,,,,,,,,,,,,,
1656265745.399947,97.000000,0.000000,4455.897461,4422.051270,4271.282227,4256.922852,4397.436035,450.000000,4.000000,95.000000,,,,0.000000,2.000000,4.000000,2.000000,2.000000,4.000000,50.000000,,,,,,,,,,,,,,,,,,,,,,,,,,,,,,,,,,,,,,,,,,,,,,,,,,,,,,,,,,,,,,,
1656265745.407762,98.000000,0.000000,4418.461426,4382.051270,4242.051270,4236.410156,4369.743652,450.000000,4.000000,95.000000,,,,0.000000,2.000000,4.000000,2.000000,2.000000,4.000000,50.000000,,,,,,,,,,,,,,,,,,,,,,,,,,,,,,,,,,,,,,,,,,,,,,,,,,,,,,,,,,,,,,,
1656265745.415676,99.000000,0.000000,4454.358887,4405.128418,4248.717773,4245.641113,4398.461426,16226.000000,4.000000,95.000000,,,,0.000000,2.000000,4.000000,2.000000,2.000000,4.000000,50.000000,,,,,,,,,,,,,,,,,,,,,,,,,,,,,,,,,,,,,,,,,,,,,,,,,,,,,,,,,,,,,,,
1656265745.423590,100.000000,0.000000,4489.230957,4453.333496,4264.615234,4259.487305,4429.743652,450.000000,4.000000,95.000000,,,,0.000000,2.000000,4.000000,2.000000,2.000000,4.000000,50.000000,,,,,,,,,,,,,,,,,,,,,,,,,,,,,,,,,,,,,,,,,,,,,,,,,,,,,,,,,,,,,,,
1656265745.431405,101.000000,0.000000,4468.205078,4452.307617,4263.589844,4247.692383,4413.333496,450.000000,4.000000,95.000000,,,,0.000000,2.000000,4.000000,2.000000,2.000000,4.000000,50.000000,,,,,,,,,,,,,,,,,,,,,,,,,,,,,,,,,,,,,,,,,,,,,,,,,,,,,,,,,,,,,,,
1656265745.439319,102.000000,0.000000,4423.077148,4423.077148,4258.974121,4234.871582,4394.358887,450.000000,4.000000,95.000000,,,,0.000000,2.000000,4.000000,2.000000,2.000000,4.000000,50.000000,,,,,,,,,,,,,,,,,,,,,,,,,,,,,,,,,,,,,,,,,,,,,,,,,,,,,,,,,,,,,,,
1656265745.447134,103.000000,0.000000,4384.615234,4382.563965,4247.179688,4232.820313,4370.256348,16226.000000,4.000000,95.000000,,,,0.000000,2.000000,4.000000,2.000000,2.000000,4.000000,50.000000,,,,,,,,,,,,,,,,,,,,,,,,,,,,,,,,,,,,,,,,,,,,,,,,,,,,,,,,,,,,,,,
1656265745.455048,104.000000,0.000000,4416.410156,4403.077148,4271.794922,4257.436035,4382.563965,450.000000,4.000000,95.000000,,,,0.000000,2.000000,4.000000,2.000000,2.000000,4.000000,50.000000,,,,,,,,,,,,,,,,,,,,,,,,,,,,,,,,,,,,,,,,,,,,,,,,,,,,,,,,,,,,,,,
1656265745.462862,105.000000,0.000000,4480.000000,4456.922852,4288.717773,4271.794922,4430.769043,450.000000,4.000000,95.000000,,,,0.000000,2.000000,4.000000,2.000000,2.000000,4.000000,50.000000,,,,,,,,,,,,,,,,,,,,,,,,,,,,,,,,,,,,,,,3.126272,2.506911,2.031955,11.165339,8.786641,3.368486,0.831926,0.833667,7.791924,5.373816,5.597706,3.012911,1.585560,4.146586,3.022596,4.620371,4.520150,1.292145,4.019506,2.292524,2.981839,4.000899,2.942339,5.458557,4.683487
1656265745.470777,106.000000,0.000000,4480.512695,4465.128418,4277.948730,4276.410156,4437.436035,450.000000,4.000000,95.000000,,,,0.000000,2.000000,4.000000,2.000000,2.000000,4.000000,50.000000,,,,,,,,,,,,,,,,,,,,,,,,,,,,,,,,,,,,,,,,,,,,,,,,,,,,,,,,,,,,,,,
1656265745.478591,107.000000,0.000000,4438.461426,4433.333496,4271.794922,4280.000000,4402.563965,16226.000000,4.000000,95.000000,,,,0.000000,2.000000,4.000000,2.000000,2.000000,4.000000,50.000000,,,,,,,,,,,,,,,,,,,,,,,,,,,,,,,,,,,,,,,,,,,,,,,,,,,,,,,,,,,,,,,
1656265745.486505,108.000000,0.000000,4395.897461,4390.256348,4244.615234,4236.922852,4363.077148,450.000000,4.000000,95.000000,,,,0.000000,2.000000,4.000000,2.000000,2.000000,4.000000,50.000000,,,,,,,,,,,,,,,,,,,,,,,,,,,,,,,,,,,,,,,,,,,,,,,,,,,,,,,,,,,,,,,
1656265745.494320,109.000000,0.000000,4413.846191,4403.589844,4244.615234,4232.820313,4369.743652,450.000000,4.000000,95.000000,,,,0.000000,2.000000,4.000000,2.000000,2.000000,4.000000,50.000000,,,,,,,,,,,,,,,,,,,,,,,,,,,,,,,,,,,,,,,,,,,,,,,,,,,,,,,,,,,,,,,
1656265745.502234,110.000000,0.000000,4466.666504,4442.051270,4266.666504,4283.077148,4416.922852,450.000000,4.000000,95.000000,,,,0.000000,2.000000,4.000000,2.000000,2.000000,4.000000,50.000000,,,,,,,,,,,,,,,,,,,,,,,,,,,,,,,,,,,,,,,,,,,,,,,,,,,,,,,,,,,,,,,
1656265745.510048,111.000000,0.000000,4466.153809,4433.846191,4263.589844,4285.128418,4424.615234,16226.000000,4.000000,95.000000,,,,0.000000,2.000000,4.000000,2.000000,2.000000,4.000000,50.000000,,,,,,,,,,,,,,,,,,,,,,,,,,,,,,,,,,,,,,,,,,,,,,,,,,,,,,,,,,,,,,,
1656265745.517963,112.000000,0.000000,4435.384766,4421.538574,4252.307617,4255.384766,4408.717773,450.000000,4.000000,95.000000,,,,0.000000,2.000000,4.000000,2.000000,2.000000,4.000000,50.000000,,,,,,,,,,,,,,,,,,,,,,,,,,,,,,,,,,,,,,,,,,,,,,,,,,,,,,,,,,,,,,,
1656265745.525777,113.000000,0.000000,4396.922852,4415.384766,4228.205078,4229.230957,4402.563965,450.000000,4.000000,95.000000,,,,0.000000,2.000000,4.000000,2.000000,2.000000,4.000000,50.000000,,,,,,,,,,,,,,,,,,,,,,,,,,,,,,,,,,,,,,,,,,,,,,,,,,,,,,,,,,,,,,,
1656265745.533691,114.000000,0.000000,4404.615234,4428.205078,4236.922852,4246.153809,4414.871582,450.000000,4.000000,95.000000,,,,0.000000,2.000000,4.000000,2.000000,2.000000,4.000000,50.000000,,,,,,,,,,,,,,,,,,,,,,,,,,,,,,,,,,,,,,,,,,,,,,,,,,,,,,,,,,,,,,,
1656265745.541506,115.000000,0.000000,4438.974121,4434.871582,4262.051270,4287.179688,4411.282227,16226.000000,4.000000,95.000000,,,,0.000000,2.000000,4.000000,2.000000,2.000000,4.000000,50.000000,,,,,,,,,,,,,,,,,,,,,,,,,,,,,,,,,,,,,,,,,,,,,,,,,,,,,,,,,,,,,,,
1656265745.549420,116.000000,0.000000,4414.871582,4400.000000,4255.897461,4273.333496,4378.461426,450.000000,4.000000,95.000000,,,,0.000000,2.000000,4.000000,2.000000,2.000000,4.000000,50.000000,,,,,,,,,,,,,,,,,,,,,,,,,,,,,,,,,,,,,,,,,,,,,,,,,,,,,,,,,,,,,,,
1656265745.557235,117.000000,0.000000,4404.102539,4411.282227,4265.128418,4258.974121,4392.820313,450.000000,4.000000,95.000000,,,,0.000000,2.000000,4.000000,2.000000,2.000000,4.000000,50.000000,,,,,,,,,,,,,,,,,,,,,,,,,,,,,,,,,,,,,,,,,,,,,,,,,,,,,,,,,,,,,,,
1656265745.565149,118.000000,0.000000,4426.666504,4451.282227,4277.436035,4270.256348,4418.461426,450.000000,4.000000,95.000000,,,,0.000000,2.000000,4.000000,2.000000,2.000000,4.000000,50.000000,,,,,,,,,,,,,,,,,,,,,,,,,,,,,,,,,,,,,,,,,,,,,,,,,,,,,,,,,,,,,,,
1656265745.573063,119.000000,0.000000,4436.410156,4441.538574,4276.410156,4273.333496,4404.102539,16226.000000,4.000000,95.000000,,,,0.000000,2.000000,4.000000,2.000000,2.000000,4.000000,50.000000,,,,,,,,,,,,,,,,,,,,,,,,,,,,,,,,,,,,,,,,,,,,,,,,,,,,,,,,,,,,,,,
1656265745.580878,120.000000,0.000000,4414.871582,4409.230957,4267.179688,4257.436035,4367.692383,450.000000,4.000000,95.000000,,,,0.000000,2.000000,4.000000,2.000000,2.000000,4.000000,50.000000,,,,,,,,,,,,,,,,,,,,,,,,,,,,,,,,,,,,,,,,,,,,,,,,,,,,,,,,,,,,,,,
1656265745.588792,121.000000,0.000000,4358.974121,4395.897461,4238.974121,4231.794922,4341.538574,450.000000,4.000000,95.000000,,,,0.000000,2.000000,4.000000,2.000000,2.000000,4.000000,50.000000,,,,,,,,,,,,,,,,,,,,,,,,,,,,,,,,,,,,,,,3.419216,2.890445,2.083177,11.120126,8.887007,2.653337,0.768950,0.641227,7.917266,5.412405,4.067771,3.122077,1.486016,4.348347,3.187026,3.940250,4.098949,0.993576,3.753593,2.171056,2.521823,4.522062,2.756285,5.244567,4.985632
1656265745.596606,122.000000,0.000000,4387.692383,4418.974121,4238.461426,4261.025879,4387.179688,450.000000,4.000000,95.000000,,,,0.000000,2.000000,4.000000,2.000000,2.000000,4.000000,50.000000,,,,,,,,,,,,,,,,,,,,,,,,,,,,,,,,,,,,,,,,,,,,,,,,,,,,,,,,,,,,,,,
1656265745.604521,123.000000,0.000000,4483.077148,4426.666504,4249.230957,4307.179688,4435.384766,16226.000000,4.000000,95.000000,,,,0.000000,2.000000,4.000000,2.000000,2.000000,4.000000,50.000000,,,,,,,,,,,,,,,,,,,,,,,,,,,,,,,,,,,,,,,,,,,,,,,,,,,,,,,,,,,,,,,
1656265745.612335,124.000000,0.000000,4498.461426,4412.307617,4244.615234,4296.410156,4428.205078,450.000000,4.000000,95.000000,,,,0.000000,2.000000,4.000000,2.000000,2.000000,4.000000,50.000000,,,,,,,,,,,,,,,,,,,,,,,,,,,,,,,,,,,,,,,,,,,,,,,,,,,,,,,,,,,,,,,
1656265745.620249,125.000000,0.000000,4422.563965,4402.563965,4234.871582,4251.282227,4406.666504,450.000000,4.000000,95.000000,,,,0.000000,2.000000,4.000000,2.000000,2.000000,4.000000,50.000000,,,,,,,,,,,,,,,,,,,,,,,,,,,,,,,,,,,,,,,,,,,,,,,,,,,,,,,,,,,,,,,
1656265745.628064,126.000000,0.000000,4347.692383,4401.538574,4223.077148,4223.077148,4360.512695,450.000000,4.000000,95.000000,,,,0.000000,2.000000,4.000000,2.000000,2.000000,4.000000,50.000000,,,,,,,,,,,,,,,,,,,,,,,,,,,,,,,,,,,,,,,,,,,,,,,,,,,,,,,,,,,,,,,
1656265745.635878,127.000000,0.000000,4395.897461,4428.717773,4235.897461,4267.179688,4354.871582,243.000000,4.000000,95.000000,,,,0.000000,2.000000,4.000000,2.000000,2.000000,4.000000,50.000000,,,,,,,,,,,,,,,,,,,,,,,,,,,,,,,,,,,,,,,,,,,,,,,,,,,,,,,,,,,,,,,
1656265745.643792,0.000000,0.000000,4487.692383,4435.897461,4243.077148,4309.230957,4416.410156,450.000000,4.000000,95.000000,,,,0.000000,2.000000,4.000000,2.000000,2.000000,4.000000,50.000000,,,,,,,,,,,,,,,,,,,,,,,,,,,,,,,,,,,,,,,,,,,,,,,,,,,,,,,,,,,,,,,
1656265745.651607,1.000000,0.000000,4472.307617,4415.384766,4236.410156,4281.538574,4441.025879,450.000000,4.000000,95.000000,,,,0.000000,2.000000,4.000000,2.000000,2.000000,4.000000,50.000000,,,,,,,,,,,,,,,,,,,,,,,,,,,,,,,,,,,,,,,,,,,,,,,,,,,,,,,,,,,,,,,
1656265745.659521,2.000000,0.000000,4404.102539,4410.256348,4243.077148,4264.615234,4387.179688,318.000000,4.000000,95.000000,,,,0.000000,2.000000,4.000000,2.000000,2.000000,4.000000,50.000000,,,,,,,,,,,,,,,,,,,,,,,,,,,,,,,,,,,,,,,,,,,,,,,,,,,,,,,,,,,,,,,
1656265745.667435,3.000000,0.000000,4377.948730,4396.922852,4247.692383,4257.436035,4321.025879,450.000000,4.000000,95.000000,,,,0.000000,2.000000,4.000000,2.000000,2.000000,4.000000,50.000000,,,,,,,,,,,,,,,,,,,,,,,,,,,,,,,,,,,,,,,,,,,,,,,,,,,,,,,,,,,,,,,
1656265745.675250,4.000000,0.000000,4419.487305,4415.384766,4277.436035,4252.820313,4358.461426,16066.000000,4.000000,95.000000,,,,0.000000,2.000000,4.000000,2.000000,2.000000,4.000000,50.000000,,,,,,,,,,,,,,,,,,,,,,,,,,,,,,,,,,,,,,,,,,,,,,,,,,,,,,,,,,,,,,,
1656265745.683164,5.000000,0.000000,4446.666504,4453.333496,4290.256348,4273.333496,4421.025879,450.000000,4.000000,95.000000,,,,0.000000,2.000000,4.000000,4.000000,2.000000,4.000000,66.666664,,,,,,,,,,,,,,,,,,,,,,,,,,,,,,,,,,,,,,,,,,,,,,,,,,,,,,,,,,,,,,,
1656265745.690979,6.000000,0.000000,4428.205078,4444.102539,4254.358887,4281.538574,4400.000000,16104.000000,4.000000,95.000000,,,,0.000000,2.000000,4.000000,4.000000,2.000000,4.000000,66.666664,,,,,,,,,,,,,,,,,,,,,,,,,,,,,,,,,,,,,,,,,,,,,,,,,,,,,,,,,,,,,,,
1656265745.698793,7.000000,0.000000,4444.102539,4423.589844,4248.205078,4277.436035,4394.358887,450.000000,4.000000,95.000000,,,,0.000000,2.000000,4.000000,4.000000,2.000000,4.000000,66.666664,,,,,,,,,,,,,,,,,,,,,,,,,,,,,,,,,,,,,,,,,,,,,,,,,,,,,,,,,,,,,,,
1656265745.706707,8.000000,0.000000,4453.333496,4411.794922,4251.282227,4261.538574,4412.820313,450.000000,4.000000,95.000000,,,,0.000000,2.000000,4.000000,4.000000,2.000000,4.000000,66.666664,,,,,,,,,,,,,,,,,,,,,,,,,,,,,,,,,,,,,,,,,,,,,,,,,,,,,,,,,,,,,,,
1656265745.714622,9.000000,0.000000,4440.000000,4425.641113,4234.871582,4259.487305,4407.692383,16106.000000,4.000000,95.000000,,,,0.000000,2.000000,4.000000,4.000000,4.000000,4.000000,83.333336,,,,,,,,,,,,,,,,,,,,,,,,,,,,,,,,,,,,,,,4.131159,3.269621,2.034291,11.376793,9.043329,2.602952,0.758560,0.489888,7.899015,5.299149,3.082474,3.144956,1.487346,4.455954,3.246104,3.325428,3.927476,0.854129,3.535145,2.224290,2.381680,4.786644,2.578610,5.489543,5.306984
1656265745.722436,10.000000,0.000000,4437.436035,4441.025879,4241.025879,4272.820313,4392.307617,450.000000,4.000000,95.000000,,,,0.000000,2.000000,4.000000,4.000000,4.000000,4.000000,83.333336,,,,,,,,,,,,,,,,,,,,,,,,,,,,,,,,,,,,,,,,,,,,,,,,,,,,,,,,,,,,,,,
1656265745.730350,11.000000,0.000000,4417.436035,4405.128418,4242.051270,4273.846191,4384.615234,16188.000000,4.000000,95.000000,,,,0.000000,2.000000,4.000000,4.000000,4.000000,4.000000,83.333336,,,,,,,,,,,,,,,,,,,,,,,,,,,,,,,,,,,,,,,,,,,,,,,,,,,,,,,,,,,,,,,
1656265745.738165,12.000000,0.000000,4416.922852,4408.205078,4245.641113,4271.282227,4403.589844,450.000000,4.000000,95.000000,,,,0.000000,2.000000,4.000000,4.000000,4.000000,4.000000,83.333336,,,,,,,,,,,,,,,,,,,,,,,,,,,,,,,,,,,,,,,,,,,,,,,,,,,,,,,,,,,,,,,
1656265745.746079,13.000000,0.000000,4445.641113,4445.641113,4258.974121,4251.794922,4414.871582,450.000000,4.000000,95.000000,,,,0.000000,2.000000,4.000000,4.000000,4.000000,4.000000,83.333336,,,,,,,,,,,,,,,,,,,,,,,,,,,,,,,,,,,,,,,,,,,,,,,,,,,,,,,,,,,,,,,
1656265745.753993,14.000000,0.000000,4455.897461,4438.974121,4260.512695,4256.922852,4418.461426,450.000000,4.000000,95.000000,,,,0.000000,2.000000,4.000000,4.000000,4.000000,4.000000,83.333336,,,,,,,,,,,,,,,,,,,,,,,,,,,,,,,,,,,,,,,,,,,,,,,,,,,,,,,,,,,,,,,
1656265745.761808,15.000000,0.000000,4424.615234,4417.948730,4253.846191,4264.615234,4404.102539,16188.000000,4.000000,95.000000,,,,0.000000,2.000000,4.000000,4.000000,4.000000,4.000000,83.333336,,,,,,,,,,,,,,,,,,,,,,,,,,,,,,,,,,,,,,,,,,,,,,,,,,,,,,,,,,,,,,,
1656265745.769622,16.000000,0.000000,4386.153809,4405.128418,4255.384766,4221.538574,4365.641113,0.000000,4.000000,95.000000,,,,0.000000,2.000000,4.000000,4.000000,4.000000,4.000000,83.333336,,,,,,,,,,,,,,,,,,,,,,,,,,,,,,,,,,,,,,,,,,,,,,,,,,,,,,,,,,,,,,,
1656265745.777536,17.000000,0.000000,4433.846191,4433.333496,4278.461426,4242.051270,4399.487305,0.000000,4.000000,95.000000,,,,0.000000,2.000000,4.000000,4.000000,4.000000,4.000000,83.333336,,,,,,,,,,,,,,,,,,,,,,,,,,,,,,,,,,,,,,,,,,,,,,,,,,,,,,,,,,,,,,,
1656265745.785451,18.000000,0.000000,4503.077148,4469.743652,4283.077148,4308.205078,4460.512695,0.000000,4.000000,95.000000,,,,0.000000,2.000000,4.000000,4.000000,4.000000,4.000000,83.333336,,,,,,,,,,,,,,,,,,,,,,,,,,,,,,,,,,,,,,,,,,,,,,,,,,,,,,,,,,,,,,,
1656265745.793265,19.000000,0.000000,4493.333496,4469.743652,4296.922852,4308.717773,4439.487305,0.000000,4.000000,95.000000,,,,0.000000,2.000000,4.000000,4.000000,4.000000,4.000000,83.333336,,,,,,,,,,,,,,,,,,,,,,,,,,,,,,,,,,,,,,,,,,,,,,,,,,,,,,,,,,,,,,,
1656265745.801080,20.000000,0.000000,4451.794922,4465.128418,4309.743652,4280.000000,4404.102539,0.000000,4.000000,95.000000,,,,0.000000,2.000000,4.000000,4.000000,4.000000,4.000000,83.333336,,,,,,,,,,,,,,,,,,,,,,,,,,,,,,,,,,,,,,,,,,,,,,,,,,,,,,,,,,,,,,,
1656265745.808994,21.000000,0.000000,4417.948730,4446.666504,4263.077148,4273.333496,4398.974121,0.000000,4.000000,95.000000,,,,0.000000,2.000000,4.000000,4.000000,4.000000,4.000000,83.333336,,,,,,,,,,,,,,,,,,,,,,,,,,,,,,,,,,,,,,,,,,,,,,,,,,,,,,,,,,,,,,,
1656265745.816908,22.000000,0.000000,4428.205078,4456.922852,4266.153809,4280.000000,4407.179688,0.000000,4.000000,95.000000,,,,0.000000,2.000000,4.000000,4.000000,4.000000,4.000000,83.333336,,,,,,,,,,,,,,,,,,,,,,,,,,,,,,,,,,,,,,,,,,,,,,,,,,,,,,,,,,,,,,,
1656265745.824723,23.000000,0.000000,4446.666504,4478.974121,4309.743652,4252.820313,4406.666504,0.000000,4.000000,95.000000,,,,0.000000,2.000000,4.000000,4.000000,4.000000,4.000000,83.333336,,,,,,,,,,,,,,,,,,,,,,,,,,,,,,,,,,,,,,,,,,,,,,,,,,,,,,,,,,,,,,,
1656265745.832637,24.000000,0.000000,4447.179688,4458.974121,4304.615234,4227.179688,4401.025879,0.000000,4.000000,95.000000,,,,0.000000,2.000000,4.000000,4.000000,4.000000,4.000000,83.333336,,,,,,,,,,,,,,,,,,,,,,,,,,,,,,,,,,,,,,,,,,,,,,,,,,,,,,,,,,,,,,,
1656265745.840451,25.000000,0.000000,4457.436035,4434.358887,4285.128418,4250.769043,4400.512695,0.000000,4.000000,95.000000,,,,0.000000,2.000000,4.000000,4.000000,4.000000,4.000000,83.333336,1.000000,50.000000,2.000000,2.000000,2.000000,2.000000,3.000000,,,,,,,,,,,,,,,,,,,,,,,,,,,,,,,,4.915421,3.499034,1.850103,11.887869,9.242271,3.209272,0.786722,0.376637,7.752631,5.061504,2.624637,3.242905,1.534294,4.392499,3.183968,2.767253,3.866557,0.859270,3.347553,2.426419,2.605731,4.756323,2.357873,6.153742,5.571233
1656265745.848266,26.000000,0.000000,4432.820313,4412.307617,4271.794922,4241.025879,4371.794922,0.000000,4.000000,95.000000,,,,0.000000,2.000000,4.000000,4.000000,4.000000,4.000000,83.333336,,,,,,,,,,,,,,,,,,,,,,,,,,,,,,,,,,,,,,,,,,,,,,,,,,,,,,,,,,,,,,,
1656265745.856180,27.000000,0.000000,4433.846191,4422.051270,4280.512695,4229.230957,4375.384766,0.000000,4.000000,95.000000,,,,0.000000,2.000000,4.000000,4.000000,4.000000,4.000000,83.333336,,,,,,,,,,,,,,,,,,,,,,,,,,,,,,,,,,,,,,,,,,,,,,,,,,,,,,,,,,,,,,,
1656265745.864094,28.000000,0.000000,4478.974121,4440.512695,4284.615234,4276.410156,4421.538574,0.000000,4.000000,95.000000,,,,0.000000,2.000000,4.000000,4.000000,4.000000,4.000000,83.333336,,,,,,,,,,,,,,,,,,,,,,,,,,,,,,,,,,,,,,,,,,,,,,,,,,,,,,,,,,,,,,,
1656265745.871909,29.000000,0.000000,4477.948730,4438.974121,4281.538574,4310.256348,4431.282227,0.000000,4.000000,95.000000,,,,0.000000,2.000000,4.000000,4.000000,4.000000,4.000000,83.333336,,,,,,,,,,,,,,,,,,,,,,,,,,,,,,,,,,,,,,,,,,,,,,,,,,,,,,,,,,,,,,,
1656265745.879823,30.000000,0.000000,4466.153809,4464.615234,4312.307617,4309.230957,4419.487305,0.000000,4.000000,95.000000,,,,0.000000,2.000000,4.000000,4.000000,4.000000,4.000000,83.333336,,,,,,,,,,,,,,,,,,,,,,,,,,,,,,,,,,,,,,,,,,,,,,,,,,,,,,,,,,,,,,,
1656265745.887637,31.000000,0.000000,4482.563965,4491.794922,4336.410156,4294.358887,4407.179688,0.000000,4.000000,95.000000,,,,0.000000,2.000000,4.000000,4.000000,4.000000,4.000000,83.333336,,,,,,,,,,,,,,,,,,,,,,,,,,,,,,,,,,,,,,,,,,,,,,,,,,,,,,,,,,,,,,,
1656265745.895552,32.000000,0.000000,4517.436035,4507.692383,4344.102539,4298.461426,4429.230957,0.000000,4.000000,95.000000,,,,0.000000,2.000000,4.000000,4.000000,4.000000,4.000000,83.333336,,,,,,,,,,,,,,,,,,,,,,,,,,,,,,,,,,,,,,,,,,,,,,,,,,,,,,,,,,,,,,,
1656265745.903466,33.000000,0.000000,4516.410156,4509.743652,4331.282227,4325.641113,4462.563965,0.000000,4.000000,95.000000,,,,0.000000,2.000000,4.000000,4.000000,4.000000,4.000000,83.333336,,,,,,,,,,,,,,,,,,,,,,,,,,,,,,,,,,,,,,,,,,,,,,,,,,,,,,,,,,,,,,,
1656265745.911280,34.000000,0.000000,4481.538574,4491.794922,4306.153809,4342.563965,4460.512695,0.000000,4.000000,95.000000,,,,0.000000,2.000000,4.000000,4.000000,4.000000,4.000000,83.333336,,,,,,,,,,,,,,,,,,,,,,,,,,,,,,,,,,,,,,,,,,,,,,,,,,,,,,,,,,,,,,,
1656265745.919095,35.000000,0.000000,4508.205078,4505.641113,4337.436035,4348.205078,4483.077148,0.000000,4.000000,95.000000,,,,0.000000,2.000000,4.000000,4.000000,4.000000,4.000000,83.333336,,,,,,,,,,,,,,,,,,,,,,,,,,,,,,,,,,,,,,,,,,,,,,,,,,,,,,,,,,,,,,,
1656265745.927009,36.000000,0.000000,4565.128418,4540.000000,4394.358887,4332.307617,4506.153809,0.000000,4.000000,95.000000,,,,0.000000,2.000000,4.000000,4.000000,4.000000,4.000000,83.333336,,,,,,,,,,,,,,,,,,,,,,,,,,,,,,,,,,,,,,,,,,,,,,,,,,,,,,,,,,,,,,,
1656265745.934923,37.000000,0.000000,4567.692383,4547.692383,4405.128418,4341.025879,4489.230957,0.000000,4.000000,95.000000,,,,0.000000,2.000000,4.000000,4.000000,4.000000,4.000000,83.333336,,,,,,,,,,,,,,,,,,,,,,,,,,,,,,,,,,,,,,,,,,,,,,,,,,,,,,,,,,,,,,,
1656265745.942738,38.000000,0.000000,4527.692383,4535.384766,4354.358887,4363.077148,4468.205078,0.000000,4.000000,95.000000,,,,0.000000,2.000000,4.000000,4.000000,4.000000,4.000000,83.333336,,,,,,,,,,,,,,,,,,,,,,,,,,,,,,,,,,,,,,,,,,,,,,,,,,,,,,,,,,,,,,,
1656265745.950552,39.000000,0.000000,4497.948730,4521.538574,4307.692383,4337.436035,4463.589844,0.000000,4.000000,95.000000,,,,0.000000,2.000000,4.000000,4.000000,4.000000,4.000000,83.333336,,,,,,,,,,,,,,,,,,,,,,,,,,,,,,,,,,,,,,,,,,,,,,,,,,,,,,,,,,,,,,,
1656265745.958467,40.000000,0.000000,4531.282227,4535.897461,4349.743652,4341.538574,4492.820313,0.000000,4.000000,95.000000,,,,0.000000,2.000000,4.000000,4.000000,4.000000,4.000000,83.333336,,,,,,,,,,,,,,,,,,,,,,,,,,,,,,,,,,,,,,,,,,,,,,,,,,,,,,,,,,,,,,,
1656265745.966281,41.000000,0.000000,4590.256348,4554.871582,4397.948730,4372.307617,4504.102539,0.000000,4.000000,95.000000,,,,0.000000,2.000000,4.000000,4.000000,4.000000,4.000000,83.333336,,,,,,,,,,,,,,,,,,,,,,,,,,,,,,,,,,,,,,,5.448451,3.523574,1.547737,12.515316,9.493557,3.920471,0.837830,0.288528,7.520421,4.769201,2.238164,3.631243,1.592471,4.132400,3.021990,2.249148,3.719952,0.928100,3.217489,2.739476,3.037842,4.493680,2.066810,7.102633,5.749327
1656265745.974195,42.000000,0.000000,4614.871582,4571.794922,4410.256348,4378.974121,4492.820313,0.000000,4.000000,95.000000,,,,0.000000,2.000000,4.000000,4.000000,4.000000,4.000000,83.333336,,,,,,,,,,,,,,,,,,,,,,,,,,,,,,,,,,,,,,,,,,,,,,,,,,,,,,,,,,,,,,,
1656265745.982010,43.000000,0.000000,4578.461426,4589.230957,4415.897461,4376.410156,4503.589844,0.000000,4.000000,95.000000,,,,0.000000,2.000000,4.000000,4.000000,4.000000,4.000000,83.333336,,,,,,,,,,,,,,,,,,,,,,,,,,,,,,,,,,,,,,,,,,,,,,,,,,,,,,,,,,,,,,,
1656265745.989924,44.000000,0.000000,4514.358887,4567.179688,4391.282227,4337.436035,4508.205078,0.000000,4.000000,95.000000,,,,0.000000,2.000000,4.000000,4.000000,4.000000,4.000000,83.333336,,,,,,,,,,,,,,,,,,,,,,,,,,,,,,,,,,,,,,,,,,,,,,,,,,,,,,,,,,,,,,,
1656265745.997838,45.000000,0.000000,4550.256348,4564.102539,4394.871582,4340.000000,4524.102539,0.000000,4.000000,95.000000,,,,0.000000,2.000000,4.000000,4.000000,4.000000,4.000000,83.333336,,,,,,,,,,,,,,,,,,,,,,,,,,,,,,,,,,,,,,,,,,,,,,,,,,,,,,,,,,,,,,,
1656265746.005653,46.000000,0.000000,4638.461426,4588.205078,4436.922852,4400.512695,4546.666504,0.000000,4.000000,95.000000,,,,0.000000,2.000000,4.000000,4.000000,4.000000,4.000000,83.333336,,,,,,,,,,,,,,,,,,,,,,,,,,,,,,,,,,,,,,,,,,,,,,,,,,,,,,,,,,,,,,,
1656265746.013567,47.000000,0.000000,4635.384766,4583.589844,4452.307617,4410.256348,4545.641113,0.000000,4.000000,95.000000,,,,0.000000,2.000000,4.000000,4.000000,4.000000,4.000000,83.333336,,,,,,,,,,,,,,,,,,,,,,,,,,,,,,,,,,,,,,,,,,,,,,,,,,,,,,,,,,,,,,,
1656265746.021381,48.000000,0.000000,4586.153809,4576.410156,4408.717773,4380.000000,4545.128418,0.000000,4.000000,95.000000,,,,0.000000,2.000000,4.000000,4.000000,4.000000,4.000000,83.333336,,,,,,,,,,,,,,,,,,,,,,,,,,,,,,,,,,,,,,,,,,,,,,,,,,,,,,,,,,,,,,,
1656265746.029196,49.000000,0.000000,4566.153809,4570.256348,4355.384766,4363.077148,4533.333496,0.000000,4.000000,95.000000,,,,0.000000,2.000000,4.000000,4.000000,4.000000,4.000000,83.333336,,,,,,,,,,,,,,,,,,,,,,,,,,,,,,,,,,,,,,,,,,,,,,,,,,,,,,,,,,,,,,,
1656265746.037110,50.000000,0.000000,4596.410156,4606.153809,4399.487305,4410.256348,4545.128418,0.000000,4.000000,95.000000,,,,0.000000,2.000000,4.000000,4.000000,4.000000,4.000000,83.333336,,,,,,,,,,,,,,,,,,,,,,,,,,,,,,,,,,,,,,,,,,,,,,,,,,,,,,,,,,,,,,,
1656265746.045024,51.000000,0.000000,4621.025879,4643.077148,4453.846191,4460.000000,4583.589844,0.000000,4.000000,95.000000,,,,0.000000,2.000000,4.000000,4.000000,4.000000,4.000000,83.333336,,,,,,,,,,,,,,,,,,,,,,,,,,,,,,,,,,,,,,,,,,,,,,,,,,,,,,,,,,,,,,,
1656265746.052839,52.000000,0.000000,4614.871582,4617.436035,4426.666504,4438.461426,4588.205078,0.000000,4.000000,95.000000,,,,0.000000,2.000000,4.000000,4.000000,4.000000,4.000000,83.333336,,,,,,,,,,,,,,,,,,,,,,,,,,,,,,,,,,,,,,,,,,,,,,,,,,,,,,,,,,,,,,,
1656265746.060653,53.000000,0.000000,4615.897461,4600.512695,4424.615234,4413.846191,4568.717773,0.000000,4.000000,95.000000,,,,0.000000,2.000000,4.000000,4.000000,4.000000,4.000000,83.333336,,,,,,,,,,,,,,,,,,,,,,,,,,,,,,,,,,,,,,,,,,,,,,,,,,,,,,,,,,,,,,,
1656265746.068468,54.000000,0.000000,4609.230957,4610.256348,4457.948730,4405.128418,4548.205078,0.000000,4.000000,95.000000,,,,0.000000,2.000000,4.000000,4.000000,4.000000,4.000000,83.333336,,,,,,,,,,,,,,,,,,,,,,,,,,,,,,,,,,,,,,,,,,,,,,,,,,,,,,,,,,,,,,,
1656265746.076382,55.000000,0.000000,4626.153809,4632.307617,4464.102539,4407.179688,4563.077148,0.000000,4.000000,95.000000,,,,0.000000,2.000000,4.000000,4.000000,4.000000,4.000000,83.333336,,,,,,,,,,,,,,,,,,,,,,,,,,,,,,,,,,,,,,,,,,,,,,,,,,,,,,,,,,,,,,,
1656265746.084196,56.000000,0.000000,4623.077148,4616.922852,4428.205078,4403.077148,4576.410156,0.000000,4.000000,95.000000,,,,0.000000,2.000000,4.000000,4.000000,4.000000,4.000000,83.333336,,,,,,,,,,,,,,,,,,,,,,,,,,,,,,,,,,,,,,,,,,,,,,,,,,,,,,,,,,,,,,,
1656265746.092111,57.000000,0.000000,4565.641113,4574.871582,4392.307617,4376.922852,4538.974121,0.000000,4.000000,95.000000,,,,0.000000,2.000000,4.000000,4.000000,4.000000,4.000000,83.333336,,,,,,,,,,,,,,,,,,,,,,,,,,,,,,,,,,,,,,,5.541710,3.383526,1.242975,13.102728,9.794913,4.633044,0.972925,0.233525,7.232164,4.481568,1.965556,4.370337,1.631697,3.732960,2.800038,1.828108,3.405967,1.052868,3.200778,3.104029,3.541623,4.141860,1.761681,8.125173,5.846266
1656265746.099925,58.000000,0.000000,4590.256348,4623.589844,4424.102539,4397.436035,4548.205078,0.000000,4.000000,95.000000,,,,0.000000,2.000000,4.000000,4.000000,4.000000,4.000000,83.333336,,,,,,,,,,,,,,,,,,,,,,,,,,,,,,,,,,,,,,,,,,,,,,,,,,,,,,,,,,,,,,,
1656265746.107839,59.000000,0.000000,4647.692383,4672.307617,4453.846191,4426.153809,4583.589844,0.000000,4.000000,95.000000,,,,0.000000,2.000000,4.000000,4.000000,4.000000,4.000000,83.333336,,,,,,,,,,,,,,,,,,,,,,,,,,,,,,,,,,,,,,,,,,,,,,,,,,,,,,,,,,,,,,,
1656265746.115654,60.000000,0.000000,4631.794922,4632.820313,4433.846191,4412.820313,4567.692383,0.000000,4.000000,95.000000,,,,0.000000,2.000000,4.000000,4.000000,4.000000,4.000000,83.333336,,,,,,,,,,,,,,,,,,,,,,,,,,,,,,,,,,,,,,,,,,,,,,,,,,,,,,,,,,,,,,,
1656265746.123568,61.000000,0.000000,4581.025879,4589.743652,4410.256348,4392.820313,4528.205078,0.000000,4.000000,95.000000,,,,0.000000,2.000000,4.000000,4.000000,4.000000,4.000000,83.333336,,,,,,,,,,,,,,,,,,,,,,,,,,,,,,,,,,,,,,,,,,,,,,,,,,,,,,,,,,,,,,,
1656265746.131383,62.000000,0.000000,4536.410156,4564.615234,4400.512695,4365.128418,4490.769043,0.000000,4.000000,95.000000,,,,0.000000,2.000000,4.000000,4.000000,4.000000,4.000000,83.333336,,,,,,,,,,,,,,,,,,,,,,,,,,,,,,,,,,,,,,,,,,,,,,,,,,,,,,,,,,,,,,,
1656265746.139297,63.000000,0.000000,4566.153809,4592.820313,4411.794922,4368.205078,4510.256348,0.000000,4.000000,95.000000,,,,0.000000,2.000000,4.000000,4.000000,4.000000,4.000000,83.333336,,,,,,,,,,,,,,,,,,,,,,,,,,,,,,,,,,,,,,,,,,,,,,,,,,,,,,,,,,,,,,,
1656265746.147111,64.000000,0.000000,4624.102539,4649.743652,4399.487305,4393.333496,4550.769043,450.000000,4.000000,95.000000,,,,0.000000,2.000000,4.000000,4.000000,4.000000,4.000000,83.333336,,,,,,,,,,,,,,,,,,,,,,,,,,,,,,,,,,,,,,,,,,,,,,,,,,,,,,,,,,,,,,,
1656265746.155026,65.000000,0.000000,4613.846191,4625.128418,4369.743652,4374.358887,4544.102539,450.000000,4.000000,95.000000,,,,0.000000,4.000000,4.000000,4.000000,4.000000,4.000000,100.000000,,,,,,,,,,,,,,,,,,,,,,,,,,,,,,,,,,,,,,,,,,,,,,,,,,,,,,,,,,,,,,,
1656265746.162840,66.000000,0.000000,4557.436035,4546.153809,4360.512695,4331.282227,4505.641113,16104.000000,4.000000,95.000000,,,,0.000000,4.000000,4.000000,4.000000,4.000000,4.000000,100.000000,,,,,,,,,,,,,,,,,,,,,,,,,,,,,,,,,,,,,,,,,,,,,,,,,,,,,,,,,,,,,,,
1656265746.170754,67.000000,0.000000,4491.282227,4498.974121,4332.307617,4302.051270,4448.205078,450.000000,4.000000,95.000000,,,,0.000000,4.000000,4.000000,4.000000,4.000000,4.000000,100.000000,,,,,,,,,,,,,,,,,,,,,,,,,,,,,,,,,,,,,,,,,,,,,,,,,,,,,,,,,,,,,,,
1656265746.178569,68.000000,0.000000,4500.000000,4522.563965,4342.051270,4318.461426,4451.282227,16132.000000,4.000000,95.000000,,,,0.000000,4.000000,4.000000,4.000000,4.000000,4.000000,100.000000,,,,,,,,,,,,,,,,,,,,,,,,,,,,,,,,,,,,,,,,,,,,,,,,,,,,,,,,,,,,,,,
1656265746.186483,69.000000,0.000000,4560.512695,4568.205078,4390.256348,4351.794922,4503.589844,450.000000,4.000000,95.000000,,,,0.000000,4.000000,4.000000,4.000000,4.000000,4.000000,100.000000,,,,,,,,,,,,,,,,,,,,,,,,,,,,,,,,,,,,,,,,,,,,,,,,,,,,,,,,,,,,,,,
1656265746.194297,70.000000,0.000000,4542.051270,4560.512695,4381.538574,4350.769043,4501.025879,16128.000000,4.000000,95.000000,,,,0.000000,4.000000,4.000000,4.000000,4.000000,4.000000,100.000000,,,,,,,,,,,,,,,,,,,,,,,,,,,,,,,,,,,,,,,,,,,,,,,,,,,,,,,,,,,,,,,
1656265746.202212,71.000000,0.000000,4496.922852,4525.641113,4346.153809,4320.512695,4464.615234,450.000000,4.000000,95.000000,,,,0.000000,4.000000,4.000000,4.000000,4.000000,4.000000,100.000000,,,,,,,,,,,,,,,,,,,,,,,,,,,,,,,,,,,,,,,,,,,,,,,,,,,,,,,,,,,,,,,
1656265746.210126,72.000000,0.000000,4486.153809,4498.461426,4320.512695,4291.794922,4446.666504,450.000000,4.000000,95.000000,,,,0.000000,4.000000,4.000000,4.000000,4.000000,4.000000,100.000000,,,,,,,,,,,,,,,,,,,,,,,,,,,,,,,,,,,,,,,,,,,,,,,,,,,,,,,,,,,,,,,
1656265746.217940,73.000000,0.000000,4501.025879,4506.153809,4327.179688,4312.820313,4464.102539,16119.000000,4.000000,95.000000,,,,0.000000,4.000000,4.000000,4.000000,4.000000,4.000000,100.000000,,,,,,,,,,,,,,,,,,,,,,,,,,,,,,,,,,,,,,,5.265866,3.195795,1.069538,13.517701,10.106116,5.178268,1.311285,0.247234,6.885626,4.228452,1.843044,5.362735,1.650161,3.355710,2.577637,1.644406,3.103883,1.322702,3.334225,3.452155,4.124825,3.872949,1.544080,9.003399,5.865824
1656265746.225755,74.000000,0.000000,4516.922852,4513.846191,4349.743652,4327.692383,4464.615234,450.000000,4.000000,95.000000,,,,0.000000,4.000000,4.000000,4.000000,4.000000,4.000000,100.000000,,,,,,,,,,,,,,,,,,,,,,,,,,,,,,,,,,,,,,,,,,,,,,,,,,,,,,,,,,,,,,,
