title:david_g_Right, start timestamp:1649886595.451514, stop timestamp:1649886600.435075, headset type:INSIGHT, headset serial:A2D201AE, headset firmware:932, channels:84, sampling rate:eeg_128;pm_0.1;pow_8, samples:642       , version:2.1, 
Timestamp,EEG.Counter,EEG.Interpolated,EEG.AF3,EEG.T7,EEG.Pz,EEG.T8,EEG.AF4,EEG.RawCq,EEG.Battery,EEG.BatteryPercent,MarkerIndex,MarkerType,MarkerValueInt,EEG.MarkerHardware,CQ.AF3,CQ.T7,CQ.Pz,CQ.T8,CQ.AF4,CQ.Overall,EQ.SampleRateQuality,EQ.OVERALL,EQ.AF3,EQ.T7,EQ.Pz,EQ.T8,EQ.AF4,PM.Engagement.IsActive,PM.Engagement.Scaled,PM.Engagement.Raw,PM.Engagement.Min,PM.Engagement.Max,PM.Excitement.IsActive,PM.Excitement.Scaled,PM.Excitement.Raw,PM.Excitement.Min,PM.Excitement.Max,PM.LongTermExcitement,PM.Stress.IsActive,PM.Stress.Scaled,PM.Stress.Raw,PM.Stress.Min,PM.Stress.Max,PM.Relaxation.IsActive,PM.Relaxation.Scaled,PM.Relaxation.Raw,PM.Relaxation.Min,PM.Relaxation.Max,PM.Interest.IsActive,PM.Interest.Scaled,PM.Interest.Raw,PM.Interest.Min,PM.Interest.Max,PM.Focus.IsActive,PM.Focus.Scaled,PM.Focus.Raw,PM.Focus.Min,PM.Focus.Max,POW.AF3.Theta,POW.AF3.Alpha,POW.AF3.BetaL,POW.AF3.BetaH,POW.AF3.Gamma,POW.T7.Theta,POW.T7.Alpha,POW.T7.BetaL,POW.T7.BetaH,POW.T7.Gamma,POW.Pz.Theta,POW.Pz.Alpha,POW.Pz.BetaL,POW.Pz.BetaH,POW.Pz.Gamma,POW.T8.Theta,POW.T8.Alpha,POW.T8.BetaL,POW.T8.BetaH,POW.T8.Gamma,POW.AF4.Theta,POW.AF4.Alpha,POW.AF4.BetaL,POW.AF4.BetaH,POW.AF4.Gamma
1649886595.451514,52.000000,0.000000,4228.205078,4242.563965,4137.436035,4204.102539,4216.410156,0.000000,4.000000,91.000000,,,,0.000000,4.000000,4.000000,4.000000,1.000000,4.000000,75.000000,,,,,,,,,,,,,,,,,,,,,,,,,,,,,,,,,,,,,,,,,,,,,,,,,,,,,,,,,,,,,,,
1649886595.459228,53.000000,0.000000,4281.538574,4276.410156,4181.025879,4220.512695,4258.461426,0.000000,4.000000,91.000000,,,,0.000000,4.000000,4.000000,4.000000,1.000000,4.000000,75.000000,,,,,,,,,,,,,,,,,,,,,,,,,,,,,,,,,,,,,,,,,,,,,,,,,,,,,,,,,,,,,,,
1649886595.467043,54.000000,0.000000,4291.282227,4287.692383,4202.563965,4229.743652,4275.384766,0.000000,4.000000,91.000000,,,,0.000000,4.000000,4.000000,4.000000,1.000000,4.000000,75.000000,,,,,,,,,,,,,,,,,,,,,,,,,,,,,,,,,,,,,,,,,,,,,,,,,,,,,,,,,,,,,,,
1649886595.474757,55.000000,0.000000,4264.102539,4270.256348,4182.563965,4225.128418,4256.410156,0.000000,4.000000,91.000000,,,,0.000000,4.000000,4.000000,4.000000,1.000000,4.000000,75.000000,,,,,,,,,,,,,,,,,,,,,,,,,,,,,,,,,,,,,,,,,,,,,,,,,,,,,,,,,,,,,,,
1649886595.482572,56.000000,0.000000,4263.589844,4275.897461,4185.641113,4225.128418,4252.307617,0.000000,4.000000,91.000000,,,,0.000000,4.000000,4.000000,4.000000,1.000000,4.000000,75.000000,,,,,,,,,,,,,,,,,,,,,,,,,,,,,,,,,,,,,,,,,,,,,,,,,,,,,,,,,,,,,,,
1649886595.490286,57.000000,0.000000,4270.769043,4285.128418,4193.846191,4225.641113,4258.974121,0.000000,4.000000,91.000000,,,,0.000000,4.000000,4.000000,4.000000,1.000000,4.000000,75.000000,,,,,,,,,,,,,,,,,,,,,,,,,,,,,,,,,,,,,,,,,,,,,,,,,,,,,,,,,,,,,,,
1649886595.498101,58.000000,0.000000,4266.153809,4266.666504,4172.820313,4221.025879,4249.230957,0.000000,4.000000,91.000000,,,,0.000000,4.000000,4.000000,4.000000,1.000000,4.000000,75.000000,,,,,,,,,,,,,,,,,,,,,,,,,,,,,,,,,,,,,,,,,,,,,,,,,,,,,,,,,,,,,,,
1649886595.505815,59.000000,0.000000,4264.102539,4252.820313,4158.974121,4217.948730,4243.589844,0.000000,4.000000,91.000000,,,,0.000000,4.000000,4.000000,4.000000,1.000000,4.000000,75.000000,,,,,,,,,,,,,,,,,,,,,,,,,,,,,,,,,,,,,,,,,,,,,,,,,,,,,,,,,,,,,,,
1649886595.513629,60.000000,0.000000,4262.563965,4259.487305,4163.589844,4215.897461,4244.615234,0.000000,4.000000,91.000000,,,,0.000000,4.000000,4.000000,4.000000,1.000000,4.000000,75.000000,,,,,,,,,,,,,,,,,,,,,,,,,,,,,,,,,,,,,,,,,,,,,,,,,,,,,,,,,,,,,,,
1649886595.521344,61.000000,0.000000,4261.538574,4267.179688,4168.717773,4217.948730,4241.538574,0.000000,4.000000,91.000000,,,,0.000000,4.000000,4.000000,4.000000,1.000000,4.000000,75.000000,,,,,,,,,,,,,,,,,,,,,,,,,,,,,,,,,,,,,,,,,,,,,,,,,,,,,,,,,,,,,,,
1649886595.529059,62.000000,0.000000,4256.922852,4263.589844,4163.077148,4221.025879,4236.410156,0.000000,4.000000,91.000000,,,,0.000000,4.000000,4.000000,4.000000,1.000000,4.000000,75.000000,,,,,,,,,,,,,,,,,,,,,,,,,,,,,,,,,,,,,,,,,,,,,,,,,,,,,,,,,,,,,,,
1649886595.536873,63.000000,0.000000,4232.307617,4243.589844,4140.000000,4211.794922,4213.846191,0.000000,4.000000,91.000000,,,,0.000000,4.000000,4.000000,4.000000,1.000000,4.000000,75.000000,,,,,,,,,,,,,,,,,,,,,,,,,,,,,,,,,,,,,,,,,,,,,,,,,,,,,,,,,,,,,,,
1649886595.544587,64.000000,0.000000,4223.589844,4241.025879,4129.743652,4205.128418,4206.153809,450.000000,4.000000,91.000000,,,,0.000000,4.000000,4.000000,4.000000,1.000000,4.000000,75.000000,,,,,,,,,,,,,,,,,,,,,,,,,,,,,,,,,,,,,,,,,,,,,,,,,,,,,,,,,,,,,,,
1649886595.552402,65.000000,0.000000,4249.743652,4261.025879,4145.641113,4213.333496,4231.282227,450.000000,4.000000,91.000000,,,,0.000000,4.000000,4.000000,4.000000,1.000000,4.000000,75.000000,,,,,,,,,,,,,,,,,,,,,,,,,,,,,,,,,,,,,,,81.290230,7.230072,4.456251,2.054020,1.556147,1.286673,1.201375,2.405707,1.097125,0.949212,2.414034,3.043955,2.626509,0.957076,1.424959,0.423347,0.184138,0.196934,0.115319,0.138606,53.209904,7.877807,4.967492,1.821080,1.263439
1649886595.560116,66.000000,0.000000,4262.051270,4261.538574,4156.922852,4218.974121,4240.512695,16232.000000,4.000000,91.000000,,,,0.000000,4.000000,4.000000,4.000000,1.000000,4.000000,75.000000,,,,,,,,,,,,,,,,,,,,,,,,,,,,,,,,,,,,,,,,,,,,,,,,,,,,,,,,,,,,,,,
1649886595.567931,67.000000,0.000000,4257.436035,4254.871582,4161.025879,4221.025879,4230.769043,450.000000,4.000000,91.000000,,,,0.000000,4.000000,4.000000,4.000000,1.000000,4.000000,75.000000,,,,,,,,,,,,,,,,,,,,,,,,,,,,,,,,,,,,,,,,,,,,,,,,,,,,,,,,,,,,,,,
1649886595.575645,68.000000,0.000000,4264.615234,4266.153809,4169.230957,4224.102539,4234.871582,16195.000000,4.000000,91.000000,,,,0.000000,4.000000,4.000000,4.000000,1.000000,4.000000,75.000000,,,,,,,,,,,,,,,,,,,,,,,,,,,,,,,,,,,,,,,,,,,,,,,,,,,,,,,,,,,,,,,
1649886595.583460,69.000000,0.000000,4266.666504,4266.153809,4170.256348,4222.051270,4235.897461,450.000000,4.000000,91.000000,,,,0.000000,4.000000,4.000000,4.000000,1.000000,4.000000,75.000000,,,,,,,,,,,,,,,,,,,,,,,,,,,,,,,,,,,,,,,,,,,,,,,,,,,,,,,,,,,,,,,
1649886595.591274,70.000000,0.000000,4254.871582,4253.846191,4167.179688,4217.948730,4228.717773,16194.000000,4.000000,91.000000,,,,0.000000,4.000000,4.000000,4.000000,1.000000,4.000000,75.000000,,,,,,,,,,,,,,,,,,,,,,,,,,,,,,,,,,,,,,,,,,,,,,,,,,,,,,,,,,,,,,,
1649886595.598989,71.000000,0.000000,4260.512695,4263.589844,4168.717773,4220.512695,4250.769043,450.000000,4.000000,91.000000,,,,0.000000,4.000000,4.000000,4.000000,1.000000,4.000000,75.000000,,,,,,,,,,,,,,,,,,,,,,,,,,,,,,,,,,,,,,,,,,,,,,,,,,,,,,,,,,,,,,,
1649886595.606803,72.000000,0.000000,4263.077148,4266.153809,4159.487305,4220.512695,4257.436035,450.000000,4.000000,91.000000,,,,0.000000,4.000000,4.000000,4.000000,1.000000,4.000000,75.000000,,,,,,,,,,,,,,,,,,,,,,,,,,,,,,,,,,,,,,,,,,,,,,,,,,,,,,,,,,,,,,,
1649886595.614517,73.000000,0.000000,4249.743652,4250.256348,4150.769043,4213.846191,4231.794922,49.000000,4.000000,91.000000,,,,0.000000,4.000000,4.000000,4.000000,1.000000,4.000000,75.000000,,,,,,,,,,,,,,,,,,,,,,,,,,,,,,,,,,,,,,,,,,,,,,,,,,,,,,,,,,,,,,,
1649886595.622232,74.000000,0.000000,4267.692383,4258.974121,4169.743652,4218.461426,4240.512695,450.000000,4.000000,91.000000,,,,0.000000,4.000000,4.000000,4.000000,1.000000,4.000000,75.000000,,,,,,,,,,,,,,,,,,,,,,,,,,,,,,,,,,,,,,,,,,,,,,,,,,,,,,,,,,,,,,,
1649886595.630046,75.000000,0.000000,4290.769043,4273.846191,4183.589844,4222.051270,4261.538574,16198.000000,4.000000,91.000000,,,,0.000000,4.000000,4.000000,4.000000,1.000000,4.000000,75.000000,,,,,,,,,,,,,,,,,,,,,,,,,,,,,,,,,,,,,,,,,,,,,,,,,,,,,,,,,,,,,,,
1649886595.637861,76.000000,0.000000,4278.461426,4269.743652,4176.410156,4218.974121,4255.897461,450.000000,4.000000,91.000000,,,,0.000000,4.000000,4.000000,4.000000,1.000000,4.000000,75.000000,,,,,,,,,,,,,,,,,,,,,,,,,,,,,,,,,,,,,,,,,,,,,,,,,,,,,,,,,,,,,,,
1649886595.645575,77.000000,0.000000,4265.641113,4263.589844,4169.743652,4217.436035,4248.717773,450.000000,4.000000,91.000000,,,,0.000000,4.000000,4.000000,4.000000,1.000000,4.000000,75.000000,,,,,,,,,,,,,,,,,,,,,,,,,,,,,,,,,,,,,,,,,,,,,,,,,,,,,,,,,,,,,,,
1649886595.653290,78.000000,0.000000,4273.846191,4266.153809,4170.769043,4217.436035,4249.230957,450.000000,4.000000,91.000000,,,,0.000000,4.000000,4.000000,4.000000,1.000000,4.000000,75.000000,,,,,,,,,,,,,,,,,,,,,,,,,,,,,,,,,,,,,,,,,,,,,,,,,,,,,,,,,,,,,,,
1649886595.661104,79.000000,0.000000,4273.846191,4267.179688,4171.794922,4216.410156,4245.128418,16198.000000,4.000000,91.000000,,,,0.000000,4.000000,4.000000,4.000000,1.000000,4.000000,75.000000,,,,,,,,,,,,,,,,,,,,,,,,,,,,,,,,,,,,,,,,,,,,,,,,,,,,,,,,,,,,,,,
1649886595.668819,80.000000,0.000000,4268.205078,4267.179688,4178.461426,4215.384766,4245.128418,450.000000,4.000000,91.000000,,,,0.000000,4.000000,4.000000,4.000000,1.000000,4.000000,75.000000,,,,,,,,,,,,,,,,,,,,,,,,,,,,,,,,,,,,,,,,,,,,,,,,,,,,,,,,,,,,,,,
1649886595.676633,81.000000,0.000000,4281.025879,4274.358887,4186.666504,4220.000000,4254.358887,450.000000,4.000000,91.000000,,,,0.000000,4.000000,4.000000,4.000000,1.000000,4.000000,75.000000,,,,,,,,,,,,,,,,,,,,,,,,,,,,,,,,,,,,,,,53.341080,5.123469,4.781755,2.362490,1.392638,1.216437,1.359987,2.684821,1.157596,0.894552,1.769817,2.750270,2.949879,1.250508,1.514608,0.379476,0.167283,0.211588,0.134229,0.136618,35.023335,5.479677,4.547187,2.157073,1.363537
1649886595.684348,82.000000,0.000000,4277.436035,4271.794922,4177.436035,4222.051270,4244.615234,450.000000,4.000000,91.000000,,,,0.000000,4.000000,4.000000,4.000000,1.000000,4.000000,75.000000,,,,,,,,,,,,,,,,,,,,,,,,,,,,,,,,,,,,,,,,,,,,,,,,,,,,,,,,,,,,,,,
1649886595.692062,83.000000,0.000000,4244.615234,4255.384766,4165.641113,4218.974121,4224.102539,16198.000000,4.000000,91.000000,,,,0.000000,4.000000,4.000000,4.000000,1.000000,4.000000,75.000000,,,,,,,,,,,,,,,,,,,,,,,,,,,,,,,,,,,,,,,,,,,,,,,,,,,,,,,,,,,,,,,
1649886595.699877,84.000000,0.000000,4238.461426,4250.769043,4164.615234,4216.410156,4221.538574,450.000000,4.000000,91.000000,,,,0.000000,4.000000,4.000000,4.000000,1.000000,4.000000,75.000000,,,,,,,,,,,,,,,,,,,,,,,,,,,,,,,,,,,,,,,,,,,,,,,,,,,,,,,,,,,,,,,
1649886595.707591,85.000000,0.000000,4261.025879,4260.000000,4161.538574,4216.922852,4229.230957,450.000000,4.000000,91.000000,,,,0.000000,4.000000,4.000000,4.000000,1.000000,4.000000,75.000000,,,,,,,,,,,,,,,,,,,,,,,,,,,,,,,,,,,,,,,,,,,,,,,,,,,,,,,,,,,,,,,
1649886595.715406,86.000000,0.000000,4264.102539,4259.487305,4161.025879,4217.948730,4233.846191,450.000000,4.000000,91.000000,,,,0.000000,4.000000,4.000000,4.000000,1.000000,4.000000,75.000000,,,,,,,,,,,,,,,,,,,,,,,,,,,,,,,,,,,,,,,,,,,,,,,,,,,,,,,,,,,,,,,
1649886595.723220,87.000000,0.000000,4263.077148,4254.358887,4171.794922,4218.974121,4244.102539,16198.000000,4.000000,91.000000,,,,0.000000,4.000000,4.000000,4.000000,1.000000,4.000000,75.000000,,,,,,,,,,,,,,,,,,,,,,,,,,,,,,,,,,,,,,,,,,,,,,,,,,,,,,,,,,,,,,,
1649886595.730934,88.000000,0.000000,4265.641113,4258.461426,4173.333496,4220.512695,4245.128418,450.000000,4.000000,91.000000,,,,0.000000,4.000000,4.000000,4.000000,1.000000,4.000000,75.000000,,,,,,,,,,,,,,,,,,,,,,,,,,,,,,,,,,,,,,,,,,,,,,,,,,,,,,,,,,,,,,,
1649886595.738749,89.000000,0.000000,4246.153809,4256.922852,4156.410156,4216.410156,4228.205078,450.000000,4.000000,91.000000,,,,0.000000,4.000000,4.000000,4.000000,1.000000,4.000000,75.000000,,,,,,,,,,,,,,,,,,,,,,,,,,,,,,,,,,,,,,,,,,,,,,,,,,,,,,,,,,,,,,,
1649886595.746463,90.000000,0.000000,4242.051270,4256.410156,4157.436035,4211.794922,4231.794922,450.000000,4.000000,91.000000,,,,0.000000,4.000000,4.000000,4.000000,1.000000,4.000000,75.000000,,,,,,,,,,,,,,,,,,,,,,,,,,,,,,,,,,,,,,,,,,,,,,,,,,,,,,,,,,,,,,,
1649886595.754278,91.000000,0.000000,4263.589844,4258.974121,4169.230957,4212.307617,4247.179688,16198.000000,4.000000,91.000000,,,,0.000000,4.000000,4.000000,4.000000,1.000000,4.000000,75.000000,,,,,,,,,,,,,,,,,,,,,,,,,,,,,,,,,,,,,,,,,,,,,,,,,,,,,,,,,,,,,,,
1649886595.761992,92.000000,0.000000,4256.922852,4257.436035,4169.230957,4214.871582,4233.846191,450.000000,4.000000,91.000000,,,,0.000000,4.000000,4.000000,4.000000,1.000000,4.000000,75.000000,,,,,,,,,,,,,,,,,,,,,,,,,,,,,,,,,,,,,,,,,,,,,,,,,,,,,,,,,,,,,,,
1649886595.769807,93.000000,0.000000,4233.846191,4255.384766,4171.282227,4216.410156,4213.846191,450.000000,4.000000,91.000000,,,,0.000000,4.000000,4.000000,4.000000,1.000000,4.000000,75.000000,,,,,,,,,,,,,,,,,,,,,,,,,,,,,,,,,,,,,,,,,,,,,,,,,,,,,,,,,,,,,,,
1649886595.777521,94.000000,0.000000,4236.922852,4251.282227,4175.384766,4213.846191,4218.461426,450.000000,4.000000,91.000000,,,,0.000000,4.000000,4.000000,4.000000,1.000000,4.000000,75.000000,,,,,,,,,,,,,,,,,,,,,,,,,,,,,,,,,,,,,,,,,,,,,,,,,,,,,,,,,,,,,,,
1649886595.785236,95.000000,0.000000,4267.692383,4260.000000,4184.615234,4216.922852,4242.051270,16198.000000,4.000000,91.000000,,,,0.000000,4.000000,4.000000,4.000000,1.000000,4.000000,75.000000,,,,,,,,,,,,,,,,,,,,,,,,,,,,,,,,,,,,,,,,,,,,,,,,,,,,,,,,,,,,,,,
1649886595.793050,96.000000,0.000000,4286.666504,4273.846191,4193.333496,4226.153809,4245.641113,450.000000,4.000000,91.000000,,,,0.000000,4.000000,4.000000,4.000000,1.000000,4.000000,75.000000,,,,,,,,,,,,,,,,,,,,,,,,,,,,,,,,,,,,,,,,,,,,,,,,,,,,,,,,,,,,,,,
1649886595.800765,97.000000,0.000000,4263.589844,4265.128418,4184.615234,4223.077148,4224.615234,450.000000,4.000000,91.000000,,,,0.000000,4.000000,4.000000,4.000000,1.000000,4.000000,75.000000,1.000000,75.000000,4.000000,4.000000,4.000000,1.000000,4.000000,,,,,,,,,,,,,,,,,,,,,,,,,,,,,,,,29.187073,3.466631,4.987311,2.606782,1.229430,1.169661,1.663792,2.807456,1.201246,0.857977,1.448246,2.833871,3.131065,1.592434,1.591733,0.331446,0.205547,0.227893,0.157613,0.134425,19.428165,3.638715,4.121375,2.498982,1.485824
1649886595.808579,98.000000,0.000000,4253.333496,4256.922852,4176.922852,4213.846191,4231.794922,450.000000,4.000000,91.000000,,,,0.000000,4.000000,4.000000,4.000000,1.000000,4.000000,75.000000,,,,,,,,,,,,,,,,,,,,,,,,,,,,,,,,,,,,,,,,,,,,,,,,,,,,,,,,,,,,,,,
1649886595.816294,99.000000,0.000000,4270.256348,4260.512695,4181.538574,4216.410156,4251.282227,16198.000000,4.000000,91.000000,,,,0.000000,4.000000,4.000000,4.000000,1.000000,4.000000,75.000000,,,,,,,,,,,,,,,,,,,,,,,,,,,,,,,,,,,,,,,,,,,,,,,,,,,,,,,,,,,,,,,
1649886595.824108,100.000000,0.000000,4250.769043,4250.256348,4171.794922,4218.974121,4226.666504,450.000000,4.000000,91.000000,,,,0.000000,4.000000,4.000000,4.000000,1.000000,4.000000,75.000000,,,,,,,,,,,,,,,,,,,,,,,,,,,,,,,,,,,,,,,,,,,,,,,,,,,,,,,,,,,,,,,
1649886595.831922,101.000000,0.000000,4236.410156,4251.794922,4168.205078,4220.000000,4212.307617,450.000000,4.000000,91.000000,,,,0.000000,4.000000,4.000000,4.000000,1.000000,4.000000,75.000000,,,,,,,,,,,,,,,,,,,,,,,,,,,,,,,,,,,,,,,,,,,,,,,,,,,,,,,,,,,,,,,
1649886595.839637,102.000000,0.000000,4274.871582,4274.871582,4184.102539,4225.128418,4245.128418,450.000000,4.000000,91.000000,,,,0.000000,4.000000,4.000000,4.000000,1.000000,4.000000,75.000000,,,,,,,,,,,,,,,,,,,,,,,,,,,,,,,,,,,,,,,,,,,,,,,,,,,,,,,,,,,,,,,
1649886595.847351,103.000000,0.000000,4280.000000,4271.794922,4181.538574,4227.179688,4247.692383,16198.000000,4.000000,91.000000,,,,0.000000,4.000000,4.000000,4.000000,1.000000,4.000000,75.000000,,,,,,,,,,,,,,,,,,,,,,,,,,,,,,,,,,,,,,,,,,,,,,,,,,,,,,,,,,,,,,,
1649886595.855066,104.000000,0.000000,4230.256348,4244.102539,4156.922852,4220.512695,4207.179688,450.000000,4.000000,91.000000,,,,0.000000,4.000000,4.000000,4.000000,1.000000,4.000000,75.000000,,,,,,,,,,,,,,,,,,,,,,,,,,,,,,,,,,,,,,,,,,,,,,,,,,,,,,,,,,,,,,,
1649886595.862880,105.000000,0.000000,4217.436035,4238.974121,4143.589844,4216.410156,4190.769043,450.000000,4.000000,91.000000,,,,0.000000,4.000000,4.000000,4.000000,1.000000,4.000000,75.000000,,,,,,,,,,,,,,,,,,,,,,,,,,,,,,,,,,,,,,,,,,,,,,,,,,,,,,,,,,,,,,,
1649886595.870695,106.000000,0.000000,4256.410156,4261.538574,4166.666504,4223.589844,4224.615234,450.000000,4.000000,91.000000,,,,0.000000,4.000000,4.000000,4.000000,1.000000,4.000000,75.000000,,,,,,,,,,,,,,,,,,,,,,,,,,,,,,,,,,,,,,,,,,,,,,,,,,,,,,,,,,,,,,,
1649886595.878409,107.000000,0.000000,4282.051270,4286.666504,4205.128418,4234.358887,4252.820313,16198.000000,4.000000,91.000000,,,,0.000000,4.000000,4.000000,4.000000,1.000000,4.000000,75.000000,,,,,,,,,,,,,,,,,,,,,,,,,,,,,,,,,,,,,,,,,,,,,,,,,,,,,,,,,,,,,,,
1649886595.886224,108.000000,0.000000,4272.307617,4289.743652,4212.307617,4234.358887,4239.487305,450.000000,4.000000,91.000000,,,,0.000000,4.000000,4.000000,4.000000,1.000000,4.000000,75.000000,,,,,,,,,,,,,,,,,,,,,,,,,,,,,,,,,,,,,,,,,,,,,,,,,,,,,,,,,,,,,,,
1649886595.893938,109.000000,0.000000,4261.025879,4276.410156,4195.384766,4229.743652,4232.820313,450.000000,4.000000,91.000000,,,,0.000000,4.000000,4.000000,4.000000,1.000000,4.000000,75.000000,,,,,,,,,,,,,,,,,,,,,,,,,,,,,,,,,,,,,,,,,,,,,,,,,,,,,,,,,,,,,,,
1649886595.901753,110.000000,0.000000,4269.743652,4274.871582,4198.974121,4231.794922,4254.871582,450.000000,4.000000,91.000000,,,,0.000000,4.000000,4.000000,4.000000,1.000000,4.000000,75.000000,,,,,,,,,,,,,,,,,,,,,,,,,,,,,,,,,,,,,,,,,,,,,,,,,,,,,,,,,,,,,,,
1649886595.909467,111.000000,0.000000,4282.051270,4283.077148,4212.307617,4235.384766,4263.077148,16198.000000,4.000000,91.000000,,,,0.000000,4.000000,4.000000,4.000000,1.000000,4.000000,75.000000,,,,,,,,,,,,,,,,,,,,,,,,,,,,,,,,,,,,,,,,,,,,,,,,,,,,,,,,,,,,,,,
1649886595.917281,112.000000,0.000000,4281.025879,4280.000000,4200.512695,4229.230957,4247.179688,450.000000,4.000000,91.000000,,,,0.000000,4.000000,4.000000,4.000000,1.000000,4.000000,75.000000,,,,,,,,,,,,,,,,,,,,,,,,,,,,,,,,,,,,,,,,,,,,,,,,,,,,,,,,,,,,,,,
1649886595.924996,113.000000,0.000000,4279.487305,4276.922852,4191.282227,4225.128418,4245.641113,450.000000,4.000000,91.000000,,,,0.000000,4.000000,4.000000,4.000000,1.000000,4.000000,75.000000,,,,,,,,,,,,,,,,,,,,,,,,,,,,,,,,,,,,,,,13.463574,2.647079,4.940203,2.753789,1.084160,1.126162,2.013813,2.716161,1.195939,0.835939,1.543336,3.369450,3.063296,1.911152,1.617971,0.289389,0.300922,0.236103,0.180062,0.130473,9.488453,2.830821,3.736997,2.772441,1.583765
1649886595.932810,114.000000,0.000000,4295.384766,4287.692383,4204.102539,4232.820313,4262.051270,450.000000,4.000000,91.000000,,,,0.000000,4.000000,4.000000,4.000000,1.000000,4.000000,75.000000,,,,,,,,,,,,,,,,,,,,,,,,,,,,,,,,,,,,,,,,,,,,,,,,,,,,,,,,,,,,,,,
1649886595.940525,115.000000,0.000000,4310.769043,4295.384766,4211.282227,4238.974121,4275.384766,16198.000000,4.000000,91.000000,,,,0.000000,4.000000,4.000000,4.000000,1.000000,4.000000,75.000000,,,,,,,,,,,,,,,,,,,,,,,,,,,,,,,,,,,,,,,,,,,,,,,,,,,,,,,,,,,,,,,
1649886595.948239,116.000000,0.000000,4300.000000,4286.666504,4201.538574,4236.922852,4268.205078,450.000000,4.000000,91.000000,,,,0.000000,4.000000,4.000000,4.000000,1.000000,4.000000,75.000000,,,,,,,,,,,,,,,,,,,,,,,,,,,,,,,,,,,,,,,,,,,,,,,,,,,,,,,,,,,,,,,
1649886595.956054,117.000000,0.000000,4289.743652,4284.102539,4202.563965,4235.897461,4252.307617,450.000000,4.000000,91.000000,,,,0.000000,4.000000,4.000000,4.000000,1.000000,4.000000,75.000000,,,,,,,,,,,,,,,,,,,,,,,,,,,,,,,,,,,,,,,,,,,,,,,,,,,,,,,,,,,,,,,
1649886595.963868,118.000000,0.000000,4295.897461,4287.692383,4207.692383,4236.410156,4253.846191,450.000000,4.000000,91.000000,,,,0.000000,4.000000,4.000000,4.000000,1.000000,4.000000,75.000000,,,,,,,,,,,,,,,,,,,,,,,,,,,,,,,,,,,,,,,,,,,,,,,,,,,,,,,,,,,,,,,
1649886595.971583,119.000000,0.000000,4265.128418,4268.717773,4180.512695,4227.179688,4230.256348,16198.000000,4.000000,91.000000,,,,0.000000,4.000000,4.000000,4.000000,1.000000,4.000000,75.000000,,,,,,,,,,,,,,,,,,,,,,,,,,,,,,,,,,,,,,,,,,,,,,,,,,,,,,,,,,,,,,,
1649886595.979297,120.000000,0.000000,4225.641113,4250.256348,4156.410156,4216.922852,4191.794922,450.000000,4.000000,91.000000,,,,0.000000,4.000000,4.000000,4.000000,1.000000,4.000000,75.000000,,,,,,,,,,,,,,,,,,,,,,,,,,,,,,,,,,,,,,,,,,,,,,,,,,,,,,,,,,,,,,,
1649886595.987112,121.000000,0.000000,4256.410156,4268.205078,4184.615234,4225.641113,4221.025879,450.000000,4.000000,91.000000,,,,0.000000,4.000000,4.000000,4.000000,1.000000,4.000000,75.000000,,,,,,,,,,,,,,,,,,,,,,,,,,,,,,,,,,,,,,,,,,,,,,,,,,,,,,,,,,,,,,,
1649886595.994826,122.000000,0.000000,4292.307617,4286.666504,4210.256348,4236.922852,4270.256348,450.000000,4.000000,91.000000,,,,0.000000,4.000000,4.000000,4.000000,1.000000,4.000000,75.000000,,,,,,,,,,,,,,,,,,,,,,,,,,,,,,,,,,,,,,,,,,,,,,,,,,,,,,,,,,,,,,,
1649886596.002641,123.000000,0.000000,4272.820313,4275.897461,4190.256348,4233.333496,4253.333496,16198.000000,4.000000,91.000000,,,,0.000000,4.000000,4.000000,4.000000,1.000000,4.000000,75.000000,,,,,,,,,,,,,,,,,,,,,,,,,,,,,,,,,,,,,,,,,,,,,,,,,,,,,,,,,,,,,,,
1649886596.010355,124.000000,0.000000,4268.205078,4269.743652,4177.948730,4228.717773,4232.820313,450.000000,4.000000,91.000000,,,,0.000000,4.000000,4.000000,4.000000,1.000000,4.000000,75.000000,,,,,,,,,,,,,,,,,,,,,,,,,,,,,,,,,,,,,,,,,,,,,,,,,,,,,,,,,,,,,,,
1649886596.018169,125.000000,0.000000,4290.256348,4277.948730,4191.282227,4232.307617,4254.871582,450.000000,4.000000,91.000000,,,,0.000000,4.000000,4.000000,4.000000,1.000000,4.000000,75.000000,,,,,,,,,,,,,,,,,,,,,,,,,,,,,,,,,,,,,,,,,,,,,,,,,,,,,,,,,,,,,,,
1649886596.025884,126.000000,0.000000,4273.846191,4276.410156,4188.205078,4231.282227,4263.077148,450.000000,4.000000,91.000000,,,,0.000000,4.000000,4.000000,4.000000,1.000000,4.000000,75.000000,,,,,,,,,,,,,,,,,,,,,,,,,,,,,,,,,,,,,,,,,,,,,,,,,,,,,,,,,,,,,,,
1649886596.033698,127.000000,0.000000,4258.461426,4272.820313,4182.563965,4226.153809,4256.922852,242.000000,4.000000,91.000000,,,,0.000000,4.000000,4.000000,4.000000,1.000000,4.000000,75.000000,,,,,,,,,,,,,,,,,,,,,,,,,,,,,,,,,,,,,,,,,,,,,,,,,,,,,,,,,,,,,,,
1649886596.041413,0.000000,0.000000,4280.000000,4279.487305,4193.333496,4230.769043,4262.563965,450.000000,4.000000,91.000000,,,,0.000000,4.000000,4.000000,4.000000,1.000000,4.000000,75.000000,,,,,,,,,,,,,,,,,,,,,,,,,,,,,,,,,,,,,,,,,,,,,,,,,,,,,,,,,,,,,,,
1649886596.049227,1.000000,0.000000,4282.051270,4282.051270,4188.205078,4233.333496,4255.384766,450.000000,4.000000,91.000000,,,,0.000000,4.000000,4.000000,4.000000,1.000000,4.000000,75.000000,,,,,,,,,,,,,,,,,,,,,,,,,,,,,,,,,,,,,,,6.289313,2.600067,4.602258,2.815624,0.983809,1.123397,2.298693,2.416966,1.134732,0.819115,1.987569,4.219338,2.748210,2.153334,1.574118,0.254481,0.433736,0.230933,0.198465,0.124948,5.174858,2.977483,3.393929,2.916745,1.623762
1649886596.056942,2.000000,0.000000,4263.077148,4271.794922,4167.692383,4223.589844,4240.512695,16235.000000,4.000000,91.000000,,,,0.000000,4.000000,4.000000,4.000000,1.000000,4.000000,75.000000,,,,,,,,,,,,,,,,,,,,,,,,,,,,,,,,,,,,,,,,,,,,,,,,,,,,,,,,,,,,,,,
1649886596.064756,3.000000,0.000000,4261.538574,4261.025879,4160.512695,4221.538574,4236.410156,450.000000,4.000000,91.000000,,,,0.000000,4.000000,4.000000,4.000000,1.000000,4.000000,75.000000,,,,,,,,,,,,,,,,,,,,,,,,,,,,,,,,,,,,,,,,,,,,,,,,,,,,,,,,,,,,,,,
1649886596.072471,4.000000,0.000000,4263.077148,4263.589844,4161.025879,4224.102539,4230.256348,16209.000000,4.000000,91.000000,,,,0.000000,4.000000,4.000000,4.000000,1.000000,4.000000,75.000000,,,,,,,,,,,,,,,,,,,,,,,,,,,,,,,,,,,,,,,,,,,,,,,,,,,,,,,,,,,,,,,
1649886596.080285,5.000000,0.000000,4256.410156,4271.282227,4157.436035,4220.512695,4228.205078,450.000000,4.000000,91.000000,,,,0.000000,4.000000,4.000000,4.000000,1.000000,4.000000,75.000000,,,,,,,,,,,,,,,,,,,,,,,,,,,,,,,,,,,,,,,,,,,,,,,,,,,,,,,,,,,,,,,
1649886596.088000,6.000000,0.000000,4260.512695,4273.846191,4155.384766,4221.025879,4236.922852,16193.000000,4.000000,91.000000,,,,0.000000,4.000000,4.000000,4.000000,1.000000,4.000000,75.000000,,,,,,,,,,,,,,,,,,,,,,,,,,,,,,,,,,,,,,,,,,,,,,,,,,,,,,,,,,,,,,,
1649886596.095814,7.000000,0.000000,4265.128418,4274.358887,4152.307617,4224.102539,4227.692383,450.000000,4.000000,91.000000,,,,0.000000,4.000000,4.000000,4.000000,1.000000,4.000000,75.000000,,,,,,,,,,,,,,,,,,,,,,,,,,,,,,,,,,,,,,,,,,,,,,,,,,,,,,,,,,,,,,,
1649886596.103529,8.000000,0.000000,4260.000000,4274.871582,4149.743652,4222.051270,4214.358887,450.000000,4.000000,91.000000,,,,0.000000,4.000000,4.000000,4.000000,1.000000,4.000000,75.000000,,,,,,,,,,,,,,,,,,,,,,,,,,,,,,,,,,,,,,,,,,,,,,,,,,,,,,,,,,,,,,,
1649886596.111243,9.000000,0.000000,4265.128418,4281.538574,4156.410156,4223.077148,4226.666504,50.000000,4.000000,91.000000,,,,0.000000,4.000000,4.000000,4.000000,1.000000,4.000000,75.000000,,,,,,,,,,,,,,,,,,,,,,,,,,,,,,,,,,,,,,,,,,,,,,,,,,,,,,,,,,,,,,,
1649886596.119057,10.000000,0.000000,4267.179688,4285.128418,4162.051270,4224.102539,4228.717773,450.000000,4.000000,91.000000,,,,0.000000,4.000000,4.000000,4.000000,1.000000,4.000000,75.000000,,,,,,,,,,,,,,,,,,,,,,,,,,,,,,,,,,,,,,,,,,,,,,,,,,,,,,,,,,,,,,,
1649886596.126872,11.000000,0.000000,4253.333496,4271.282227,4160.512695,4222.051270,4218.974121,16199.000000,4.000000,91.000000,,,,0.000000,4.000000,4.000000,4.000000,1.000000,4.000000,75.000000,,,,,,,,,,,,,,,,,,,,,,,,,,,,,,,,,,,,,,,,,,,,,,,,,,,,,,,,,,,,,,,
1649886596.134586,12.000000,0.000000,4246.153809,4262.563965,4155.897461,4224.615234,4234.358887,450.000000,4.000000,91.000000,,,,0.000000,4.000000,4.000000,4.000000,1.000000,4.000000,75.000000,,,,,,,,,,,,,,,,,,,,,,,,,,,,,,,,,,,,,,,,,,,,,,,,,,,,,,,,,,,,,,,
1649886596.142301,13.000000,0.000000,4243.077148,4260.512695,4145.128418,4223.077148,4238.974121,450.000000,4.000000,91.000000,,,,0.000000,4.000000,4.000000,4.000000,1.000000,4.000000,75.000000,,,,,,,,,,,,,,,,,,,,,,,,,,,,,,,,,,,,,,,,,,,,,,,,,,,,,,,,,,,,,,,
1649886596.150115,14.000000,0.000000,4237.948730,4257.436035,4148.205078,4217.948730,4225.641113,450.000000,4.000000,91.000000,,,,0.000000,4.000000,4.000000,4.000000,1.000000,4.000000,75.000000,,,,,,,,,,,,,,,,,,,,,,,,,,,,,,,,,,,,,,,,,,,,,,,,,,,,,,,,,,,,,,,
1649886596.157830,15.000000,0.000000,4249.743652,4271.282227,4172.820313,4224.615234,4242.563965,16199.000000,4.000000,91.000000,,,,0.000000,4.000000,4.000000,4.000000,1.000000,4.000000,75.000000,,,,,,,,,,,,,,,,,,,,,,,,,,,,,,,,,,,,,,,,,,,,,,,,,,,,,,,,,,,,,,,
1649886596.165644,16.000000,0.000000,4265.641113,4279.487305,4179.487305,4233.846191,4275.897461,0.000000,4.000000,91.000000,,,,0.000000,4.000000,4.000000,4.000000,1.000000,4.000000,75.000000,,,,,,,,,,,,,,,,,,,,,,,,,,,,,,,,,,,,,,,,,,,,,,,,,,,,,,,,,,,,,,,
1649886596.173359,17.000000,0.000000,4255.897461,4264.615234,4166.153809,4229.743652,4281.025879,0.000000,4.000000,91.000000,,,,0.000000,4.000000,4.000000,4.000000,1.000000,4.000000,75.000000,,,,,,,,,,,,,,,,,,,,,,,,,,,,,,,,,,,,,,,4.291348,2.933370,4.040448,2.846096,0.961339,1.136155,2.422428,1.984170,1.050751,0.800158,2.610872,5.057424,2.261970,2.292410,1.466634,0.225469,0.566783,0.212533,0.213551,0.119588,4.186920,3.577668,3.058793,2.916490,1.608961
1649886596.181173,18.000000,0.000000,4233.333496,4262.563965,4167.179688,4223.077148,4257.948730,0.000000,4.000000,91.000000,,,,0.000000,4.000000,4.000000,4.000000,1.000000,4.000000,75.000000,,,,,,,,,,,,,,,,,,,,,,,,,,,,,,,,,,,,,,,,,,,,,,,,,,,,,,,,,,,,,,,
1649886596.188888,19.000000,0.000000,4228.717773,4280.000000,4178.974121,4225.641113,4245.641113,0.000000,4.000000,91.000000,,,,0.000000,4.000000,4.000000,4.000000,1.000000,4.000000,75.000000,,,,,,,,,,,,,,,,,,,,,,,,,,,,,,,,,,,,,,,,,,,,,,,,,,,,,,,,,,,,,,,
1649886596.196702,20.000000,0.000000,4250.256348,4285.641113,4186.153809,4233.333496,4261.025879,0.000000,4.000000,91.000000,,,,0.000000,4.000000,4.000000,4.000000,1.000000,4.000000,75.000000,,,,,,,,,,,,,,,,,,,,,,,,,,,,,,,,,,,,,,,,,,,,,,,,,,,,,,,,,,,,,,,
1649886596.204417,21.000000,0.000000,4259.487305,4268.205078,4183.077148,4232.307617,4263.077148,0.000000,4.000000,91.000000,,,,0.000000,4.000000,4.000000,4.000000,1.000000,4.000000,75.000000,,,,,,,,,,,,,,,,,,,,,,,,,,,,,,,,,,,,,,,,,,,,,,,,,,,,,,,,,,,,,,,
1649886596.212231,22.000000,0.000000,4244.615234,4250.256348,4182.563965,4229.230957,4247.179688,0.000000,4.000000,91.000000,,,,0.000000,4.000000,4.000000,4.000000,1.000000,4.000000,75.000000,,,,,,,,,,,,,,,,,,,,,,,,,,,,,,,,,,,,,,,,,,,,,,,,,,,,,,,,,,,,,,,
1649886596.219945,23.000000,0.000000,4266.153809,4281.538574,4205.641113,4235.384766,4268.717773,0.000000,4.000000,91.000000,,,,0.000000,4.000000,4.000000,4.000000,1.000000,4.000000,75.000000,,,,,,,,,,,,,,,,,,,,,,,,,,,,,,,,,,,,,,,,,,,,,,,,,,,,,,,,,,,,,,,
1649886596.227760,24.000000,0.000000,4300.512695,4324.102539,4220.000000,4237.948730,4301.538574,0.000000,4.000000,91.000000,,,,0.000000,4.000000,4.000000,4.000000,1.000000,4.000000,75.000000,,,,,,,,,,,,,,,,,,,,,,,,,,,,,,,,,,,,,,,,,,,,,,,,,,,,,,,,,,,,,,,
1649886596.235474,25.000000,0.000000,4271.282227,4296.922852,4196.922852,4230.256348,4281.538574,0.000000,4.000000,91.000000,,,,0.000000,4.000000,4.000000,4.000000,1.000000,4.000000,75.000000,,,,,,,,,,,,,,,,,,,,,,,,,,,,,,,,,,,,,,,,,,,,,,,,,,,,,,,,,,,,,,,
1649886596.243289,26.000000,0.000000,4245.128418,4266.153809,4199.487305,4226.153809,4255.384766,0.000000,4.000000,91.000000,,,,0.000000,4.000000,4.000000,4.000000,1.000000,4.000000,75.000000,,,,,,,,,,,,,,,,,,,,,,,,,,,,,,,,,,,,,,,,,,,,,,,,,,,,,,,,,,,,,,,
1649886596.251003,27.000000,0.000000,4288.205078,4305.128418,4249.230957,4235.897461,4281.025879,0.000000,4.000000,91.000000,,,,0.000000,4.000000,4.000000,4.000000,1.000000,4.000000,75.000000,,,,,,,,,,,,,,,,,,,,,,,,,,,,,,,,,,,,,,,,,,,,,,,,,,,,,,,,,,,,,,,
1649886596.258818,28.000000,0.000000,4317.436035,4332.307617,4271.282227,4243.077148,4314.358887,0.000000,4.000000,91.000000,,,,0.000000,4.000000,4.000000,4.000000,1.000000,4.000000,75.000000,,,,,,,,,,,,,,,,,,,,,,,,,,,,,,,,,,,,,,,,,,,,,,,,,,,,,,,,,,,,,,,
1649886596.266532,29.000000,0.000000,4294.358887,4308.205078,4254.358887,4238.461426,4303.589844,0.000000,4.000000,91.000000,,,,0.000000,4.000000,4.000000,4.000000,1.000000,4.000000,75.000000,,,,,,,,,,,,,,,,,,,,,,,,,,,,,,,,,,,,,,,,,,,,,,,,,,,,,,,,,,,,,,,
1649886596.274347,30.000000,0.000000,4277.948730,4295.897461,4245.128418,4234.358887,4280.000000,0.000000,4.000000,91.000000,,,,0.000000,4.000000,4.000000,4.000000,1.000000,4.000000,75.000000,,,,,,,,,,,,,,,,,,,,,,,,,,,,,,,,,,,,,,,,,,,,,,,,,,,,,,,,,,,,,,,
1649886596.282061,31.000000,0.000000,4277.948730,4297.436035,4230.769043,4233.846191,4278.461426,0.000000,4.000000,91.000000,,,,0.000000,4.000000,4.000000,4.000000,1.000000,4.000000,75.000000,,,,,,,,,,,,,,,,,,,,,,,,,,,,,,,,,,,,,,,,,,,,,,,,,,,,,,,,,,,,,,,
1649886596.289876,32.000000,0.000000,4264.102539,4283.077148,4198.974121,4228.717773,4280.000000,0.000000,4.000000,91.000000,,,,0.000000,4.000000,4.000000,4.000000,1.000000,4.000000,75.000000,,,,,,,,,,,,,,,,,,,,,,,,,,,,,,,,,,,,,,,,,,,,,,,,,,,,,,,,,,,,,,,
1649886596.297590,33.000000,0.000000,4255.384766,4277.948730,4192.820313,4228.205078,4277.948730,0.000000,4.000000,91.000000,,,,0.000000,4.000000,4.000000,4.000000,1.000000,4.000000,75.000000,1.000000,75.000000,4.000000,4.000000,4.000000,1.000000,4.000000,,,,,,,,,,,,,,,,,,,,,,,,,,,,,,,,3.857778,3.266868,3.395659,2.891761,1.035065,1.184797,2.344300,1.528985,0.991797,0.775041,3.186789,5.536229,1.741138,2.331542,1.320654,0.198180,0.656702,0.188137,0.228017,0.116136,4.058510,4.124139,2.708913,2.803007,1.572711
1649886596.305404,34.000000,0.000000,4276.922852,4292.307617,4213.333496,4235.897461,4288.205078,0.000000,4.000000,91.000000,,,,0.000000,4.000000,4.000000,4.000000,1.000000,4.000000,75.000000,,,,,,,,,,,,,,,,,,,,,,,,,,,,,,,,,,,,,,,,,,,,,,,,,,,,,,,,,,,,,,,
1649886596.313119,35.000000,0.000000,4291.794922,4283.589844,4208.205078,4237.436035,4288.205078,0.000000,4.000000,91.000000,,,,0.000000,4.000000,4.000000,4.000000,1.000000,4.000000,75.000000,,,,,,,,,,,,,,,,,,,,,,,,,,,,,,,,,,,,,,,,,,,,,,,,,,,,,,,,,,,,,,,
1649886596.320833,36.000000,0.000000,4276.922852,4266.153809,4191.794922,4233.333496,4268.717773,0.000000,4.000000,91.000000,,,,0.000000,4.000000,4.000000,4.000000,1.000000,4.000000,75.000000,,,,,,,,,,,,,,,,,,,,,,,,,,,,,,,,,,,,,,,,,,,,,,,,,,,,,,,,,,,,,,,
1649886596.328648,37.000000,0.000000,4259.487305,4282.051270,4198.974121,4233.333496,4265.128418,0.000000,4.000000,91.000000,,,,0.000000,4.000000,4.000000,4.000000,1.000000,4.000000,75.000000,,,,,,,,,,,,,,,,,,,,,,,,,,,,,,,,,,,,,,,,,,,,,,,,,,,,,,,,,,,,,,,
1649886596.336362,38.000000,0.000000,4261.538574,4299.487305,4205.128418,4234.871582,4274.358887,0.000000,4.000000,91.000000,,,,0.000000,4.000000,4.000000,4.000000,1.000000,4.000000,75.000000,,,,,,,,,,,,,,,,,,,,,,,,,,,,,,,,,,,,,,,,,,,,,,,,,,,,,,,,,,,,,,,
1649886596.344177,39.000000,0.000000,4278.974121,4298.974121,4203.589844,4234.358887,4282.051270,0.000000,4.000000,91.000000,,,,0.000000,4.000000,4.000000,4.000000,1.000000,4.000000,75.000000,,,,,,,,,,,,,,,,,,,,,,,,,,,,,,,,,,,,,,,,,,,,,,,,,,,,,,,,,,,,,,,
1649886596.351891,40.000000,0.000000,4296.410156,4309.743652,4223.077148,4235.384766,4291.794922,0.000000,4.000000,91.000000,,,,0.000000,4.000000,4.000000,4.000000,1.000000,4.000000,75.000000,,,,,,,,,,,,,,,,,,,,,,,,,,,,,,,,,,,,,,,,,,,,,,,,,,,,,,,,,,,,,,,
1649886596.359706,41.000000,0.000000,4288.205078,4293.846191,4228.205078,4234.358887,4293.333496,0.000000,4.000000,91.000000,,,,0.000000,4.000000,4.000000,4.000000,1.000000,4.000000,75.000000,,,,,,,,,,,,,,,,,,,,,,,,,,,,,,,,,,,,,,,,,,,,,,,,,,,,,,,,,,,,,,,
1649886596.367420,42.000000,0.000000,4266.666504,4254.358887,4197.436035,4230.256348,4278.974121,0.000000,4.000000,91.000000,,,,0.000000,4.000000,4.000000,4.000000,1.000000,4.000000,75.000000,,,,,,,,,,,,,,,,,,,,,,,,,,,,,,,,,,,,,,,,,,,,,,,,,,,,,,,,,,,,,,,
1649886596.375235,43.000000,0.000000,4276.922852,4270.769043,4193.333496,4230.769043,4275.384766,0.000000,4.000000,91.000000,,,,0.000000,4.000000,4.000000,4.000000,1.000000,4.000000,75.000000,,,,,,,,,,,,,,,,,,,,,,,,,,,,,,,,,,,,,,,,,,,,,,,,,,,,,,,,,,,,,,,
1649886596.382949,44.000000,0.000000,4295.897461,4311.282227,4217.436035,4234.871582,4287.179688,0.000000,4.000000,91.000000,,,,0.000000,4.000000,4.000000,4.000000,1.000000,4.000000,75.000000,,,,,,,,,,,,,,,,,,,,,,,,,,,,,,,,,,,,,,,,,,,,,,,,,,,,,,,,,,,,,,,
1649886596.390764,45.000000,0.000000,4290.256348,4309.743652,4214.871582,4235.897461,4289.743652,0.000000,4.000000,91.000000,,,,0.000000,4.000000,4.000000,4.000000,1.000000,4.000000,75.000000,,,,,,,,,,,,,,,,,,,,,,,,,,,,,,,,,,,,,,,,,,,,,,,,,,,,,,,,,,,,,,,
1649886596.398578,46.000000,0.000000,4293.333496,4300.000000,4206.153809,4235.897461,4290.769043,0.000000,4.000000,91.000000,,,,0.000000,4.000000,4.000000,4.000000,1.000000,4.000000,75.000000,,,,,,,,,,,,,,,,,,,,,,,,,,,,,,,,,,,,,,,,,,,,,,,,,,,,,,,,,,,,,,,
1649886596.406292,47.000000,0.000000,4300.512695,4304.615234,4217.948730,4236.410156,4297.948730,0.000000,4.000000,91.000000,,,,0.000000,4.000000,4.000000,4.000000,1.000000,4.000000,75.000000,,,,,,,,,,,,,,,,,,,,,,,,,,,,,,,,,,,,,,,,,,,,,,,,,,,,,,,,,,,,,,,
1649886596.414007,48.000000,0.000000,4276.410156,4296.922852,4218.461426,4233.333496,4290.769043,0.000000,4.000000,91.000000,,,,0.000000,4.000000,4.000000,4.000000,1.000000,4.000000,75.000000,,,,,,,,,,,,,,,,,,,,,,,,,,,,,,,,,,,,,,,,,,,,,,,,,,,,,,,,,,,,,,,
1649886596.421821,49.000000,0.000000,4263.077148,4292.307617,4210.256348,4231.282227,4273.333496,0.000000,4.000000,91.000000,,,,0.000000,4.000000,4.000000,4.000000,1.000000,4.000000,75.000000,,,,,,,,,,,,,,,,,,,,,,,,,,,,,,,,,,,,,,,3.508877,3.353037,2.817471,2.959184,1.197265,1.249779,2.105060,1.148518,0.983360,0.752179,3.516102,5.517074,1.309713,2.295727,1.172944,0.169488,0.671893,0.166919,0.243932,0.115797,3.864688,4.345710,2.367622,2.624584,1.560332
1649886596.429536,50.000000,0.000000,4273.846191,4295.897461,4211.794922,4229.743652,4268.205078,0.000000,4.000000,91.000000,,,,0.000000,4.000000,4.000000,4.000000,1.000000,4.000000,75.000000,,,,,,,,,,,,,,,,,,,,,,,,,,,,,,,,,,,,,,,,,,,,,,,,,,,,,,,,,,,,,,,
1649886596.437350,51.000000,0.000000,4256.922852,4285.641113,4200.512695,4223.077148,4260.512695,0.000000,4.000000,91.000000,,,,0.000000,4.000000,4.000000,4.000000,1.000000,4.000000,75.000000,,,,,,,,,,,,,,,,,,,,,,,,,,,,,,,,,,,,,,,,,,,,,,,,,,,,,,,,,,,,,,,
1649886596.445065,52.000000,0.000000,4242.051270,4276.922852,4183.589844,4222.051270,4254.358887,0.000000,4.000000,91.000000,,,,0.000000,4.000000,4.000000,4.000000,1.000000,4.000000,75.000000,,,,,,,,,,,,,,,,,,,,,,,,,,,,,,,,,,,,,,,,,,,,,,,,,,,,,,,,,,,,,,,
1649886596.452879,53.000000,0.000000,4262.051270,4282.563965,4178.974121,4225.128418,4263.077148,0.000000,4.000000,91.000000,,,,0.000000,4.000000,4.000000,4.000000,1.000000,4.000000,75.000000,,,,,,,,,,,,,,,,,,,,,,,,,,,,,,,,,,,,,,,,,,,,,,,,,,,,,,,,,,,,,,,
1649886596.460594,54.000000,0.000000,4267.179688,4276.410156,4178.461426,4221.538574,4255.897461,0.000000,4.000000,91.000000,,,,0.000000,4.000000,4.000000,4.000000,1.000000,4.000000,75.000000,,,,,,,,,,,,,,,,,,,,,,,,,,,,,,,,,,,,,,,,,,,,,,,,,,,,,,,,,,,,,,,
1649886596.468408,55.000000,0.000000,4247.692383,4257.948730,4179.487305,4219.487305,4239.487305,0.000000,4.000000,91.000000,,,,0.000000,4.000000,4.000000,4.000000,1.000000,4.000000,75.000000,,,,,,,,,,,,,,,,,,,,,,,,,,,,,,,,,,,,,,,,,,,,,,,,,,,,,,,,,,,,,,,
1649886596.476123,56.000000,0.000000,4243.077148,4258.461426,4174.871582,4221.538574,4250.256348,0.000000,4.000000,91.000000,,,,0.000000,4.000000,4.000000,4.000000,1.000000,4.000000,75.000000,,,,,,,,,,,,,,,,,,,,,,,,,,,,,,,,,,,,,,,,,,,,,,,,,,,,,,,,,,,,,,,
1649886596.483837,57.000000,0.000000,4252.820313,4272.307617,4162.563965,4225.128418,4263.077148,0.000000,4.000000,91.000000,,,,0.000000,4.000000,4.000000,4.000000,1.000000,4.000000,75.000000,,,,,,,,,,,,,,,,,,,,,,,,,,,,,,,,,,,,,,,,,,,,,,,,,,,,,,,,,,,,,,,
1649886596.491652,58.000000,0.000000,4255.384766,4270.256348,4158.974121,4224.102539,4248.205078,0.000000,4.000000,91.000000,,,,0.000000,4.000000,4.000000,4.000000,1.000000,4.000000,75.000000,,,,,,,,,,,,,,,,,,,,,,,,,,,,,,,,,,,,,,,,,,,,,,,,,,,,,,,,,,,,,,,
1649886596.499366,59.000000,0.000000,4237.948730,4254.358887,4158.461426,4222.563965,4237.436035,0.000000,4.000000,91.000000,,,,0.000000,4.000000,4.000000,4.000000,1.000000,4.000000,75.000000,,,,,,,,,,,,,,,,,,,,,,,,,,,,,,,,,,,,,,,,,,,,,,,,,,,,,,,,,,,,,,,
1649886596.507181,60.000000,0.000000,4238.974121,4261.025879,4164.615234,4224.615234,4249.743652,0.000000,4.000000,91.000000,,,,0.000000,4.000000,4.000000,4.000000,1.000000,4.000000,75.000000,,,,,,,,,,,,,,,,,,,,,,,,,,,,,,,,,,,,,,,,,,,,,,,,,,,,,,,,,,,,,,,
1649886596.514895,61.000000,0.000000,4248.717773,4264.615234,4175.384766,4226.153809,4242.563965,0.000000,4.000000,91.000000,,,,0.000000,4.000000,4.000000,4.000000,1.000000,4.000000,75.000000,,,,,,,,,,,,,,,,,,,,,,,,,,,,,,,,,,,,,,,,,,,,,,,,,,,,,,,,,,,,,,,
1649886596.522709,62.000000,0.000000,4216.410156,4241.538574,4160.000000,4216.922852,4222.563965,0.000000,4.000000,91.000000,,,,0.000000,4.000000,4.000000,4.000000,1.000000,4.000000,75.000000,,,,,,,,,,,,,,,,,,,,,,,,,,,,,,,,,,,,,,,,,,,,,,,,,,,,,,,,,,,,,,,
1649886596.530424,63.000000,0.000000,4206.153809,4245.128418,4146.153809,4209.230957,4224.102539,0.000000,4.000000,91.000000,,,,0.000000,4.000000,4.000000,4.000000,1.000000,4.000000,75.000000,,,,,,,,,,,,,,,,,,,,,,,,,,,,,,,,,,,,,,,,,,,,,,,,,,,,,,,,,,,,,,,
1649886596.538238,64.000000,0.000000,4260.512695,4264.615234,4171.794922,4216.410156,4246.666504,450.000000,4.000000,91.000000,,,,0.000000,4.000000,4.000000,4.000000,1.000000,4.000000,75.000000,,,,,,,,,,,,,,,,,,,,,,,,,,,,,,,,,,,,,,,,,,,,,,,,,,,,,,,,,,,,,,,
1649886596.545953,65.000000,0.000000,4294.358887,4260.000000,4190.769043,4224.615234,4276.922852,450.000000,4.000000,91.000000,,,,0.000000,4.000000,4.000000,4.000000,1.000000,4.000000,75.000000,,,,,,,,,,,,,,,,,,,,,,,,,,,,,,,,,,,,,,,3.287805,3.206787,2.390229,3.025841,1.418775,1.334932,1.782197,0.907680,1.020581,0.760128,3.619566,5.091105,1.059403,2.218894,1.063638,0.143021,0.607714,0.154251,0.260493,0.118986,3.725843,4.308573,2.066009,2.432157,1.604026
1649886596.553767,66.000000,0.000000,4280.512695,4257.948730,4175.897461,4224.615234,4301.025879,16217.000000,4.000000,91.000000,,,,0.000000,4.000000,4.000000,4.000000,1.000000,4.000000,75.000000,,,,,,,,,,,,,,,,,,,,,,,,,,,,,,,,,,,,,,,,,,,,,,,,,,,,,,,,,,,,,,,
1649886596.561482,67.000000,0.000000,4272.820313,4274.358887,4170.256348,4218.974121,4291.282227,450.000000,4.000000,91.000000,,,,0.000000,4.000000,4.000000,4.000000,1.000000,4.000000,75.000000,,,,,,,,,,,,,,,,,,,,,,,,,,,,,,,,,,,,,,,,,,,,,,,,,,,,,,,,,,,,,,,
1649886596.569296,68.000000,0.000000,4261.538574,4264.102539,4178.461426,4216.410156,4249.230957,16202.000000,4.000000,91.000000,,,,0.000000,4.000000,4.000000,4.000000,1.000000,4.000000,75.000000,,,,,,,,,,,,,,,,,,,,,,,,,,,,,,,,,,,,,,,,,,,,,,,,,,,,,,,,,,,,,,,
1649886596.577111,69.000000,0.000000,4237.436035,4248.205078,4180.000000,4217.436035,4223.077148,450.000000,4.000000,91.000000,,,,0.000000,4.000000,4.000000,4.000000,1.000000,4.000000,75.000000,,,,,,,,,,,,,,,,,,,,,,,,,,,,,,,,,,,,,,,,,,,,,,,,,,,,,,,,,,,,,,,
1649886596.584825,70.000000,0.000000,4239.487305,4262.563965,4188.205078,4219.487305,4226.666504,16176.000000,4.000000,91.000000,,,,0.000000,4.000000,4.000000,4.000000,1.000000,4.000000,75.000000,,,,,,,,,,,,,,,,,,,,,,,,,,,,,,,,,,,,,,,,,,,,,,,,,,,,,,,,,,,,,,,
1649886596.592540,71.000000,0.000000,4246.666504,4270.256348,4196.922852,4221.538574,4233.333496,450.000000,4.000000,91.000000,,,,0.000000,4.000000,4.000000,4.000000,1.000000,4.000000,75.000000,,,,,,,,,,,,,,,,,,,,,,,,,,,,,,,,,,,,,,,,,,,,,,,,,,,,,,,,,,,,,,,
1649886596.600354,72.000000,0.000000,4228.717773,4254.358887,4178.461426,4216.922852,4218.461426,450.000000,4.000000,91.000000,,,,0.000000,4.000000,4.000000,4.000000,1.000000,4.000000,75.000000,,,,,,,,,,,,,,,,,,,,,,,,,,,,,,,,,,,,,,,,,,,,,,,,,,,,,,,,,,,,,,,
1649886596.608069,73.000000,0.000000,4224.102539,4240.512695,4165.641113,4214.358887,4215.897461,50.000000,4.000000,91.000000,,,,0.000000,4.000000,4.000000,4.000000,1.000000,4.000000,75.000000,,,,,,,,,,,,,,,,,,,,,,,,,,,,,,,,,,,,,,,,,,,,,,,,,,,,,,,,,,,,,,,
1649886596.615883,74.000000,0.000000,4237.436035,4240.000000,4177.436035,4218.461426,4232.820313,450.000000,4.000000,91.000000,,,,0.000000,4.000000,4.000000,4.000000,1.000000,4.000000,75.000000,,,,,,,,,,,,,,,,,,,,,,,,,,,,,,,,,,,,,,,,,,,,,,,,,,,,,,,,,,,,,,,
1649886596.623597,75.000000,0.000000,4215.897461,4237.948730,4174.871582,4215.384766,4214.358887,16211.000000,4.000000,91.000000,,,,0.000000,4.000000,4.000000,4.000000,1.000000,4.000000,75.000000,,,,,,,,,,,,,,,,,,,,,,,,,,,,,,,,,,,,,,,,,,,,,,,,,,,,,,,,,,,,,,,
1649886596.631312,76.000000,0.000000,4217.948730,4247.179688,4181.025879,4212.307617,4218.974121,450.000000,4.000000,91.000000,,,,0.000000,4.000000,4.000000,4.000000,1.000000,4.000000,75.000000,,,,,,,,,,,,,,,,,,,,,,,,,,,,,,,,,,,,,,,,,,,,,,,,,,,,,,,,,,,,,,,
1649886596.639126,77.000000,0.000000,4274.358887,4273.846191,4213.846191,4224.615234,4272.820313,450.000000,4.000000,91.000000,,,,0.000000,4.000000,4.000000,4.000000,1.000000,4.000000,75.000000,,,,,,,,,,,,,,,,,,,,,,,,,,,,,,,,,,,,,,,,,,,,,,,,,,,,,,,,,,,,,,,
1649886596.646841,78.000000,0.000000,4288.717773,4280.000000,4212.307617,4231.282227,4274.871582,450.000000,4.000000,91.000000,,,,0.000000,4.000000,4.000000,4.000000,1.000000,4.000000,75.000000,,,,,,,,,,,,,,,,,,,,,,,,,,,,,,,,,,,,,,,,,,,,,,,,,,,,,,,,,,,,,,,
1649886596.654655,79.000000,0.000000,4248.717773,4257.436035,4177.436035,4223.077148,4234.871582,16211.000000,4.000000,91.000000,,,,0.000000,4.000000,4.000000,4.000000,1.000000,4.000000,75.000000,,,,,,,,,,,,,,,,,,,,,,,,,,,,,,,,,,,,,,,,,,,,,,,,,,,,,,,,,,,,,,,
1649886596.662370,80.000000,0.000000,4237.436035,4243.589844,4165.128418,4217.948730,4240.000000,450.000000,4.000000,91.000000,,,,0.000000,4.000000,4.000000,4.000000,1.000000,4.000000,75.000000,,,,,,,,,,,,,,,,,,,,,,,,,,,,,,,,,,,,,,,,,,,,,,,,,,,,,,,,,,,,,,,
1649886596.670184,81.000000,0.000000,4244.615234,4247.692383,4173.846191,4219.487305,4245.128418,450.000000,4.000000,91.000000,,,,0.000000,4.000000,4.000000,4.000000,1.000000,4.000000,75.000000,,,,,,,,,,,,,,,,,,,,,,,,,,,,,,,,,,,,,,,3.234601,2.916840,2.107972,3.049388,1.655555,1.488142,1.447631,0.833315,1.085082,0.832064,3.747736,4.479127,1.014071,2.130153,1.019592,0.125929,0.485762,0.149849,0.273279,0.124660,3.752103,4.142637,1.814864,2.262563,1.698118
1649886596.677999,82.000000,0.000000,4234.871582,4252.820313,4181.538574,4219.487305,4224.102539,450.000000,4.000000,91.000000,,,,0.000000,4.000000,4.000000,4.000000,1.000000,4.000000,75.000000,,,,,,,,,,,,,,,,,,,,,,,,,,,,,,,,,,,,,,,,,,,,,,,,,,,,,,,,,,,,,,,
1649886596.685713,83.000000,0.000000,4235.384766,4257.436035,4183.077148,4218.461426,4226.153809,16211.000000,4.000000,91.000000,,,,0.000000,4.000000,4.000000,4.000000,1.000000,4.000000,75.000000,,,,,,,,,,,,,,,,,,,,,,,,,,,,,,,,,,,,,,,,,,,,,,,,,,,,,,,,,,,,,,,
1649886596.693428,84.000000,0.000000,4239.487305,4258.974121,4174.871582,4218.974121,4223.077148,450.000000,4.000000,91.000000,,,,0.000000,4.000000,4.000000,4.000000,1.000000,4.000000,75.000000,,,,,,,,,,,,,,,,,,,,,,,,,,,,,,,,,,,,,,,,,,,,,,,,,,,,,,,,,,,,,,,
1649886596.701242,85.000000,0.000000,4220.000000,4248.717773,4159.487305,4216.410156,4200.000000,450.000000,4.000000,91.000000,,,,0.000000,4.000000,4.000000,4.000000,1.000000,4.000000,75.000000,,,,,,,,,,,,,,,,,,,,,,,,,,,,,,,,,,,,,,,,,,,,,,,,,,,,,,,,,,,,,,,
1649886596.708957,86.000000,0.000000,4203.077148,4234.871582,4145.128418,4211.794922,4201.538574,450.000000,4.000000,91.000000,,,,0.000000,4.000000,4.000000,4.000000,1.000000,4.000000,75.000000,,,,,,,,,,,,,,,,,,,,,,,,,,,,,,,,,,,,,,,,,,,,,,,,,,,,,,,,,,,,,,,
1649886596.716771,87.000000,0.000000,4239.487305,4241.538574,4162.051270,4213.846191,4241.025879,16211.000000,4.000000,91.000000,,,,0.000000,4.000000,4.000000,4.000000,1.000000,4.000000,75.000000,,,,,,,,,,,,,,,,,,,,,,,,,,,,,,,,,,,,,,,,,,,,,,,,,,,,,,,,,,,,,,,
1649886596.724585,88.000000,0.000000,4276.410156,4249.743652,4189.230957,4220.512695,4261.538574,450.000000,4.000000,91.000000,,,,0.000000,4.000000,4.000000,4.000000,1.000000,4.000000,75.000000,,,,,,,,,,,,,,,,,,,,,,,,,,,,,,,,,,,,,,,,,,,,,,,,,,,,,,,,,,,,,,,
1649886596.732300,89.000000,0.000000,4250.256348,4233.846191,4177.948730,4219.487305,4234.358887,450.000000,4.000000,91.000000,,,,0.000000,4.000000,4.000000,4.000000,1.000000,4.000000,75.000000,,,,,,,,,,,,,,,,,,,,,,,,,,,,,,,,,,,,,,,,,,,,,,,,,,,,,,,,,,,,,,,
1649886596.740114,90.000000,0.000000,4233.333496,4238.974121,4170.256348,4213.846191,4223.589844,450.000000,4.000000,91.000000,,,,0.000000,4.000000,4.000000,4.000000,1.000000,4.000000,75.000000,,,,,,,,,,,,,,,,,,,,,,,,,,,,,,,,,,,,,,,,,,,,,,,,,,,,,,,,,,,,,,,
1649886596.747829,91.000000,0.000000,4251.282227,4260.512695,4185.128418,4215.384766,4241.538574,16211.000000,4.000000,91.000000,,,,0.000000,4.000000,4.000000,4.000000,1.000000,4.000000,75.000000,,,,,,,,,,,,,,,,,,,,,,,,,,,,,,,,,,,,,,,,,,,,,,,,,,,,,,,,,,,,,,,
1649886596.755643,92.000000,0.000000,4240.000000,4244.102539,4171.794922,4215.897461,4231.794922,450.000000,4.000000,91.000000,,,,0.000000,4.000000,4.000000,4.000000,1.000000,4.000000,75.000000,,,,,,,,,,,,,,,,,,,,,,,,,,,,,,,,,,,,,,,,,,,,,,,,,,,,,,,,,,,,,,,
1649886596.763358,93.000000,0.000000,4222.051270,4229.230957,4158.974121,4215.897461,4211.794922,450.000000,4.000000,91.000000,,,,0.000000,4.000000,4.000000,4.000000,1.000000,4.000000,75.000000,,,,,,,,,,,,,,,,,,,,,,,,,,,,,,,,,,,,,,,,,,,,,,,,,,,,,,,,,,,,,,,
1649886596.771072,94.000000,0.000000,4245.128418,4255.384766,4185.641113,4220.512695,4230.256348,450.000000,4.000000,91.000000,,,,0.000000,4.000000,4.000000,4.000000,1.000000,4.000000,75.000000,,,,,,,,,,,,,,,,,,,,,,,,,,,,,,,,,,,,,,,,,,,,,,,,,,,,,,,,,,,,,,,
1649886596.778887,95.000000,0.000000,4266.153809,4278.974121,4203.077148,4224.615234,4253.333496,16211.000000,4.000000,91.000000,,,,0.000000,4.000000,4.000000,4.000000,1.000000,4.000000,75.000000,,,,,,,,,,,,,,,,,,,,,,,,,,,,,,,,,,,,,,,,,,,,,,,,,,,,,,,,,,,,,,,
1649886596.786601,96.000000,0.000000,4257.948730,4250.769043,4190.769043,4225.641113,4245.128418,450.000000,4.000000,91.000000,,,,0.000000,4.000000,4.000000,4.000000,1.000000,4.000000,75.000000,,,,,,,,,,,,,,,,,,,,,,,,,,,,,,,,,,,,,,,,,,,,,,,,,,,,,,,,,,,,,,,
1649886596.794316,97.000000,0.000000,4247.179688,4220.000000,4178.461426,4222.563965,4236.410156,450.000000,4.000000,91.000000,,,,0.000000,4.000000,4.000000,4.000000,1.000000,4.000000,75.000000,1.000000,75.000000,4.000000,4.000000,4.000000,1.000000,4.000000,,,,,,,,,,,,,,,,,,,,,,,,,,,,,,,,3.348307,2.635472,1.936417,3.012355,1.862711,1.756096,1.162448,0.912713,1.163373,0.981317,4.128762,3.947248,1.146549,2.048250,1.040456,0.120920,0.345359,0.151211,0.277453,0.130662,3.916734,4.012242,1.664892,2.151026,1.801040
1649886596.802130,98.000000,0.000000,4246.666504,4245.128418,4180.000000,4219.487305,4244.102539,450.000000,4.000000,91.000000,,,,0.000000,4.000000,4.000000,4.000000,1.000000,4.000000,75.000000,,,,,,,,,,,,,,,,,,,,,,,,,,,,,,,,,,,,,,,,,,,,,,,,,,,,,,,,,,,,,,,
1649886596.809944,99.000000,0.000000,4248.717773,4272.307617,4183.077148,4219.487305,4242.563965,16211.000000,4.000000,91.000000,,,,0.000000,4.000000,4.000000,4.000000,1.000000,4.000000,75.000000,,,,,,,,,,,,,,,,,,,,,,,,,,,,,,,,,,,,,,,,,,,,,,,,,,,,,,,,,,,,,,,
1649886596.817659,100.000000,0.000000,4241.025879,4246.666504,4168.205078,4215.897461,4225.641113,450.000000,4.000000,91.000000,,,,0.000000,4.000000,4.000000,4.000000,1.000000,4.000000,75.000000,,,,,,,,,,,,,,,,,,,,,,,,,,,,,,,,,,,,,,,,,,,,,,,,,,,,,,,,,,,,,,,
1649886596.825473,101.000000,0.000000,4240.512695,4229.743652,4161.538574,4211.794922,4226.666504,450.000000,4.000000,91.000000,,,,0.000000,4.000000,4.000000,4.000000,1.000000,4.000000,75.000000,,,,,,,,,,,,,,,,,,,,,,,,,,,,,,,,,,,,,,,,,,,,,,,,,,,,,,,,,,,,,,,
1649886596.833188,102.000000,0.000000,4262.051270,4258.461426,4186.153809,4217.948730,4255.384766,450.000000,4.000000,91.000000,,,,0.000000,4.000000,4.000000,4.000000,1.000000,4.000000,75.000000,,,,,,,,,,,,,,,,,,,,,,,,,,,,,,,,,,,,,,,,,,,,,,,,,,,,,,,,,,,,,,,
1649886596.841002,103.000000,0.000000,4280.512695,4264.615234,4200.000000,4225.641113,4267.692383,16211.000000,4.000000,91.000000,,,,0.000000,4.000000,4.000000,4.000000,1.000000,4.000000,75.000000,,,,,,,,,,,,,,,,,,,,,,,,,,,,,,,,,,,,,,,,,,,,,,,,,,,,,,,,,,,,,,,
1649886596.848717,104.000000,0.000000,4272.307617,4239.487305,4183.589844,4220.512695,4253.846191,450.000000,4.000000,91.000000,,,,0.000000,4.000000,4.000000,4.000000,1.000000,4.000000,75.000000,,,,,,,,,,,,,,,,,,,,,,,,,,,,,,,,,,,,,,,,,,,,,,,,,,,,,,,,,,,,,,,
1649886596.856531,105.000000,0.000000,4253.846191,4236.922852,4180.512695,4219.487305,4246.153809,450.000000,4.000000,91.000000,,,,0.000000,4.000000,4.000000,4.000000,1.000000,4.000000,75.000000,,,,,,,,,,,,,,,,,,,,,,,,,,,,,,,,,,,,,,,,,,,,,,,,,,,,,,,,,,,,,,,
1649886596.864246,106.000000,0.000000,4262.051270,4254.358887,4192.820313,4225.128418,4252.307617,450.000000,4.000000,91.000000,,,,0.000000,4.000000,4.000000,4.000000,1.000000,4.000000,75.000000,,,,,,,,,,,,,,,,,,,,,,,,,,,,,,,,,,,,,,,,,,,,,,,,,,,,,,,,,,,,,,,
1649886596.872060,107.000000,0.000000,4290.769043,4275.384766,4195.897461,4226.153809,4268.205078,16211.000000,4.000000,91.000000,,,,0.000000,4.000000,4.000000,4.000000,1.000000,4.000000,75.000000,,,,,,,,,,,,,,,,,,,,,,,,,,,,,,,,,,,,,,,,,,,,,,,,,,,,,,,,,,,,,,,
1649886596.879775,108.000000,0.000000,4300.000000,4281.025879,4204.102539,4227.179688,4284.615234,450.000000,4.000000,91.000000,,,,0.000000,4.000000,4.000000,4.000000,1.000000,4.000000,75.000000,,,,,,,,,,,,,,,,,,,,,,,,,,,,,,,,,,,,,,,,,,,,,,,,,,,,,,,,,,,,,,,
1649886596.887489,109.000000,0.000000,4278.461426,4267.692383,4200.512695,4228.717773,4273.333496,450.000000,4.000000,91.000000,,,,0.000000,4.000000,4.000000,4.000000,1.000000,4.000000,75.000000,,,,,,,,,,,,,,,,,,,,,,,,,,,,,,,,,,,,,,,,,,,,,,,,,,,,,,,,,,,,,,,
1649886596.895304,110.000000,0.000000,4258.974121,4253.846191,4172.820313,4223.077148,4244.615234,450.000000,4.000000,91.000000,,,,0.000000,4.000000,4.000000,4.000000,1.000000,4.000000,75.000000,,,,,,,,,,,,,,,,,,,,,,,,,,,,,,,,,,,,,,,,,,,,,,,,,,,,,,,,,,,,,,,
1649886596.903118,111.000000,0.000000,4263.077148,4246.666504,4153.846191,4215.384766,4235.897461,16211.000000,4.000000,91.000000,,,,0.000000,4.000000,4.000000,4.000000,1.000000,4.000000,75.000000,,,,,,,,,,,,,,,,,,,,,,,,,,,,,,,,,,,,,,,,,,,,,,,,,,,,,,,,,,,,,,,
1649886596.910832,112.000000,0.000000,4267.179688,4249.230957,4154.871582,4216.922852,4247.179688,450.000000,4.000000,91.000000,,,,0.000000,4.000000,4.000000,4.000000,1.000000,4.000000,75.000000,,,,,,,,,,,,,,,,,,,,,,,,,,,,,,,,,,,,,,,,,,,,,,,,,,,,,,,,,,,,,,,
1649886596.918547,113.000000,0.000000,4255.897461,4254.871582,4156.410156,4221.025879,4252.820313,450.000000,4.000000,91.000000,,,,0.000000,4.000000,4.000000,4.000000,1.000000,4.000000,75.000000,,,,,,,,,,,,,,,,,,,,,,,,,,,,,,,,,,,,,,,3.602934,2.519247,1.877158,2.950008,2.005350,2.163299,0.963881,1.107165,1.254249,1.183593,4.934658,3.647252,1.397311,1.990855,1.095939,0.129851,0.225185,0.156638,0.271420,0.134494,4.207890,4.075884,1.712933,2.141399,1.858299
1649886596.926361,114.000000,0.000000,4255.897461,4248.205078,4165.128418,4218.974121,4254.871582,450.000000,4.000000,91.000000,,,,0.000000,4.000000,4.000000,4.000000,1.000000,4.000000,75.000000,,,,,,,,,,,,,,,,,,,,,,,,,,,,,,,,,,,,,,,,,,,,,,,,,,,,,,,,,,,,,,,
1649886596.934076,115.000000,0.000000,4265.641113,4238.461426,4174.358887,4217.436035,4252.820313,16211.000000,4.000000,91.000000,,,,0.000000,4.000000,4.000000,4.000000,1.000000,4.000000,75.000000,,,,,,,,,,,,,,,,,,,,,,,,,,,,,,,,,,,,,,,,,,,,,,,,,,,,,,,,,,,,,,,
1649886596.941890,116.000000,0.000000,4260.000000,4250.256348,4171.282227,4216.410156,4241.025879,450.000000,4.000000,91.000000,,,,0.000000,4.000000,4.000000,4.000000,1.000000,4.000000,75.000000,,,,,,,,,,,,,,,,,,,,,,,,,,,,,,,,,,,,,,,,,,,,,,,,,,,,,,,,,,,,,,,
1649886596.949605,117.000000,0.000000,4264.615234,4263.589844,4178.461426,4215.384766,4244.102539,450.000000,4.000000,91.000000,,,,0.000000,4.000000,4.000000,4.000000,1.000000,4.000000,75.000000,,,,,,,,,,,,,,,,,,,,,,,,,,,,,,,,,,,,,,,,,,,,,,,,,,,,,,,,,,,,,,,
1649886596.957419,118.000000,0.000000,4287.179688,4263.077148,4197.436035,4224.102539,4274.358887,450.000000,4.000000,91.000000,,,,0.000000,4.000000,4.000000,4.000000,1.000000,4.000000,75.000000,,,,,,,,,,,,,,,,,,,,,,,,,,,,,,,,,,,,,,,,,,,,,,,,,,,,,,,,,,,,,,,
1649886596.965134,119.000000,0.000000,4281.025879,4257.948730,4187.179688,4229.743652,4285.128418,16211.000000,4.000000,91.000000,,,,0.000000,4.000000,4.000000,4.000000,1.000000,4.000000,75.000000,,,,,,,,,,,,,,,,,,,,,,,,,,,,,,,,,,,,,,,,,,,,,,,,,,,,,,,,,,,,,,,
1649886596.972948,120.000000,0.000000,4262.051270,4249.230957,4158.461426,4221.025879,4258.974121,450.000000,4.000000,91.000000,,,,0.000000,4.000000,4.000000,4.000000,1.000000,4.000000,75.000000,,,,,,,,,,,,,,,,,,,,,,,,,,,,,,,,,,,,,,,,,,,,,,,,,,,,,,,,,,,,,,,
1649886596.980663,121.000000,0.000000,4280.512695,4257.948730,4169.230957,4221.025879,4263.589844,450.000000,4.000000,91.000000,,,,0.000000,4.000000,4.000000,4.000000,1.000000,4.000000,75.000000,,,,,,,,,,,,,,,,,,,,,,,,,,,,,,,,,,,,,,,,,,,,,,,,,,,,,,,,,,,,,,,
1649886596.988477,122.000000,0.000000,4296.410156,4270.256348,4191.282227,4229.230957,4292.820313,450.000000,4.000000,91.000000,,,,0.000000,4.000000,4.000000,4.000000,1.000000,4.000000,75.000000,,,,,,,,,,,,,,,,,,,,,,,,,,,,,,,,,,,,,,,,,,,,,,,,,,,,,,,,,,,,,,,
1649886596.996192,123.000000,0.000000,4274.871582,4253.333496,4176.410156,4224.102539,4278.461426,16211.000000,4.000000,91.000000,,,,0.000000,4.000000,4.000000,4.000000,1.000000,4.000000,75.000000,,,,,,,,,,,,,,,,,,,,,,,,,,,,,,,,,,,,,,,,,,,,,,,,,,,,,,,,,,,,,,,
1649886597.004006,124.000000,0.000000,4256.410156,4233.333496,4163.589844,4220.000000,4249.743652,450.000000,4.000000,91.000000,,,,0.000000,4.000000,4.000000,4.000000,1.000000,4.000000,75.000000,,,,,,,,,,,,,,,,,,,,,,,,,,,,,,,,,,,,,,,,,,,,,,,,,,,,,,,,,,,,,,,
1649886597.011720,125.000000,0.000000,4260.512695,4240.512695,4171.282227,4223.589844,4246.153809,450.000000,4.000000,91.000000,,,,0.000000,4.000000,4.000000,4.000000,1.000000,4.000000,75.000000,,,,,,,,,,,,,,,,,,,,,,,,,,,,,,,,,,,,,,,,,,,,,,,,,,,,,,,,,,,,,,,
1649886597.019535,126.000000,0.000000,4253.333496,4252.307617,4166.666504,4217.948730,4239.487305,450.000000,4.000000,91.000000,,,,0.000000,4.000000,4.000000,4.000000,1.000000,4.000000,75.000000,,,,,,,,,,,,,,,,,,,,,,,,,,,,,,,,,,,,,,,,,,,,,,,,,,,,,,,,,,,,,,,
1649886597.027249,127.000000,0.000000,4232.820313,4243.589844,4158.461426,4211.282227,4227.179688,242.000000,4.000000,91.000000,,,,0.000000,4.000000,4.000000,4.000000,1.000000,4.000000,75.000000,,,,,,,,,,,,,,,,,,,,,,,,,,,,,,,,,,,,,,,,,,,,,,,,,,,,,,,,,,,,,,,
1649886597.035064,0.000000,0.000000,4234.871582,4227.179688,4163.077148,4216.410156,4234.358887,450.000000,4.000000,91.000000,,,,0.000000,4.000000,4.000000,4.000000,1.000000,4.000000,75.000000,,,,,,,,,,,,,,,,,,,,,,,,,,,,,,,,,,,,,,,,,,,,,,,,,,,,,,,,,,,,,,,
1649886597.042778,1.000000,0.000000,4253.846191,4228.205078,4153.333496,4217.436035,4242.051270,450.000000,4.000000,91.000000,,,,0.000000,4.000000,4.000000,4.000000,1.000000,4.000000,75.000000,,,,,,,,,,,,,,,,,,,,,,,,,,,,,,,,,,,,,,,3.897789,2.665364,1.970598,2.927776,2.073095,2.634769,0.862440,1.352648,1.364190,1.389489,6.010672,3.539746,1.684241,1.980184,1.143938,0.147615,0.149631,0.166041,0.256989,0.134140,4.474620,4.387550,2.033371,2.255851,1.835770
1649886597.050593,2.000000,0.000000,4258.974121,4249.230957,4140.512695,4215.384766,4238.461426,16221.000000,4.000000,91.000000,,,,0.000000,4.000000,4.000000,4.000000,1.000000,4.000000,75.000000,,,,,,,,,,,,,,,,,,,,,,,,,,,,,,,,,,,,,,,,,,,,,,,,,,,,,,,,,,,,,,,
1649886597.058307,3.000000,0.000000,4244.615234,4250.256348,4142.051270,4217.436035,4236.922852,450.000000,4.000000,91.000000,,,,0.000000,4.000000,4.000000,4.000000,1.000000,4.000000,75.000000,,,,,,,,,,,,,,,,,,,,,,,,,,,,,,,,,,,,,,,,,,,,,,,,,,,,,,,,,,,,,,,
1649886597.066122,4.000000,0.000000,4245.128418,4235.384766,4140.512695,4216.922852,4245.641113,16185.000000,4.000000,91.000000,,,,0.000000,4.000000,4.000000,4.000000,1.000000,4.000000,75.000000,,,,,,,,,,,,,,,,,,,,,,,,,,,,,,,,,,,,,,,,,,,,,,,,,,,,,,,,,,,,,,,
1649886597.073836,5.000000,0.000000,4270.256348,4245.641113,4140.000000,4218.974121,4254.871582,450.000000,4.000000,91.000000,,,,0.000000,4.000000,4.000000,4.000000,1.000000,4.000000,75.000000,,,,,,,,,,,,,,,,,,,,,,,,,,,,,,,,,,,,,,,,,,,,,,,,,,,,,,,,,,,,,,,
1649886597.081551,6.000000,0.000000,4284.615234,4262.051270,4160.000000,4227.692383,4262.563965,16178.000000,4.000000,91.000000,,,,0.000000,4.000000,4.000000,4.000000,1.000000,4.000000,75.000000,,,,,,,,,,,,,,,,,,,,,,,,,,,,,,,,,,,,,,,,,,,,,,,,,,,,,,,,,,,,,,,
1649886597.089365,7.000000,0.000000,4269.230957,4256.922852,4173.333496,4229.230957,4267.692383,450.000000,4.000000,91.000000,,,,0.000000,4.000000,4.000000,4.000000,1.000000,4.000000,75.000000,,,,,,,,,,,,,,,,,,,,,,,,,,,,,,,,,,,,,,,,,,,,,,,,,,,,,,,,,,,,,,,
1649886597.097080,8.000000,0.000000,4252.307617,4242.051270,4157.948730,4220.512695,4257.436035,450.000000,4.000000,91.000000,,,,0.000000,4.000000,4.000000,4.000000,1.000000,4.000000,75.000000,,,,,,,,,,,,,,,,,,,,,,,,,,,,,,,,,,,,,,,,,,,,,,,,,,,,,,,,,,,,,,,
1649886597.104894,9.000000,0.000000,4261.025879,4244.615234,4149.230957,4218.974121,4249.743652,50.000000,4.000000,91.000000,,,,0.000000,4.000000,4.000000,4.000000,1.000000,4.000000,75.000000,,,,,,,,,,,,,,,,,,,,,,,,,,,,,,,,,,,,,,,,,,,,,,,,,,,,,,,,,,,,,,,
1649886597.112608,10.000000,0.000000,4270.769043,4256.922852,4158.974121,4221.538574,4254.871582,450.000000,4.000000,91.000000,,,,0.000000,4.000000,4.000000,4.000000,1.000000,4.000000,75.000000,,,,,,,,,,,,,,,,,,,,,,,,,,,,,,,,,,,,,,,,,,,,,,,,,,,,,,,,,,,,,,,
1649886597.120423,11.000000,0.000000,4266.153809,4249.743652,4160.000000,4217.948730,4255.384766,16217.000000,4.000000,91.000000,,,,0.000000,4.000000,4.000000,4.000000,1.000000,4.000000,75.000000,,,,,,,,,,,,,,,,,,,,,,,,,,,,,,,,,,,,,,,,,,,,,,,,,,,,,,,,,,,,,,,
1649886597.128137,12.000000,0.000000,4255.384766,4245.641113,4156.410156,4216.410156,4246.153809,450.000000,4.000000,91.000000,,,,0.000000,4.000000,4.000000,4.000000,1.000000,4.000000,75.000000,,,,,,,,,,,,,,,,,,,,,,,,,,,,,,,,,,,,,,,,,,,,,,,,,,,,,,,,,,,,,,,
1649886597.135952,13.000000,0.000000,4242.563965,4238.461426,4149.230957,4215.897461,4227.692383,450.000000,4.000000,91.000000,,,,0.000000,4.000000,4.000000,4.000000,1.000000,4.000000,75.000000,,,,,,,,,,,,,,,,,,,,,,,,,,,,,,,,,,,,,,,,,,,,,,,,,,,,,,,,,,,,,,,
1649886597.143666,14.000000,0.000000,4231.794922,4208.717773,4137.436035,4212.307617,4214.358887,450.000000,4.000000,91.000000,,,,0.000000,4.000000,4.000000,4.000000,1.000000,4.000000,75.000000,,,,,,,,,,,,,,,,,,,,,,,,,,,,,,,,,,,,,,,,,,,,,,,,,,,,,,,,,,,,,,,
1649886597.151481,15.000000,0.000000,4238.974121,4208.717773,4138.461426,4212.820313,4226.153809,16217.000000,4.000000,91.000000,,,,0.000000,4.000000,4.000000,4.000000,1.000000,4.000000,75.000000,,,,,,,,,,,,,,,,,,,,,,,,,,,,,,,,,,,,,,,,,,,,,,,,,,,,,,,,,,,,,,,
1649886597.159195,16.000000,0.000000,4255.384766,4244.615234,4142.563965,4216.410156,4240.512695,0.000000,4.000000,91.000000,,,,0.000000,4.000000,4.000000,4.000000,1.000000,4.000000,75.000000,,,,,,,,,,,,,,,,,,,,,,,,,,,,,,,,,,,,,,,,,,,,,,,,,,,,,,,,,,,,,,,
1649886597.167010,17.000000,0.000000,4257.436035,4247.692383,4144.102539,4216.410156,4237.948730,0.000000,4.000000,91.000000,,,,0.000000,4.000000,4.000000,4.000000,1.000000,4.000000,75.000000,,,,,,,,,,,,,,,,,,,,,,,,,,,,,,,,,,,,,,,4.099982,3.090462,2.226168,2.976015,2.082319,3.027209,0.838256,1.564211,1.491527,1.554528,7.004262,3.472798,1.918058,2.026091,1.157537,0.168688,0.124513,0.178855,0.237356,0.129309,4.575297,4.886637,2.599160,2.471254,1.745479
1649886597.174724,18.000000,0.000000,4252.307617,4227.692383,4157.436035,4218.974121,4249.230957,0.000000,4.000000,91.000000,,,,0.000000,4.000000,4.000000,4.000000,1.000000,4.000000,75.000000,,,,,,,,,,,,,,,,,,,,,,,,,,,,,,,,,,,,,,,,,,,,,,,,,,,,,,,,,,,,,,,
1649886597.182539,19.000000,0.000000,4268.717773,4242.051270,4172.307617,4221.025879,4268.205078,0.000000,4.000000,91.000000,,,,0.000000,4.000000,4.000000,4.000000,1.000000,4.000000,75.000000,,,,,,,,,,,,,,,,,,,,,,,,,,,,,,,,,,,,,,,,,,,,,,,,,,,,,,,,,,,,,,,
1649886597.190253,20.000000,0.000000,4300.512695,4263.077148,4174.358887,4220.512695,4273.846191,0.000000,4.000000,91.000000,,,,0.000000,4.000000,4.000000,4.000000,1.000000,4.000000,75.000000,,,,,,,,,,,,,,,,,,,,,,,,,,,,,,,,,,,,,,,,,,,,,,,,,,,,,,,,,,,,,,,
1649886597.198067,21.000000,0.000000,4306.153809,4260.512695,4176.410156,4221.025879,4281.025879,0.000000,4.000000,91.000000,,,,0.000000,4.000000,4.000000,4.000000,1.000000,4.000000,75.000000,,,,,,,,,,,,,,,,,,,,,,,,,,,,,,,,,,,,,,,,,,,,,,,,,,,,,,,,,,,,,,,
1649886597.205782,22.000000,0.000000,4282.563965,4249.230957,4171.282227,4217.948730,4278.461426,0.000000,4.000000,91.000000,,,,0.000000,4.000000,4.000000,4.000000,1.000000,4.000000,75.000000,,,,,,,,,,,,,,,,,,,,,,,,,,,,,,,,,,,,,,,,,,,,,,,,,,,,,,,,,,,,,,,
1649886597.213596,23.000000,0.000000,4254.871582,4236.410156,4152.820313,4212.820313,4251.282227,0.000000,4.000000,91.000000,,,,0.000000,4.000000,4.000000,4.000000,1.000000,4.000000,75.000000,,,,,,,,,,,,,,,,,,,,,,,,,,,,,,,,,,,,,,,,,,,,,,,,,,,,,,,,,,,,,,,
1649886597.221311,24.000000,0.000000,4248.717773,4234.871582,4149.230957,4213.333496,4240.000000,0.000000,4.000000,91.000000,,,,0.000000,4.000000,4.000000,4.000000,1.000000,4.000000,75.000000,,,,,,,,,,,,,,,,,,,,,,,,,,,,,,,,,,,,,,,,,,,,,,,,,,,,,,,,,,,,,,,
1649886597.229125,25.000000,0.000000,4270.256348,4242.563965,4165.128418,4215.384766,4260.512695,0.000000,4.000000,91.000000,,,,0.000000,4.000000,4.000000,4.000000,1.000000,4.000000,75.000000,,,,,,,,,,,,,,,,,,,,,,,,,,,,,,,,,,,,,,,,,,,,,,,,,,,,,,,,,,,,,,,
1649886597.236840,26.000000,0.000000,4269.230957,4237.948730,4163.077148,4214.871582,4254.871582,0.000000,4.000000,91.000000,,,,0.000000,4.000000,4.000000,4.000000,1.000000,4.000000,75.000000,,,,,,,,,,,,,,,,,,,,,,,,,,,,,,,,,,,,,,,,,,,,,,,,,,,,,,,,,,,,,,,
1649886597.244554,27.000000,0.000000,4228.205078,4223.077148,4141.538574,4209.743652,4217.436035,0.000000,4.000000,91.000000,,,,0.000000,4.000000,4.000000,4.000000,1.000000,4.000000,75.000000,,,,,,,,,,,,,,,,,,,,,,,,,,,,,,,,,,,,,,,,,,,,,,,,,,,,,,,,,,,,,,,
1649886597.252369,28.000000,0.000000,4227.692383,4231.794922,4150.256348,4210.256348,4215.897461,0.000000,4.000000,91.000000,,,,0.000000,4.000000,4.000000,4.000000,1.000000,4.000000,75.000000,,,,,,,,,,,,,,,,,,,,,,,,,,,,,,,,,,,,,,,,,,,,,,,,,,,,,,,,,,,,,,,
1649886597.260183,29.000000,0.000000,4277.436035,4249.743652,4184.615234,4223.589844,4260.000000,0.000000,4.000000,91.000000,,,,0.000000,4.000000,4.000000,4.000000,1.000000,4.000000,75.000000,,,,,,,,,,,,,,,,,,,,,,,,,,,,,,,,,,,,,,,,,,,,,,,,,,,,,,,,,,,,,,,
1649886597.267898,30.000000,0.000000,4280.000000,4246.666504,4190.256348,4228.205078,4268.717773,0.000000,4.000000,91.000000,,,,0.000000,4.000000,4.000000,4.000000,1.000000,4.000000,75.000000,,,,,,,,,,,,,,,,,,,,,,,,,,,,,,,,,,,,,,,,,,,,,,,,,,,,,,,,,,,,,,,
1649886597.275612,31.000000,0.000000,4247.692383,4250.769043,4184.102539,4218.974121,4236.922852,0.000000,4.000000,91.000000,,,,0.000000,4.000000,4.000000,4.000000,1.000000,4.000000,75.000000,,,,,,,,,,,,,,,,,,,,,,,,,,,,,,,,,,,,,,,,,,,,,,,,,,,,,,,,,,,,,,,
1649886597.283427,32.000000,0.000000,4253.333496,4266.153809,4192.820313,4219.487305,4228.717773,0.000000,4.000000,91.000000,,,,0.000000,4.000000,4.000000,4.000000,1.000000,4.000000,75.000000,,,,,,,,,,,,,,,,,,,,,,,,,,,,,,,,,,,,,,,,,,,,,,,,,,,,,,,,,,,,,,,
1649886597.291141,33.000000,0.000000,4269.230957,4258.974121,4192.820313,4224.102539,4245.641113,0.000000,4.000000,91.000000,,,,0.000000,4.000000,4.000000,4.000000,1.000000,4.000000,75.000000,1.000000,75.000000,4.000000,4.000000,4.000000,1.000000,4.000000,,,,,,,,,,,,,,,,,,,,,,,,,,,,,,,,4.076332,3.739769,2.558391,3.060811,2.059344,3.175583,0.879529,1.664199,1.607571,1.653607,7.527221,3.332649,2.043857,2.105345,1.133368,0.181654,0.144489,0.190914,0.216068,0.121731,4.368573,5.462319,3.239542,2.719887,1.634925
1649886597.298955,34.000000,0.000000,4267.179688,4241.538574,4182.051270,4219.487305,4254.358887,0.000000,4.000000,91.000000,,,,0.000000,4.000000,4.000000,4.000000,1.000000,4.000000,75.000000,,,,,,,,,,,,,,,,,,,,,,,,,,,,,,,,,,,,,,,,,,,,,,,,,,,,,,,,,,,,,,,
1649886597.306670,35.000000,0.000000,4261.538574,4244.102539,4180.000000,4215.384766,4235.384766,0.000000,4.000000,91.000000,,,,0.000000,4.000000,4.000000,4.000000,1.000000,4.000000,75.000000,,,,,,,,,,,,,,,,,,,,,,,,,,,,,,,,,,,,,,,,,,,,,,,,,,,,,,,,,,,,,,,
1649886597.314484,36.000000,0.000000,4255.384766,4248.717773,4179.487305,4216.922852,4217.436035,0.000000,4.000000,91.000000,,,,0.000000,4.000000,4.000000,4.000000,1.000000,4.000000,75.000000,,,,,,,,,,,,,,,,,,,,,,,,,,,,,,,,,,,,,,,,,,,,,,,,,,,,,,,,,,,,,,,
1649886597.322199,37.000000,0.000000,4254.871582,4238.974121,4173.846191,4216.410156,4239.487305,0.000000,4.000000,91.000000,,,,0.000000,4.000000,4.000000,4.000000,1.000000,4.000000,75.000000,,,,,,,,,,,,,,,,,,,,,,,,,,,,,,,,,,,,,,,,,,,,,,,,,,,,,,,,,,,,,,,
1649886597.330013,38.000000,0.000000,4248.205078,4233.333496,4161.025879,4208.717773,4244.615234,0.000000,4.000000,91.000000,,,,0.000000,4.000000,4.000000,4.000000,1.000000,4.000000,75.000000,,,,,,,,,,,,,,,,,,,,,,,,,,,,,,,,,,,,,,,,,,,,,,,,,,,,,,,,,,,,,,,
1649886597.337728,39.000000,0.000000,4222.563965,4229.743652,4140.512695,4203.077148,4202.051270,0.000000,4.000000,91.000000,,,,0.000000,4.000000,4.000000,4.000000,1.000000,4.000000,75.000000,,,,,,,,,,,,,,,,,,,,,,,,,,,,,,,,,,,,,,,,,,,,,,,,,,,,,,,,,,,,,,,
1649886597.345542,40.000000,0.000000,4217.948730,4229.230957,4136.922852,4210.769043,4196.410156,0.000000,4.000000,91.000000,,,,0.000000,4.000000,4.000000,4.000000,1.000000,4.000000,75.000000,,,,,,,,,,,,,,,,,,,,,,,,,,,,,,,,,,,,,,,,,,,,,,,,,,,,,,,,,,,,,,,
1649886597.353257,41.000000,0.000000,4243.077148,4233.846191,4150.256348,4220.000000,4233.333496,0.000000,4.000000,91.000000,,,,0.000000,4.000000,4.000000,4.000000,1.000000,4.000000,75.000000,,,,,,,,,,,,,,,,,,,,,,,,,,,,,,,,,,,,,,,,,,,,,,,,,,,,,,,,,,,,,,,
1649886597.361071,42.000000,0.000000,4242.563965,4232.820313,4152.820313,4217.436035,4231.282227,0.000000,4.000000,91.000000,,,,0.000000,4.000000,4.000000,4.000000,1.000000,4.000000,75.000000,,,,,,,,,,,,,,,,,,,,,,,,,,,,,,,,,,,,,,,,,,,,,,,,,,,,,,,,,,,,,,,
1649886597.368786,43.000000,0.000000,4214.871582,4220.000000,4149.230957,4212.820313,4205.641113,0.000000,4.000000,91.000000,,,,0.000000,4.000000,4.000000,4.000000,1.000000,4.000000,75.000000,,,,,,,,,,,,,,,,,,,,,,,,,,,,,,,,,,,,,,,,,,,,,,,,,,,,,,,,,,,,,,,
1649886597.376600,44.000000,0.000000,4206.666504,4216.410156,4153.846191,4212.820313,4210.769043,0.000000,4.000000,91.000000,,,,0.000000,4.000000,4.000000,4.000000,1.000000,4.000000,75.000000,,,,,,,,,,,,,,,,,,,,,,,,,,,,,,,,,,,,,,,,,,,,,,,,,,,,,,,,,,,,,,,
1649886597.384315,45.000000,0.000000,4222.051270,4221.538574,4163.077148,4212.307617,4223.589844,0.000000,4.000000,91.000000,,,,0.000000,4.000000,4.000000,4.000000,1.000000,4.000000,75.000000,,,,,,,,,,,,,,,,,,,,,,,,,,,,,,,,,,,,,,,,,,,,,,,,,,,,,,,,,,,,,,,
1649886597.392129,46.000000,0.000000,4235.897461,4218.461426,4175.384766,4216.410156,4220.000000,0.000000,4.000000,91.000000,,,,0.000000,4.000000,4.000000,4.000000,1.000000,4.000000,75.000000,,,,,,,,,,,,,,,,,,,,,,,,,,,,,,,,,,,,,,,,,,,,,,,,,,,,,,,,,,,,,,,
1649886597.399844,47.000000,0.000000,4220.000000,4218.461426,4166.666504,4215.384766,4202.563965,0.000000,4.000000,91.000000,,,,0.000000,4.000000,4.000000,4.000000,1.000000,4.000000,75.000000,,,,,,,,,,,,,,,,,,,,,,,,,,,,,,,,,,,,,,,,,,,,,,,,,,,,,,,,,,,,,,,
1649886597.407658,48.000000,0.000000,4196.922852,4227.179688,4141.538574,4209.230957,4189.743652,0.000000,4.000000,91.000000,,,,0.000000,4.000000,4.000000,4.000000,1.000000,4.000000,75.000000,,,,,,,,,,,,,,,,,,,,,,,,,,,,,,,,,,,,,,,,,,,,,,,,,,,,,,,,,,,,,,,
1649886597.415372,49.000000,0.000000,4214.358887,4231.794922,4149.230957,4212.820313,4215.384766,0.000000,4.000000,91.000000,,,,0.000000,4.000000,4.000000,4.000000,1.000000,4.000000,75.000000,,,,,,,,,,,,,,,,,,,,,,,,,,,,,,,,,,,,,,,3.749840,4.546913,2.852451,3.113076,2.029150,2.995457,0.999534,1.620625,1.674095,1.688539,7.331609,3.155380,2.065557,2.179384,1.085497,0.180203,0.201706,0.196884,0.196381,0.114131,3.833888,6.081158,3.743791,2.919914,1.552355
1649886597.423087,50.000000,0.000000,4240.512695,4226.666504,4163.589844,4220.512695,4246.153809,0.000000,4.000000,91.000000,,,,0.000000,4.000000,4.000000,4.000000,1.000000,4.000000,75.000000,,,,,,,,,,,,,,,,,,,,,,,,,,,,,,,,,,,,,,,,,,,,,,,,,,,,,,,,,,,,,,,
1649886597.430901,51.000000,0.000000,4242.051270,4228.205078,4156.922852,4220.512695,4241.538574,0.000000,4.000000,91.000000,,,,0.000000,4.000000,4.000000,4.000000,1.000000,4.000000,75.000000,,,,,,,,,,,,,,,,,,,,,,,,,,,,,,,,,,,,,,,,,,,,,,,,,,,,,,,,,,,,,,,
1649886597.438616,52.000000,0.000000,4236.410156,4234.358887,4158.461426,4217.436035,4224.102539,0.000000,4.000000,91.000000,,,,0.000000,4.000000,4.000000,4.000000,1.000000,4.000000,75.000000,,,,,,,,,,,,,,,,,,,,,,,,,,,,,,,,,,,,,,,,,,,,,,,,,,,,,,,,,,,,,,,
1649886597.446430,53.000000,0.000000,4222.051270,4228.205078,4161.538574,4213.846191,4216.410156,0.000000,4.000000,91.000000,,,,0.000000,4.000000,4.000000,4.000000,1.000000,4.000000,75.000000,,,,,,,,,,,,,,,,,,,,,,,,,,,,,,,,,,,,,,,,,,,,,,,,,,,,,,,,,,,,,,,
1649886597.454145,54.000000,0.000000,4213.333496,4226.153809,4167.692383,4210.256348,4218.974121,0.000000,4.000000,91.000000,,,,0.000000,4.000000,4.000000,4.000000,1.000000,4.000000,75.000000,,,,,,,,,,,,,,,,,,,,,,,,,,,,,,,,,,,,,,,,,,,,,,,,,,,,,,,,,,,,,,,
1649886597.461959,55.000000,0.000000,4230.769043,4241.025879,4193.333496,4215.897461,4230.769043,0.000000,4.000000,91.000000,,,,0.000000,4.000000,4.000000,4.000000,1.000000,4.000000,75.000000,,,,,,,,,,,,,,,,,,,,,,,,,,,,,,,,,,,,,,,,,,,,,,,,,,,,,,,,,,,,,,,
1649886597.469674,56.000000,0.000000,4241.025879,4251.794922,4192.307617,4221.025879,4233.333496,0.000000,4.000000,91.000000,,,,0.000000,4.000000,4.000000,4.000000,1.000000,4.000000,75.000000,,,,,,,,,,,,,,,,,,,,,,,,,,,,,,,,,,,,,,,,,,,,,,,,,,,,,,,,,,,,,,,
1649886597.477488,57.000000,0.000000,4240.000000,4242.563965,4164.615234,4216.410156,4224.615234,0.000000,4.000000,91.000000,,,,0.000000,4.000000,4.000000,4.000000,1.000000,4.000000,75.000000,,,,,,,,,,,,,,,,,,,,,,,,,,,,,,,,,,,,,,,,,,,,,,,,,,,,,,,,,,,,,,,
1649886597.485203,58.000000,0.000000,4256.922852,4234.871582,4166.666504,4216.922852,4229.743652,0.000000,4.000000,91.000000,,,,0.000000,4.000000,4.000000,4.000000,1.000000,4.000000,75.000000,,,,,,,,,,,,,,,,,,,,,,,,,,,,,,,,,,,,,,,,,,,,,,,,,,,,,,,,,,,,,,,
1649886597.493017,59.000000,0.000000,4263.077148,4232.820313,4176.410156,4218.461426,4233.846191,0.000000,4.000000,91.000000,,,,0.000000,4.000000,4.000000,4.000000,1.000000,4.000000,75.000000,,,,,,,,,,,,,,,,,,,,,,,,,,,,,,,,,,,,,,,,,,,,,,,,,,,,,,,,,,,,,,,
1649886597.500732,60.000000,0.000000,4244.102539,4234.871582,4173.846191,4217.436035,4223.077148,0.000000,4.000000,91.000000,,,,0.000000,4.000000,4.000000,4.000000,1.000000,4.000000,75.000000,,,,,,,,,,,,,,,,,,,,,,,,,,,,,,,,,,,,,,,,,,,,,,,,,,,,,,,,,,,,,,,
1649886597.508546,61.000000,0.000000,4234.871582,4242.563965,4180.512695,4219.487305,4221.538574,0.000000,4.000000,91.000000,,,,0.000000,4.000000,4.000000,4.000000,1.000000,4.000000,75.000000,,,,,,,,,,,,,,,,,,,,,,,,,,,,,,,,,,,,,,,,,,,,,,,,,,,,,,,,,,,,,,,
1649886597.516260,62.000000,0.000000,4243.077148,4240.000000,4180.000000,4219.487305,4233.333496,0.000000,4.000000,91.000000,,,,0.000000,4.000000,4.000000,4.000000,1.000000,4.000000,75.000000,,,,,,,,,,,,,,,,,,,,,,,,,,,,,,,,,,,,,,,,,,,,,,,,,,,,,,,,,,,,,,,
1649886597.524075,63.000000,0.000000,4249.230957,4228.717773,4169.230957,4215.897461,4242.563965,0.000000,4.000000,91.000000,,,,0.000000,4.000000,4.000000,4.000000,1.000000,4.000000,75.000000,,,,,,,,,,,,,,,,,,,,,,,,,,,,,,,,,,,,,,,,,,,,,,,,,,,,,,,,,,,,,,,
1649886597.531789,64.000000,0.000000,4231.794922,4228.205078,4173.333496,4216.922852,4231.282227,450.000000,4.000000,91.000000,,,,0.000000,4.000000,4.000000,4.000000,1.000000,4.000000,75.000000,,,,,,,,,,,,,,,,,,,,,,,,,,,,,,,,,,,,,,,,,,,,,,,,,,,,,,,,,,,,,,,
1649886597.539604,65.000000,0.000000,4211.794922,4236.410156,4176.922852,4217.436035,4211.794922,450.000000,4.000000,91.000000,,,,0.000000,4.000000,4.000000,4.000000,1.000000,4.000000,75.000000,,,,,,,,,,,,,,,,,,,,,,,,,,,,,,,,,,,,,,,3.133911,5.470887,3.005246,3.055308,2.015092,2.531360,1.250755,1.462414,1.654698,1.680534,6.483735,3.095391,2.019581,2.197578,1.035202,0.167119,0.290361,0.192852,0.178980,0.109390,3.100447,6.807214,3.962912,2.989255,1.531718
1649886597.547318,66.000000,0.000000,4227.179688,4238.974121,4169.743652,4216.410156,4218.974121,16209.000000,4.000000,91.000000,,,,0.000000,4.000000,4.000000,4.000000,1.000000,4.000000,75.000000,,,,,,,,,,,,,,,,,,,,,,,,,,,,,,,,,,,,,,,,,,,,,,,,,,,,,,,,,,,,,,,
1649886597.555133,67.000000,0.000000,4242.051270,4236.922852,4163.589844,4215.384766,4230.769043,450.000000,4.000000,91.000000,,,,0.000000,4.000000,4.000000,4.000000,1.000000,4.000000,75.000000,,,,,,,,,,,,,,,,,,,,,,,,,,,,,,,,,,,,,,,,,,,,,,,,,,,,,,,,,,,,,,,
1649886597.562847,68.000000,0.000000,4226.153809,4233.846191,4156.922852,4214.871582,4225.128418,16201.000000,4.000000,91.000000,,,,0.000000,4.000000,4.000000,4.000000,1.000000,4.000000,75.000000,,,,,,,,,,,,,,,,,,,,,,,,,,,,,,,,,,,,,,,,,,,,,,,,,,,,,,,,,,,,,,,
1649886597.570562,69.000000,0.000000,4231.282227,4236.410156,4160.000000,4215.897461,4230.769043,450.000000,4.000000,91.000000,,,,0.000000,4.000000,4.000000,4.000000,1.000000,4.000000,75.000000,,,,,,,,,,,,,,,,,,,,,,,,,,,,,,,,,,,,,,,,,,,,,,,,,,,,,,,,,,,,,,,
1649886597.578376,70.000000,0.000000,4253.333496,4244.615234,4175.897461,4217.948730,4244.102539,16164.000000,4.000000,91.000000,,,,0.000000,4.000000,4.000000,4.000000,1.000000,4.000000,75.000000,,,,,,,,,,,,,,,,,,,,,,,,,,,,,,,,,,,,,,,,,,,,,,,,,,,,,,,,,,,,,,,
1649886597.586091,71.000000,0.000000,4248.717773,4240.000000,4176.410156,4217.436035,4237.436035,450.000000,4.000000,91.000000,,,,0.000000,4.000000,4.000000,4.000000,1.000000,4.000000,75.000000,,,,,,,,,,,,,,,,,,,,,,,,,,,,,,,,,,,,,,,,,,,,,,,,,,,,,,,,,,,,,,,
1649886597.593905,72.000000,0.000000,4238.461426,4224.615234,4157.436035,4216.922852,4224.102539,450.000000,4.000000,91.000000,,,,0.000000,4.000000,4.000000,4.000000,1.000000,4.000000,75.000000,,,,,,,,,,,,,,,,,,,,,,,,,,,,,,,,,,,,,,,,,,,,,,,,,,,,,,,,,,,,,,,
1649886597.601620,73.000000,0.000000,4244.102539,4229.743652,4156.410156,4215.897461,4228.205078,54.000000,4.000000,91.000000,,,,0.000000,4.000000,4.000000,4.000000,1.000000,4.000000,75.000000,,,,,,,,,,,,,,,,,,,,,,,,,,,,,,,,,,,,,,,,,,,,,,,,,,,,,,,,,,,,,,,
1649886597.609434,74.000000,0.000000,4252.820313,4240.512695,4162.563965,4213.846191,4240.000000,450.000000,4.000000,91.000000,,,,0.000000,4.000000,4.000000,4.000000,1.000000,4.000000,75.000000,,,,,,,,,,,,,,,,,,,,,,,,,,,,,,,,,,,,,,,,,,,,,,,,,,,,,,,,,,,,,,,
1649886597.617148,75.000000,0.000000,4260.512695,4234.358887,4154.871582,4214.871582,4256.922852,16201.000000,4.000000,91.000000,,,,0.000000,4.000000,4.000000,4.000000,1.000000,4.000000,75.000000,,,,,,,,,,,,,,,,,,,,,,,,,,,,,,,,,,,,,,,,,,,,,,,,,,,,,,,,,,,,,,,
1649886597.624963,76.000000,0.000000,4266.153809,4234.358887,4161.538574,4217.436035,4273.333496,450.000000,4.000000,91.000000,,,,0.000000,4.000000,4.000000,4.000000,1.000000,4.000000,75.000000,,,,,,,,,,,,,,,,,,,,,,,,,,,,,,,,,,,,,,,,,,,,,,,,,,,,,,,,,,,,,,,
1649886597.632677,77.000000,0.000000,4272.307617,4242.563965,4177.436035,4222.051270,4267.692383,450.000000,4.000000,91.000000,,,,0.000000,4.000000,4.000000,4.000000,1.000000,4.000000,75.000000,,,,,,,,,,,,,,,,,,,,,,,,,,,,,,,,,,,,,,,,,,,,,,,,,,,,,,,,,,,,,,,
1649886597.640492,78.000000,0.000000,4284.615234,4240.512695,4176.410156,4226.666504,4256.922852,450.000000,4.000000,91.000000,,,,0.000000,4.000000,4.000000,4.000000,1.000000,4.000000,75.000000,,,,,,,,,,,,,,,,,,,,,,,,,,,,,,,,,,,,,,,,,,,,,,,,,,,,,,,,,,,,,,,
1649886597.648206,79.000000,0.000000,4285.641113,4237.948730,4179.487305,4225.641113,4266.666504,16201.000000,4.000000,91.000000,,,,0.000000,4.000000,4.000000,4.000000,1.000000,4.000000,75.000000,,,,,,,,,,,,,,,,,,,,,,,,,,,,,,,,,,,,,,,,,,,,,,,,,,,,,,,,,,,,,,,
1649886597.656021,80.000000,0.000000,4276.410156,4241.538574,4193.846191,4225.641113,4274.358887,450.000000,4.000000,91.000000,,,,0.000000,4.000000,4.000000,4.000000,1.000000,4.000000,75.000000,,,,,,,,,,,,,,,,,,,,,,,,,,,,,,,,,,,,,,,,,,,,,,,,,,,,,,,,,,,,,,,
1649886597.663735,81.000000,0.000000,4256.922852,4238.461426,4187.179688,4225.641113,4250.769043,450.000000,4.000000,91.000000,,,,0.000000,4.000000,4.000000,4.000000,1.000000,4.000000,75.000000,,,,,,,,,,,,,,,,,,,,,,,,,,,,,,,,,,,,,,,2.386472,6.402779,2.931437,2.847769,2.030724,1.929804,1.659263,1.257282,1.533159,1.650296,5.275397,3.299218,1.964138,2.114179,0.998019,0.148682,0.400507,0.177491,0.163296,0.109264,2.366058,7.596812,3.813734,2.872878,1.583142
1649886597.671550,82.000000,0.000000,4225.128418,4227.692383,4160.512695,4218.461426,4217.436035,450.000000,4.000000,91.000000,,,,0.000000,4.000000,4.000000,4.000000,1.000000,4.000000,75.000000,,,,,,,,,,,,,,,,,,,,,,,,,,,,,,,,,,,,,,,,,,,,,,,,,,,,,,,,,,,,,,,
1649886597.679264,83.000000,0.000000,4218.974121,4227.179688,4147.179688,4211.794922,4210.256348,16201.000000,4.000000,91.000000,,,,0.000000,4.000000,4.000000,4.000000,1.000000,4.000000,75.000000,,,,,,,,,,,,,,,,,,,,,,,,,,,,,,,,,,,,,,,,,,,,,,,,,,,,,,,,,,,,,,,
1649886597.687079,84.000000,0.000000,4234.871582,4231.794922,4145.128418,4212.307617,4217.436035,450.000000,4.000000,91.000000,,,,0.000000,4.000000,4.000000,4.000000,1.000000,4.000000,75.000000,,,,,,,,,,,,,,,,,,,,,,,,,,,,,,,,,,,,,,,,,,,,,,,,,,,,,,,,,,,,,,,
1649886597.694793,85.000000,0.000000,4243.077148,4241.538574,4146.666504,4214.358887,4226.666504,450.000000,4.000000,91.000000,,,,0.000000,4.000000,4.000000,4.000000,1.000000,4.000000,75.000000,,,,,,,,,,,,,,,,,,,,,,,,,,,,,,,,,,,,,,,,,,,,,,,,,,,,,,,,,,,,,,,
1649886597.702607,86.000000,0.000000,4258.461426,4248.717773,4154.358887,4215.384766,4239.487305,450.000000,4.000000,91.000000,,,,0.000000,4.000000,4.000000,4.000000,1.000000,4.000000,75.000000,,,,,,,,,,,,,,,,,,,,,,,,,,,,,,,,,,,,,,,,,,,,,,,,,,,,,,,,,,,,,,,
1649886597.710322,87.000000,0.000000,4274.871582,4245.641113,4168.205078,4218.974121,4249.230957,16201.000000,4.000000,91.000000,,,,0.000000,4.000000,4.000000,4.000000,1.000000,4.000000,75.000000,,,,,,,,,,,,,,,,,,,,,,,,,,,,,,,,,,,,,,,,,,,,,,,,,,,,,,,,,,,,,,,
1649886597.718136,88.000000,0.000000,4265.641113,4239.487305,4173.846191,4220.512695,4251.794922,450.000000,4.000000,91.000000,,,,0.000000,4.000000,4.000000,4.000000,1.000000,4.000000,75.000000,,,,,,,,,,,,,,,,,,,,,,,,,,,,,,,,,,,,,,,,,,,,,,,,,,,,,,,,,,,,,,,
1649886597.725851,89.000000,0.000000,4258.974121,4243.077148,4172.307617,4217.436035,4249.743652,450.000000,4.000000,91.000000,,,,0.000000,4.000000,4.000000,4.000000,1.000000,4.000000,75.000000,,,,,,,,,,,,,,,,,,,,,,,,,,,,,,,,,,,,,,,,,,,,,,,,,,,,,,,,,,,,,,,
1649886597.733565,90.000000,0.000000,4277.436035,4250.256348,4178.974121,4220.000000,4254.358887,450.000000,4.000000,91.000000,,,,0.000000,4.000000,4.000000,4.000000,1.000000,4.000000,75.000000,,,,,,,,,,,,,,,,,,,,,,,,,,,,,,,,,,,,,,,,,,,,,,,,,,,,,,,,,,,,,,,
1649886597.741380,91.000000,0.000000,4284.615234,4247.692383,4180.512695,4223.077148,4258.974121,16201.000000,4.000000,91.000000,,,,0.000000,4.000000,4.000000,4.000000,1.000000,4.000000,75.000000,,,,,,,,,,,,,,,,,,,,,,,,,,,,,,,,,,,,,,,,,,,,,,,,,,,,,,,,,,,,,,,
1649886597.749094,92.000000,0.000000,4267.179688,4241.538574,4168.717773,4219.487305,4248.717773,450.000000,4.000000,91.000000,,,,0.000000,4.000000,4.000000,4.000000,1.000000,4.000000,75.000000,,,,,,,,,,,,,,,,,,,,,,,,,,,,,,,,,,,,,,,,,,,,,,,,,,,,,,,,,,,,,,,
1649886597.756909,93.000000,0.000000,4257.436035,4237.436035,4166.666504,4220.000000,4241.538574,450.000000,4.000000,91.000000,,,,0.000000,4.000000,4.000000,4.000000,1.000000,4.000000,75.000000,,,,,,,,,,,,,,,,,,,,,,,,,,,,,,,,,,,,,,,,,,,,,,,,,,,,,,,,,,,,,,,
1649886597.764723,94.000000,0.000000,4275.897461,4238.461426,4181.538574,4225.128418,4256.922852,450.000000,4.000000,91.000000,,,,0.000000,4.000000,4.000000,4.000000,1.000000,4.000000,75.000000,,,,,,,,,,,,,,,,,,,,,,,,,,,,,,,,,,,,,,,,,,,,,,,,,,,,,,,,,,,,,,,
1649886597.772438,95.000000,0.000000,4297.436035,4249.743652,4180.512695,4224.615234,4274.358887,16201.000000,4.000000,91.000000,,,,0.000000,4.000000,4.000000,4.000000,1.000000,4.000000,75.000000,,,,,,,,,,,,,,,,,,,,,,,,,,,,,,,,,,,,,,,,,,,,,,,,,,,,,,,,,,,,,,,
1649886597.780252,96.000000,0.000000,4290.256348,4254.358887,4156.410156,4218.461426,4266.153809,450.000000,4.000000,91.000000,,,,0.000000,4.000000,4.000000,4.000000,1.000000,4.000000,75.000000,,,,,,,,,,,,,,,,,,,,,,,,,,,,,,,,,,,,,,,,,,,,,,,,,,,,,,,,,,,,,,,
1649886597.787967,97.000000,0.000000,4275.384766,4252.307617,4150.769043,4217.948730,4254.871582,450.000000,4.000000,91.000000,,,,0.000000,4.000000,4.000000,4.000000,1.000000,4.000000,75.000000,1.000000,75.000000,4.000000,4.000000,4.000000,1.000000,4.000000,,,,,,,,,,,,,,,,,,,,,,,,,,,,,,,,1.761401,7.166346,2.651023,2.508070,2.070140,1.409698,2.165047,1.073144,1.322203,1.600090,4.103203,3.784748,1.931561,1.905472,0.975939,0.133605,0.511656,0.154518,0.148341,0.113233,1.828690,8.271963,3.344459,2.565860,1.686091
1649886597.795781,98.000000,0.000000,4271.282227,4249.743652,4163.077148,4218.974121,4255.897461,450.000000,4.000000,91.000000,,,,0.000000,4.000000,4.000000,4.000000,1.000000,4.000000,75.000000,,,,,,,,,,,,,,,,,,,,,,,,,,,,,,,,,,,,,,,,,,,,,,,,,,,,,,,,,,,,,,,
1649886597.803495,99.000000,0.000000,4273.333496,4247.692383,4171.282227,4218.461426,4254.871582,16201.000000,4.000000,91.000000,,,,0.000000,4.000000,4.000000,4.000000,1.000000,4.000000,75.000000,,,,,,,,,,,,,,,,,,,,,,,,,,,,,,,,,,,,,,,,,,,,,,,,,,,,,,,,,,,,,,,
1649886597.811210,100.000000,0.000000,4273.846191,4243.589844,4168.205078,4218.461426,4248.205078,450.000000,4.000000,91.000000,,,,0.000000,4.000000,4.000000,4.000000,1.000000,4.000000,75.000000,,,,,,,,,,,,,,,,,,,,,,,,,,,,,,,,,,,,,,,,,,,,,,,,,,,,,,,,,,,,,,,
1649886597.819024,101.000000,0.000000,4264.615234,4233.333496,4157.436035,4217.436035,4240.512695,450.000000,4.000000,91.000000,,,,0.000000,4.000000,4.000000,4.000000,1.000000,4.000000,75.000000,,,,,,,,,,,,,,,,,,,,,,,,,,,,,,,,,,,,,,,,,,,,,,,,,,,,,,,,,,,,,,,
1649886597.826739,102.000000,0.000000,4268.717773,4236.410156,4154.871582,4219.487305,4248.717773,450.000000,4.000000,91.000000,,,,0.000000,4.000000,4.000000,4.000000,1.000000,4.000000,75.000000,,,,,,,,,,,,,,,,,,,,,,,,,,,,,,,,,,,,,,,,,,,,,,,,,,,,,,,,,,,,,,,
1649886597.834553,103.000000,0.000000,4286.153809,4252.307617,4163.589844,4222.563965,4265.128418,16201.000000,4.000000,91.000000,,,,0.000000,4.000000,4.000000,4.000000,1.000000,4.000000,75.000000,,,,,,,,,,,,,,,,,,,,,,,,,,,,,,,,,,,,,,,,,,,,,,,,,,,,,,,,,,,,,,,
1649886597.842268,104.000000,0.000000,4274.871582,4251.794922,4156.922852,4221.025879,4254.358887,450.000000,4.000000,91.000000,,,,0.000000,4.000000,4.000000,4.000000,1.000000,4.000000,75.000000,,,,,,,,,,,,,,,,,,,,,,,,,,,,,,,,,,,,,,,,,,,,,,,,,,,,,,,,,,,,,,,
1649886597.850082,105.000000,0.000000,4250.769043,4237.948730,4140.000000,4217.436035,4237.948730,450.000000,4.000000,91.000000,,,,0.000000,4.000000,4.000000,4.000000,1.000000,4.000000,75.000000,,,,,,,,,,,,,,,,,,,,,,,,,,,,,,,,,,,,,,,,,,,,,,,,,,,,,,,,,,,,,,,
1649886597.857897,106.000000,0.000000,4265.641113,4244.615234,4147.179688,4221.538574,4258.461426,450.000000,4.000000,91.000000,,,,0.000000,4.000000,4.000000,4.000000,1.000000,4.000000,75.000000,,,,,,,,,,,,,,,,,,,,,,,,,,,,,,,,,,,,,,,,,,,,,,,,,,,,,,,,,,,,,,,
1649886597.865611,107.000000,0.000000,4293.846191,4260.000000,4166.153809,4225.641113,4282.563965,16201.000000,4.000000,91.000000,,,,0.000000,4.000000,4.000000,4.000000,1.000000,4.000000,75.000000,,,,,,,,,,,,,,,,,,,,,,,,,,,,,,,,,,,,,,,,,,,,,,,,,,,,,,,,,,,,,,,
1649886597.873326,108.000000,0.000000,4288.717773,4252.820313,4160.512695,4221.538574,4262.563965,450.000000,4.000000,91.000000,,,,0.000000,4.000000,4.000000,4.000000,1.000000,4.000000,75.000000,,,,,,,,,,,,,,,,,,,,,,,,,,,,,,,,,,,,,,,,,,,,,,,,,,,,,,,,,,,,,,,
1649886597.881040,109.000000,0.000000,4274.871582,4238.974121,4147.692383,4213.846191,4245.641113,450.000000,4.000000,91.000000,,,,0.000000,4.000000,4.000000,4.000000,1.000000,4.000000,75.000000,,,,,,,,,,,,,,,,,,,,,,,,,,,,,,,,,,,,,,,,,,,,,,,,,,,,,,,,,,,,,,,
1649886597.888855,110.000000,0.000000,4283.077148,4246.666504,4162.051270,4216.922852,4271.282227,450.000000,4.000000,91.000000,,,,0.000000,4.000000,4.000000,4.000000,1.000000,4.000000,75.000000,,,,,,,,,,,,,,,,,,,,,,,,,,,,,,,,,,,,,,,,,,,,,,,,,,,,,,,,,,,,,,,
1649886597.896669,111.000000,0.000000,4298.461426,4264.102539,4185.641113,4228.205078,4292.307617,16201.000000,4.000000,91.000000,,,,0.000000,4.000000,4.000000,4.000000,1.000000,4.000000,75.000000,,,,,,,,,,,,,,,,,,,,,,,,,,,,,,,,,,,,,,,,,,,,,,,,,,,,,,,,,,,,,,,
1649886597.904383,112.000000,0.000000,4293.333496,4263.077148,4184.102539,4227.179688,4273.846191,450.000000,4.000000,91.000000,,,,0.000000,4.000000,4.000000,4.000000,1.000000,4.000000,75.000000,,,,,,,,,,,,,,,,,,,,,,,,,,,,,,,,,,,,,,,,,,,,,,,,,,,,,,,,,,,,,,,
1649886597.912198,113.000000,0.000000,4268.205078,4246.153809,4161.538574,4221.025879,4242.051270,450.000000,4.000000,91.000000,,,,0.000000,4.000000,4.000000,4.000000,1.000000,4.000000,75.000000,,,,,,,,,,,,,,,,,,,,,,,,,,,,,,,,,,,,,,,1.514178,7.558366,2.294748,2.105819,2.111489,1.126213,2.631500,0.944998,1.062271,1.514133,3.301629,4.418595,1.914210,1.592999,0.959657,0.128568,0.597083,0.132189,0.133638,0.118732,1.603572,8.580994,2.719602,2.131531,1.803269
1649886597.919912,114.000000,0.000000,4258.974121,4243.589844,4154.358887,4222.051270,4234.358887,450.000000,4.000000,91.000000,,,,0.000000,4.000000,4.000000,4.000000,1.000000,4.000000,75.000000,,,,,,,,,,,,,,,,,,,,,,,,,,,,,,,,,,,,,,,,,,,,,,,,,,,,,,,,,,,,,,,
1649886597.927727,115.000000,0.000000,4282.051270,4260.000000,4170.256348,4224.615234,4258.974121,16201.000000,4.000000,91.000000,,,,0.000000,4.000000,4.000000,4.000000,1.000000,4.000000,75.000000,,,,,,,,,,,,,,,,,,,,,,,,,,,,,,,,,,,,,,,,,,,,,,,,,,,,,,,,,,,,,,,
1649886597.935441,116.000000,0.000000,4291.794922,4257.948730,4170.256348,4225.641113,4274.358887,450.000000,4.000000,91.000000,,,,0.000000,4.000000,4.000000,4.000000,1.000000,4.000000,75.000000,,,,,,,,,,,,,,,,,,,,,,,,,,,,,,,,,,,,,,,,,,,,,,,,,,,,,,,,,,,,,,,
1649886597.943256,117.000000,0.000000,4271.794922,4232.820313,4144.615234,4223.589844,4249.230957,450.000000,4.000000,91.000000,,,,0.000000,4.000000,4.000000,4.000000,1.000000,4.000000,75.000000,,,,,,,,,,,,,,,,,,,,,,,,,,,,,,,,,,,,,,,,,,,,,,,,,,,,,,,,,,,,,,,
1649886597.950970,118.000000,0.000000,4270.256348,4230.769043,4143.589844,4220.000000,4236.922852,450.000000,4.000000,91.000000,,,,0.000000,4.000000,4.000000,4.000000,1.000000,4.000000,75.000000,,,,,,,,,,,,,,,,,,,,,,,,,,,,,,,,,,,,,,,,,,,,,,,,,,,,,,,,,,,,,,,
1649886597.958785,119.000000,0.000000,4294.358887,4256.922852,4173.846191,4223.077148,4269.230957,16201.000000,4.000000,91.000000,,,,0.000000,4.000000,4.000000,4.000000,1.000000,4.000000,75.000000,,,,,,,,,,,,,,,,,,,,,,,,,,,,,,,,,,,,,,,,,,,,,,,,,,,,,,,,,,,,,,,
1649886597.966499,120.000000,0.000000,4292.820313,4267.179688,4176.922852,4226.153809,4281.538574,450.000000,4.000000,91.000000,,,,0.000000,4.000000,4.000000,4.000000,1.000000,4.000000,75.000000,,,,,,,,,,,,,,,,,,,,,,,,,,,,,,,,,,,,,,,,,,,,,,,,,,,,,,,,,,,,,,,
1649886597.974314,121.000000,0.000000,4275.897461,4254.358887,4160.512695,4223.077148,4260.000000,450.000000,4.000000,91.000000,,,,0.000000,4.000000,4.000000,4.000000,1.000000,4.000000,75.000000,,,,,,,,,,,,,,,,,,,,,,,,,,,,,,,,,,,,,,,,,,,,,,,,,,,,,,,,,,,,,,,
1649886597.982028,122.000000,0.000000,4298.461426,4256.410156,4177.436035,4222.563965,4272.820313,450.000000,4.000000,91.000000,,,,0.000000,4.000000,4.000000,4.000000,1.000000,4.000000,75.000000,,,,,,,,,,,,,,,,,,,,,,,,,,,,,,,,,,,,,,,,,,,,,,,,,,,,,,,,,,,,,,,
1649886597.989842,123.000000,0.000000,4325.128418,4269.230957,4198.974121,4226.153809,4297.948730,16201.000000,4.000000,91.000000,,,,0.000000,4.000000,4.000000,4.000000,1.000000,4.000000,75.000000,,,,,,,,,,,,,,,,,,,,,,,,,,,,,,,,,,,,,,,,,,,,,,,,,,,,,,,,,,,,,,,
1649886597.997557,124.000000,0.000000,4302.051270,4260.512695,4183.077148,4225.641113,4268.205078,450.000000,4.000000,91.000000,,,,0.000000,4.000000,4.000000,4.000000,1.000000,4.000000,75.000000,,,,,,,,,,,,,,,,,,,,,,,,,,,,,,,,,,,,,,,,,,,,,,,,,,,,,,,,,,,,,,,
1649886598.005271,125.000000,0.000000,4264.102539,4239.487305,4163.077148,4220.512695,4233.846191,450.000000,4.000000,91.000000,,,,0.000000,4.000000,4.000000,4.000000,1.000000,4.000000,75.000000,,,,,,,,,,,,,,,,,,,,,,,,,,,,,,,,,,,,,,,,,,,,,,,,,,,,,,,,,,,,,,,
1649886598.013086,126.000000,0.000000,4269.743652,4243.589844,4172.820313,4219.487305,4253.333496,450.000000,4.000000,91.000000,,,,0.000000,4.000000,4.000000,4.000000,1.000000,4.000000,75.000000,,,,,,,,,,,,,,,,,,,,,,,,,,,,,,,,,,,,,,,,,,,,,,,,,,,,,,,,,,,,,,,
1649886598.020800,127.000000,0.000000,4297.948730,4262.563965,4186.666504,4225.128418,4273.333496,242.000000,4.000000,91.000000,,,,0.000000,4.000000,4.000000,4.000000,1.000000,4.000000,75.000000,,,,,,,,,,,,,,,,,,,,,,,,,,,,,,,,,,,,,,,,,,,,,,,,,,,,,,,,,,,,,,,
1649886598.028615,0.000000,0.000000,4295.897461,4262.051270,4178.974121,4225.128418,4257.436035,450.000000,4.000000,91.000000,,,,0.000000,4.000000,4.000000,4.000000,1.000000,4.000000,75.000000,,,,,,,,,,,,,,,,,,,,,,,,,,,,,,,,,,,,,,,,,,,,,,,,,,,,,,,,,,,,,,,
1649886598.036329,1.000000,0.000000,4277.436035,4256.410156,4164.102539,4218.461426,4243.077148,450.000000,4.000000,91.000000,,,,0.000000,4.000000,4.000000,4.000000,1.000000,4.000000,75.000000,,,,,,,,,,,,,,,,,,,,,,,,,,,,,,,,,,,,,,,1.802052,7.452762,2.046838,1.734983,2.124154,1.125739,2.896730,0.869183,0.804430,1.373049,3.014216,4.983185,1.892431,1.238478,0.939164,0.134581,0.635044,0.119136,0.120542,0.122423,1.719301,8.363611,2.159616,1.679921,1.893189
1649886598.044144,2.000000,0.000000,4262.563965,4248.205078,4155.384766,4220.000000,4232.820313,16231.000000,4.000000,91.000000,,,,0.000000,4.000000,4.000000,4.000000,1.000000,4.000000,75.000000,,,,,,,,,,,,,,,,,,,,,,,,,,,,,,,,,,,,,,,,,,,,,,,,,,,,,,,,,,,,,,,
1649886598.051858,3.000000,0.000000,4253.846191,4229.743652,4145.128418,4219.487305,4223.077148,450.000000,4.000000,91.000000,,,,0.000000,4.000000,4.000000,4.000000,1.000000,4.000000,75.000000,,,,,,,,,,,,,,,,,,,,,,,,,,,,,,,,,,,,,,,,,,,,,,,,,,,,,,,,,,,,,,,
1649886598.059673,4.000000,0.000000,4265.641113,4234.871582,4146.153809,4216.922852,4243.589844,16206.000000,4.000000,91.000000,,,,0.000000,4.000000,4.000000,4.000000,1.000000,4.000000,75.000000,,,,,,,,,,,,,,,,,,,,,,,,,,,,,,,,,,,,,,,,,,,,,,,,,,,,,,,,,,,,,,,
1649886598.067387,5.000000,0.000000,4302.563965,4261.538574,4168.205078,4225.641113,4280.000000,450.000000,4.000000,91.000000,,,,0.000000,4.000000,4.000000,4.000000,1.000000,4.000000,75.000000,,,,,,,,,,,,,,,,,,,,,,,,,,,,,,,,,,,,,,,,,,,,,,,,,,,,,,,,,,,,,,,
1649886598.075202,6.000000,0.000000,4316.922852,4263.589844,4182.051270,4231.282227,4283.077148,16188.000000,4.000000,91.000000,,,,0.000000,4.000000,4.000000,4.000000,1.000000,4.000000,75.000000,,,,,,,,,,,,,,,,,,,,,,,,,,,,,,,,,,,,,,,,,,,,,,,,,,,,,,,,,,,,,,,
1649886598.082916,7.000000,0.000000,4291.282227,4244.615234,4172.820313,4226.153809,4261.538574,450.000000,4.000000,91.000000,,,,0.000000,4.000000,4.000000,4.000000,1.000000,4.000000,75.000000,,,,,,,,,,,,,,,,,,,,,,,,,,,,,,,,,,,,,,,,,,,,,,,,,,,,,,,,,,,,,,,
1649886598.090631,8.000000,0.000000,4279.487305,4238.461426,4162.563965,4220.000000,4256.410156,450.000000,4.000000,91.000000,,,,0.000000,4.000000,4.000000,4.000000,1.000000,4.000000,75.000000,,,,,,,,,,,,,,,,,,,,,,,,,,,,,,,,,,,,,,,,,,,,,,,,,,,,,,,,,,,,,,,
1649886598.098445,9.000000,0.000000,4292.307617,4244.102539,4167.179688,4219.487305,4267.179688,54.000000,4.000000,91.000000,,,,0.000000,4.000000,4.000000,4.000000,1.000000,4.000000,75.000000,,,,,,,,,,,,,,,,,,,,,,,,,,,,,,,,,,,,,,,,,,,,,,,,,,,,,,,,,,,,,,,
1649886598.106259,10.000000,0.000000,4302.563965,4251.282227,4183.077148,4225.641113,4275.897461,450.000000,4.000000,91.000000,,,,0.000000,4.000000,4.000000,4.000000,1.000000,4.000000,75.000000,,,,,,,,,,,,,,,,,,,,,,,,,,,,,,,,,,,,,,,,,,,,,,,,,,,,,,,,,,,,,,,
1649886598.113974,11.000000,0.000000,4295.384766,4245.128418,4186.666504,4228.717773,4270.769043,16191.000000,4.000000,91.000000,,,,0.000000,4.000000,4.000000,4.000000,1.000000,4.000000,75.000000,,,,,,,,,,,,,,,,,,,,,,,,,,,,,,,,,,,,,,,,,,,,,,,,,,,,,,,,,,,,,,,
1649886598.121788,12.000000,0.000000,4283.077148,4229.743652,4176.922852,4223.589844,4253.846191,450.000000,4.000000,91.000000,,,,0.000000,4.000000,4.000000,4.000000,1.000000,4.000000,75.000000,,,,,,,,,,,,,,,,,,,,,,,,,,,,,,,,,,,,,,,,,,,,,,,,,,,,,,,,,,,,,,,
1649886598.129503,13.000000,0.000000,4281.538574,4232.307617,4173.846191,4220.512695,4247.179688,450.000000,4.000000,91.000000,,,,0.000000,4.000000,4.000000,4.000000,1.000000,4.000000,75.000000,,,,,,,,,,,,,,,,,,,,,,,,,,,,,,,,,,,,,,,,,,,,,,,,,,,,,,,,,,,,,,,
1649886598.137317,14.000000,0.000000,4278.974121,4239.487305,4168.205078,4218.461426,4245.128418,450.000000,4.000000,91.000000,,,,0.000000,4.000000,4.000000,4.000000,1.000000,4.000000,75.000000,,,,,,,,,,,,,,,,,,,,,,,,,,,,,,,,,,,,,,,,,,,,,,,,,,,,,,,,,,,,,,,
1649886598.145032,15.000000,0.000000,4257.436035,4229.230957,4153.846191,4211.282227,4224.615234,16191.000000,4.000000,91.000000,,,,0.000000,4.000000,4.000000,4.000000,1.000000,4.000000,75.000000,,,,,,,,,,,,,,,,,,,,,,,,,,,,,,,,,,,,,,,,,,,,,,,,,,,,,,,,,,,,,,,
1649886598.152846,16.000000,0.000000,4246.153809,4231.282227,4158.974121,4209.230957,4207.692383,0.000000,4.000000,91.000000,,,,0.000000,4.000000,4.000000,4.000000,1.000000,4.000000,75.000000,,,,,,,,,,,,,,,,,,,,,,,,,,,,,,,,,,,,,,,,,,,,,,,,,,,,,,,,,,,,,,,
1649886598.160561,17.000000,0.000000,4267.179688,4246.666504,4173.333496,4216.922852,4224.615234,0.000000,4.000000,91.000000,,,,0.000000,4.000000,4.000000,4.000000,1.000000,4.000000,75.000000,,,,,,,,,,,,,,,,,,,,,,,,,,,,,,,,,,,,,,,2.579145,6.885660,2.043931,1.473746,2.084085,1.301740,2.849208,0.819823,0.588968,1.177686,3.143749,5.298039,1.846138,0.915635,0.914102,0.148240,0.619405,0.119625,0.110617,0.121925,2.133298,7.669359,1.837379,1.322064,1.929558
1649886598.168375,18.000000,0.000000,4277.436035,4237.436035,4168.205078,4220.512695,4237.436035,0.000000,4.000000,91.000000,,,,0.000000,4.000000,4.000000,4.000000,1.000000,4.000000,75.000000,,,,,,,,,,,,,,,,,,,,,,,,,,,,,,,,,,,,,,,,,,,,,,,,,,,,,,,,,,,,,,,
1649886598.176090,19.000000,0.000000,4274.871582,4227.179688,4169.230957,4218.461426,4233.846191,0.000000,4.000000,91.000000,,,,0.000000,4.000000,4.000000,4.000000,1.000000,4.000000,75.000000,,,,,,,,,,,,,,,,,,,,,,,,,,,,,,,,,,,,,,,,,,,,,,,,,,,,,,,,,,,,,,,
1649886598.183804,20.000000,0.000000,4283.077148,4241.538574,4177.436035,4218.974121,4237.436035,0.000000,4.000000,91.000000,,,,0.000000,4.000000,4.000000,4.000000,1.000000,4.000000,75.000000,,,,,,,,,,,,,,,,,,,,,,,,,,,,,,,,,,,,,,,,,,,,,,,,,,,,,,,,,,,,,,,
1649886598.191618,21.000000,0.000000,4282.563965,4251.282227,4169.230957,4218.974121,4235.897461,0.000000,4.000000,91.000000,,,,0.000000,4.000000,4.000000,4.000000,1.000000,4.000000,75.000000,,,,,,,,,,,,,,,,,,,,,,,,,,,,,,,,,,,,,,,,,,,,,,,,,,,,,,,,,,,,,,,
1649886598.199333,22.000000,0.000000,4272.820313,4244.102539,4155.384766,4218.461426,4230.256348,0.000000,4.000000,91.000000,,,,0.000000,4.000000,4.000000,4.000000,1.000000,4.000000,75.000000,,,,,,,,,,,,,,,,,,,,,,,,,,,,,,,,,,,,,,,,,,,,,,,,,,,,,,,,,,,,,,,
1649886598.207147,23.000000,0.000000,4279.487305,4242.563965,4161.025879,4220.512695,4248.205078,0.000000,4.000000,91.000000,,,,0.000000,4.000000,4.000000,4.000000,1.000000,4.000000,75.000000,,,,,,,,,,,,,,,,,,,,,,,,,,,,,,,,,,,,,,,,,,,,,,,,,,,,,,,,,,,,,,,
1649886598.214862,24.000000,0.000000,4277.948730,4240.000000,4166.666504,4220.512695,4264.102539,0.000000,4.000000,91.000000,,,,0.000000,4.000000,4.000000,4.000000,1.000000,4.000000,75.000000,,,,,,,,,,,,,,,,,,,,,,,,,,,,,,,,,,,,,,,,,,,,,,,,,,,,,,,,,,,,,,,
1649886598.222676,25.000000,0.000000,4255.897461,4220.512695,4148.205078,4214.358887,4235.384766,0.000000,4.000000,91.000000,,,,0.000000,4.000000,4.000000,4.000000,1.000000,4.000000,75.000000,,,,,,,,,,,,,,,,,,,,,,,,,,,,,,,,,,,,,,,,,,,,,,,,,,,,,,,,,,,,,,,
1649886598.230391,26.000000,0.000000,4259.487305,4212.820313,4142.051270,4213.846191,4220.512695,0.000000,4.000000,91.000000,,,,0.000000,4.000000,4.000000,4.000000,1.000000,4.000000,75.000000,,,,,,,,,,,,,,,,,,,,,,,,,,,,,,,,,,,,,,,,,,,,,,,,,,,,,,,,,,,,,,,
1649886598.238205,27.000000,0.000000,4281.538574,4225.128418,4156.410156,4218.974121,4244.615234,0.000000,4.000000,91.000000,,,,0.000000,4.000000,4.000000,4.000000,1.000000,4.000000,75.000000,,,,,,,,,,,,,,,,,,,,,,,,,,,,,,,,,,,,,,,,,,,,,,,,,,,,,,,,,,,,,,,
1649886598.245920,28.000000,0.000000,4276.922852,4230.256348,4157.436035,4218.461426,4244.615234,0.000000,4.000000,91.000000,,,,0.000000,4.000000,4.000000,4.000000,1.000000,4.000000,75.000000,,,,,,,,,,,,,,,,,,,,,,,,,,,,,,,,,,,,,,,,,,,,,,,,,,,,,,,,,,,,,,,
1649886598.253734,29.000000,0.000000,4252.307617,4216.410156,4143.589844,4216.410156,4221.025879,0.000000,4.000000,91.000000,,,,0.000000,4.000000,4.000000,4.000000,1.000000,4.000000,75.000000,,,,,,,,,,,,,,,,,,,,,,,,,,,,,,,,,,,,,,,,,,,,,,,,,,,,,,,,,,,,,,,
1649886598.261449,30.000000,0.000000,4247.179688,4207.692383,4140.000000,4214.358887,4213.333496,0.000000,4.000000,91.000000,,,,0.000000,4.000000,4.000000,4.000000,1.000000,4.000000,75.000000,,,,,,,,,,,,,,,,,,,,,,,,,,,,,,,,,,,,,,,,,,,,,,,,,,,,,,,,,,,,,,,
1649886598.269263,31.000000,0.000000,4271.282227,4223.589844,4157.948730,4216.922852,4226.153809,0.000000,4.000000,91.000000,,,,0.000000,4.000000,4.000000,4.000000,1.000000,4.000000,75.000000,,,,,,,,,,,,,,,,,,,,,,,,,,,,,,,,,,,,,,,,,,,,,,,,,,,,,,,,,,,,,,,
1649886598.276978,32.000000,0.000000,4295.897461,4245.128418,4185.128418,4225.641113,4247.179688,0.000000,4.000000,91.000000,,,,0.000000,4.000000,4.000000,4.000000,1.000000,4.000000,75.000000,,,,,,,,,,,,,,,,,,,,,,,,,,,,,,,,,,,,,,,,,,,,,,,,,,,,,,,,,,,,,,,
1649886598.284792,33.000000,0.000000,4296.922852,4242.563965,4189.230957,4226.153809,4260.512695,0.000000,4.000000,91.000000,,,,0.000000,4.000000,4.000000,4.000000,1.000000,4.000000,75.000000,1.000000,66.666664,4.000000,4.000000,4.000000,0.000000,4.000000,,,,,,,,,,,,,,,,,,,,,,,,,,,,,,,,3.566305,6.058483,2.264143,1.363987,1.986508,1.499244,2.491935,0.776483,0.443025,0.962756,3.427171,5.326634,1.777728,0.686315,0.894511,0.162351,0.560621,0.130261,0.104040,0.116787,2.676444,6.763069,1.767512,1.136013,1.912515
1649886598.292507,34.000000,0.000000,4273.846191,4225.128418,4168.205078,4214.358887,4248.205078,0.000000,4.000000,91.000000,,,,0.000000,4.000000,4.000000,4.000000,1.000000,4.000000,75.000000,,,,,,,,,,,,,,,,,,,,,,,,,,,,,,,,,,,,,,,,,,,,,,,,,,,,,,,,,,,,,,,
1649886598.300321,35.000000,0.000000,4262.563965,4226.666504,4164.615234,4211.794922,4235.897461,0.000000,4.000000,91.000000,,,,0.000000,4.000000,4.000000,4.000000,1.000000,4.000000,75.000000,,,,,,,,,,,,,,,,,,,,,,,,,,,,,,,,,,,,,,,,,,,,,,,,,,,,,,,,,,,,,,,
1649886598.308035,36.000000,0.000000,4263.589844,4229.743652,4172.307617,4217.436035,4240.512695,0.000000,4.000000,91.000000,,,,0.000000,4.000000,4.000000,4.000000,1.000000,4.000000,75.000000,,,,,,,,,,,,,,,,,,,,,,,,,,,,,,,,,,,,,,,,,,,,,,,,,,,,,,,,,,,,,,,
1649886598.315850,37.000000,0.000000,4255.384766,4218.461426,4167.692383,4216.922852,4236.410156,0.000000,4.000000,91.000000,,,,0.000000,4.000000,4.000000,4.000000,1.000000,4.000000,75.000000,,,,,,,,,,,,,,,,,,,,,,,,,,,,,,,,,,,,,,,,,,,,,,,,,,,,,,,,,,,,,,,
1649886598.323564,38.000000,0.000000,4257.948730,4218.974121,4166.666504,4213.846191,4228.717773,0.000000,4.000000,91.000000,,,,0.000000,4.000000,4.000000,4.000000,1.000000,4.000000,75.000000,,,,,,,,,,,,,,,,,,,,,,,,,,,,,,,,,,,,,,,,,,,,,,,,,,,,,,,,,,,,,,,
1649886598.331379,39.000000,0.000000,4274.358887,4236.410156,4176.922852,4216.410156,4227.692383,0.000000,4.000000,91.000000,,,,0.000000,4.000000,4.000000,4.000000,1.000000,4.000000,75.000000,,,,,,,,,,,,,,,,,,,,,,,,,,,,,,,,,,,,,,,,,,,,,,,,,,,,,,,,,,,,,,,
1649886598.339093,40.000000,0.000000,4276.922852,4246.666504,4186.666504,4221.538574,4236.922852,0.000000,4.000000,91.000000,,,,0.000000,4.000000,4.000000,4.000000,1.000000,4.000000,75.000000,,,,,,,,,,,,,,,,,,,,,,,,,,,,,,,,,,,,,,,,,,,,,,,,,,,,,,,,,,,,,,,
1649886598.346808,41.000000,0.000000,4267.692383,4238.974121,4184.615234,4222.563965,4248.717773,0.000000,4.000000,91.000000,,,,0.000000,4.000000,4.000000,4.000000,1.000000,4.000000,75.000000,,,,,,,,,,,,,,,,,,,,,,,,,,,,,,,,,,,,,,,,,,,,,,,,,,,,,,,,,,,,,,,
1649886598.354622,42.000000,0.000000,4270.256348,4233.333496,4178.461426,4218.974121,4245.128418,0.000000,4.000000,91.000000,,,,0.000000,4.000000,4.000000,4.000000,1.000000,4.000000,75.000000,,,,,,,,,,,,,,,,,,,,,,,,,,,,,,,,,,,,,,,,,,,,,,,,,,,,,,,,,,,,,,,
1649886598.362337,43.000000,0.000000,4274.871582,4243.077148,4177.948730,4220.000000,4234.358887,0.000000,4.000000,91.000000,,,,0.000000,4.000000,4.000000,4.000000,1.000000,4.000000,75.000000,,,,,,,,,,,,,,,,,,,,,,,,,,,,,,,,,,,,,,,,,,,,,,,,,,,,,,,,,,,,,,,
1649886598.370151,44.000000,0.000000,4262.051270,4240.512695,4172.820313,4221.025879,4227.179688,0.000000,4.000000,91.000000,,,,0.000000,4.000000,4.000000,4.000000,1.000000,4.000000,75.000000,,,,,,,,,,,,,,,,,,,,,,,,,,,,,,,,,,,,,,,,,,,,,,,,,,,,,,,,,,,,,,,
1649886598.377866,45.000000,0.000000,4244.102539,4223.077148,4166.666504,4216.410156,4218.461426,0.000000,4.000000,91.000000,,,,0.000000,4.000000,4.000000,4.000000,1.000000,4.000000,75.000000,,,,,,,,,,,,,,,,,,,,,,,,,,,,,,,,,,,,,,,,,,,,,,,,,,,,,,,,,,,,,,,
1649886598.385680,46.000000,0.000000,4245.641113,4227.692383,4173.846191,4216.410156,4214.871582,0.000000,4.000000,91.000000,,,,0.000000,4.000000,4.000000,4.000000,1.000000,4.000000,75.000000,,,,,,,,,,,,,,,,,,,,,,,,,,,,,,,,,,,,,,,,,,,,,,,,,,,,,,,,,,,,,,,
1649886598.393395,47.000000,0.000000,4260.512695,4246.153809,4178.974121,4220.512695,4217.436035,0.000000,4.000000,91.000000,,,,0.000000,4.000000,4.000000,4.000000,1.000000,4.000000,75.000000,,,,,,,,,,,,,,,,,,,,,,,,,,,,,,,,,,,,,,,,,,,,,,,,,,,,,,,,,,,,,,,
1649886598.401209,48.000000,0.000000,4248.717773,4235.384766,4162.051270,4212.820313,4199.487305,0.000000,4.000000,91.000000,,,,0.000000,4.000000,4.000000,4.000000,1.000000,4.000000,75.000000,,,,,,,,,,,,,,,,,,,,,,,,,,,,,,,,,,,,,,,,,,,,,,,,,,,,,,,,,,,,,,,
1649886598.408923,49.000000,0.000000,4222.563965,4215.384766,4145.128418,4204.615234,4180.000000,0.000000,4.000000,91.000000,,,,0.000000,4.000000,4.000000,4.000000,1.000000,4.000000,75.000000,,,,,,,,,,,,,,,,,,,,,,,,,,,,,,,,,,,,,,,4.395563,5.226998,2.566301,1.403126,1.852748,1.556524,1.950600,0.734458,0.382444,0.783761,3.553414,5.133576,1.713715,0.578805,0.893730,0.168892,0.480665,0.142811,0.101126,0.108522,3.135663,5.970870,1.865381,1.134592,1.866058
1649886598.416738,50.000000,0.000000,4222.051270,4215.897461,4150.256348,4210.769043,4192.820313,0.000000,4.000000,91.000000,,,,0.000000,4.000000,4.000000,4.000000,1.000000,4.000000,75.000000,,,,,,,,,,,,,,,,,,,,,,,,,,,,,,,,,,,,,,,,,,,,,,,,,,,,,,,,,,,,,,,
1649886598.424452,51.000000,0.000000,4236.410156,4222.051270,4170.256348,4217.436035,4210.769043,0.000000,4.000000,91.000000,,,,0.000000,4.000000,4.000000,4.000000,1.000000,4.000000,75.000000,,,,,,,,,,,,,,,,,,,,,,,,,,,,,,,,,,,,,,,,,,,,,,,,,,,,,,,,,,,,,,,
1649886598.432267,52.000000,0.000000,4247.692383,4224.102539,4184.102539,4215.897461,4212.307617,0.000000,4.000000,91.000000,,,,0.000000,4.000000,4.000000,4.000000,1.000000,4.000000,75.000000,,,,,,,,,,,,,,,,,,,,,,,,,,,,,,,,,,,,,,,,,,,,,,,,,,,,,,,,,,,,,,,
1649886598.439981,53.000000,0.000000,4260.000000,4232.820313,4183.589844,4216.922852,4215.897461,0.000000,4.000000,91.000000,,,,0.000000,4.000000,4.000000,4.000000,1.000000,4.000000,75.000000,,,,,,,,,,,,,,,,,,,,,,,,,,,,,,,,,,,,,,,,,,,,,,,,,,,,,,,,,,,,,,,
1649886598.447796,54.000000,0.000000,4271.282227,4241.538574,4184.615234,4220.512695,4223.589844,0.000000,4.000000,91.000000,,,,0.000000,4.000000,4.000000,4.000000,1.000000,4.000000,75.000000,,,,,,,,,,,,,,,,,,,,,,,,,,,,,,,,,,,,,,,,,,,,,,,,,,,,,,,,,,,,,,,
1649886598.455510,55.000000,0.000000,4277.436035,4243.077148,4193.846191,4222.051270,4227.692383,0.000000,4.000000,91.000000,,,,0.000000,4.000000,4.000000,4.000000,1.000000,4.000000,75.000000,,,,,,,,,,,,,,,,,,,,,,,,,,,,,,,,,,,,,,,,,,,,,,,,,,,,,,,,,,,,,,,
1649886598.463325,56.000000,0.000000,4271.794922,4242.051270,4188.205078,4222.051270,4229.743652,0.000000,4.000000,91.000000,,,,0.000000,4.000000,4.000000,4.000000,1.000000,4.000000,75.000000,,,,,,,,,,,,,,,,,,,,,,,,,,,,,,,,,,,,,,,,,,,,,,,,,,,,,,,,,,,,,,,
1649886598.471039,57.000000,0.000000,4263.077148,4240.512695,4169.743652,4217.948730,4230.256348,0.000000,4.000000,91.000000,,,,0.000000,4.000000,4.000000,4.000000,1.000000,4.000000,75.000000,,,,,,,,,,,,,,,,,,,,,,,,,,,,,,,,,,,,,,,,,,,,,,,,,,,,,,,,,,,,,,,
1649886598.478854,58.000000,0.000000,4274.358887,4244.102539,4165.128418,4217.948730,4234.358887,0.000000,4.000000,91.000000,,,,0.000000,4.000000,4.000000,4.000000,1.000000,4.000000,75.000000,,,,,,,,,,,,,,,,,,,,,,,,,,,,,,,,,,,,,,,,,,,,,,,,,,,,,,,,,,,,,,,
1649886598.486568,59.000000,0.000000,4282.051270,4248.205078,4174.358887,4221.538574,4240.000000,0.000000,4.000000,91.000000,,,,0.000000,4.000000,4.000000,4.000000,1.000000,4.000000,75.000000,,,,,,,,,,,,,,,,,,,,,,,,,,,,,,,,,,,,,,,,,,,,,,,,,,,,,,,,,,,,,,,
1649886598.494382,60.000000,0.000000,4255.384766,4235.384766,4170.256348,4218.461426,4227.692383,0.000000,4.000000,91.000000,,,,0.000000,4.000000,4.000000,4.000000,1.000000,4.000000,75.000000,,,,,,,,,,,,,,,,,,,,,,,,,,,,,,,,,,,,,,,,,,,,,,,,,,,,,,,,,,,,,,,
1649886598.502097,61.000000,0.000000,4234.358887,4218.974121,4154.871582,4212.820313,4206.153809,0.000000,4.000000,91.000000,,,,0.000000,4.000000,4.000000,4.000000,1.000000,4.000000,75.000000,,,,,,,,,,,,,,,,,,,,,,,,,,,,,,,,,,,,,,,,,,,,,,,,,,,,,,,,,,,,,,,
1649886598.509811,62.000000,0.000000,4258.974121,4232.307617,4162.563965,4215.897461,4215.897461,0.000000,4.000000,91.000000,,,,0.000000,4.000000,4.000000,4.000000,1.000000,4.000000,75.000000,,,,,,,,,,,,,,,,,,,,,,,,,,,,,,,,,,,,,,,,,,,,,,,,,,,,,,,,,,,,,,,
1649886598.517626,63.000000,0.000000,4281.025879,4254.871582,4187.179688,4222.563965,4238.461426,0.000000,4.000000,91.000000,,,,0.000000,4.000000,4.000000,4.000000,1.000000,4.000000,75.000000,,,,,,,,,,,,,,,,,,,,,,,,,,,,,,,,,,,,,,,,,,,,,,,,,,,,,,,,,,,,,,,
1649886598.525340,64.000000,0.000000,4249.230957,4237.948730,4178.974121,4217.436035,4214.871582,450.000000,4.000000,91.000000,,,,0.000000,4.000000,4.000000,4.000000,1.000000,4.000000,75.000000,,,,,,,,,,,,,,,,,,,,,,,,,,,,,,,,,,,,,,,,,,,,,,,,,,,,,,,,,,,,,,,
1649886598.533155,65.000000,0.000000,4224.615234,4217.948730,4154.871582,4210.769043,4181.025879,450.000000,4.000000,91.000000,,,,0.000000,4.000000,4.000000,4.000000,1.000000,4.000000,75.000000,,,,,,,,,,,,,,,,,,,,,,,,,,,,,,,,,,,,,,,4.775757,4.620382,2.770329,1.553200,1.713913,1.426023,1.404993,0.709100,0.410545,0.680872,3.384829,4.816066,1.657451,0.585105,0.915235,0.165100,0.402471,0.148682,0.102413,0.099765,3.399967,5.538605,1.991764,1.270603,1.817322
1649886598.540869,66.000000,0.000000,4258.974121,4236.410156,4166.666504,4214.871582,4206.666504,16209.000000,4.000000,91.000000,,,,0.000000,4.000000,4.000000,4.000000,1.000000,4.000000,75.000000,,,,,,,,,,,,,,,,,,,,,,,,,,,,,,,,,,,,,,,,,,,,,,,,,,,,,,,,,,,,,,,
1649886598.548684,67.000000,0.000000,4292.307617,4258.461426,4192.307617,4223.589844,4249.743652,450.000000,4.000000,91.000000,,,,0.000000,4.000000,4.000000,4.000000,1.000000,4.000000,75.000000,,,,,,,,,,,,,,,,,,,,,,,,,,,,,,,,,,,,,,,,,,,,,,,,,,,,,,,,,,,,,,,
1649886598.556398,68.000000,0.000000,4295.897461,4260.512695,4198.461426,4227.692383,4251.794922,16209.000000,4.000000,91.000000,,,,0.000000,4.000000,4.000000,4.000000,1.000000,4.000000,75.000000,,,,,,,,,,,,,,,,,,,,,,,,,,,,,,,,,,,,,,,,,,,,,,,,,,,,,,,,,,,,,,,
1649886598.564213,69.000000,0.000000,4296.410156,4263.589844,4204.615234,4228.717773,4245.641113,450.000000,4.000000,91.000000,,,,0.000000,4.000000,4.000000,4.000000,1.000000,4.000000,75.000000,,,,,,,,,,,,,,,,,,,,,,,,,,,,,,,,,,,,,,,,,,,,,,,,,,,,,,,,,,,,,,,
1649886598.571927,70.000000,0.000000,4296.922852,4272.820313,4216.410156,4230.769043,4251.794922,16166.000000,4.000000,91.000000,,,,0.000000,4.000000,4.000000,4.000000,1.000000,4.000000,75.000000,,,,,,,,,,,,,,,,,,,,,,,,,,,,,,,,,,,,,,,,,,,,,,,,,,,,,,,,,,,,,,,
1649886598.579742,71.000000,0.000000,4283.077148,4271.794922,4204.102539,4227.692383,4242.051270,450.000000,4.000000,91.000000,,,,0.000000,4.000000,4.000000,4.000000,1.000000,4.000000,75.000000,,,,,,,,,,,,,,,,,,,,,,,,,,,,,,,,,,,,,,,,,,,,,,,,,,,,,,,,,,,,,,,
1649886598.587456,72.000000,0.000000,4271.794922,4252.820313,4179.487305,4221.538574,4227.179688,450.000000,4.000000,91.000000,,,,0.000000,4.000000,4.000000,4.000000,1.000000,4.000000,75.000000,,,,,,,,,,,,,,,,,,,,,,,,,,,,,,,,,,,,,,,,,,,,,,,,,,,,,,,,,,,,,,,
1649886598.595270,73.000000,0.000000,4281.025879,4246.666504,4182.563965,4222.563965,4240.000000,56.000000,4.000000,91.000000,,,,0.000000,4.000000,4.000000,4.000000,1.000000,4.000000,75.000000,,,,,,,,,,,,,,,,,,,,,,,,,,,,,,,,,,,,,,,,,,,,,,,,,,,,,,,,,,,,,,,
1649886598.603085,74.000000,0.000000,4290.769043,4262.051270,4191.282227,4228.205078,4257.436035,450.000000,4.000000,91.000000,,,,0.000000,4.000000,4.000000,4.000000,1.000000,4.000000,75.000000,,,,,,,,,,,,,,,,,,,,,,,,,,,,,,,,,,,,,,,,,,,,,,,,,,,,,,,,,,,,,,,
1649886598.610799,75.000000,0.000000,4295.384766,4273.846191,4187.692383,4232.307617,4260.512695,16199.000000,4.000000,91.000000,,,,0.000000,4.000000,4.000000,4.000000,1.000000,4.000000,75.000000,,,,,,,,,,,,,,,,,,,,,,,,,,,,,,,,,,,,,,,,,,,,,,,,,,,,,,,,,,,,,,,
1649886598.618614,76.000000,0.000000,4297.948730,4269.230957,4189.743652,4228.205078,4261.025879,450.000000,4.000000,91.000000,,,,0.000000,4.000000,4.000000,4.000000,1.000000,4.000000,75.000000,,,,,,,,,,,,,,,,,,,,,,,,,,,,,,,,,,,,,,,,,,,,,,,,,,,,,,,,,,,,,,,
1649886598.626328,77.000000,0.000000,4293.846191,4263.077148,4190.256348,4223.077148,4251.794922,450.000000,4.000000,91.000000,,,,0.000000,4.000000,4.000000,4.000000,1.000000,4.000000,75.000000,,,,,,,,,,,,,,,,,,,,,,,,,,,,,,,,,,,,,,,,,,,,,,,,,,,,,,,,,,,,,,,
1649886598.634043,78.000000,0.000000,4286.666504,4266.666504,4173.846191,4222.563965,4244.615234,450.000000,4.000000,91.000000,,,,0.000000,4.000000,4.000000,4.000000,1.000000,4.000000,75.000000,,,,,,,,,,,,,,,,,,,,,,,,,,,,,,,,,,,,,,,,,,,,,,,,,,,,,,,,,,,,,,,
1649886598.641857,79.000000,0.000000,4290.256348,4270.256348,4167.179688,4222.563965,4258.461426,16199.000000,4.000000,91.000000,,,,0.000000,4.000000,4.000000,4.000000,1.000000,4.000000,75.000000,,,,,,,,,,,,,,,,,,,,,,,,,,,,,,,,,,,,,,,,,,,,,,,,,,,,,,,,,,,,,,,
1649886598.649572,80.000000,0.000000,4287.179688,4266.666504,4174.871582,4224.102539,4258.461426,450.000000,4.000000,91.000000,,,,0.000000,4.000000,4.000000,4.000000,1.000000,4.000000,75.000000,,,,,,,,,,,,,,,,,,,,,,,,,,,,,,,,,,,,,,,,,,,,,,,,,,,,,,,,,,,,,,,
1649886598.657286,81.000000,0.000000,4271.282227,4258.974121,4170.256348,4223.589844,4238.461426,450.000000,4.000000,91.000000,,,,0.000000,4.000000,4.000000,4.000000,1.000000,4.000000,75.000000,,,,,,,,,,,,,,,,,,,,,,,,,,,,,,,,,,,,,,,4.642474,4.420198,2.740350,1.772924,1.597701,1.177100,1.020702,0.698398,0.512854,0.659128,2.990469,4.469196,1.566302,0.674719,0.948384,0.152464,0.342703,0.142195,0.107543,0.093469,3.492206,5.594757,2.033574,1.460729,1.781343
1649886598.665101,82.000000,0.000000,4284.615234,4262.051270,4174.871582,4222.563965,4248.717773,450.000000,4.000000,91.000000,,,,0.000000,4.000000,4.000000,4.000000,1.000000,4.000000,75.000000,,,,,,,,,,,,,,,,,,,,,,,,,,,,,,,,,,,,,,,,,,,,,,,,,,,,,,,,,,,,,,,
1649886598.672815,83.000000,0.000000,4311.282227,4276.410156,4197.948730,4225.641113,4277.436035,16199.000000,4.000000,91.000000,,,,0.000000,4.000000,4.000000,4.000000,1.000000,4.000000,75.000000,,,,,,,,,,,,,,,,,,,,,,,,,,,,,,,,,,,,,,,,,,,,,,,,,,,,,,,,,,,,,,,
1649886598.680630,84.000000,0.000000,4321.025879,4288.205078,4215.384766,4233.333496,4285.128418,450.000000,4.000000,91.000000,,,,0.000000,4.000000,4.000000,4.000000,1.000000,4.000000,75.000000,,,,,,,,,,,,,,,,,,,,,,,,,,,,,,,,,,,,,,,,,,,,,,,,,,,,,,,,,,,,,,,
1649886598.688344,85.000000,0.000000,4305.641113,4285.128418,4205.128418,4232.307617,4269.230957,450.000000,4.000000,91.000000,,,,0.000000,4.000000,4.000000,4.000000,1.000000,4.000000,75.000000,,,,,,,,,,,,,,,,,,,,,,,,,,,,,,,,,,,,,,,,,,,,,,,,,,,,,,,,,,,,,,,
1649886598.696158,86.000000,0.000000,4271.282227,4258.461426,4174.871582,4220.512695,4236.922852,450.000000,4.000000,91.000000,,,,0.000000,4.000000,4.000000,4.000000,1.000000,4.000000,75.000000,,,,,,,,,,,,,,,,,,,,,,,,,,,,,,,,,,,,,,,,,,,,,,,,,,,,,,,,,,,,,,,
1649886598.703873,87.000000,0.000000,4267.179688,4253.333496,4177.948730,4218.461426,4230.769043,16199.000000,4.000000,91.000000,,,,0.000000,4.000000,4.000000,4.000000,1.000000,4.000000,75.000000,,,,,,,,,,,,,,,,,,,,,,,,,,,,,,,,,,,,,,,,,,,,,,,,,,,,,,,,,,,,,,,
1649886598.711687,88.000000,0.000000,4297.948730,4278.974121,4208.205078,4227.692383,4258.974121,450.000000,4.000000,91.000000,,,,0.000000,4.000000,4.000000,4.000000,1.000000,4.000000,75.000000,,,,,,,,,,,,,,,,,,,,,,,,,,,,,,,,,,,,,,,,,,,,,,,,,,,,,,,,,,,,,,,
1649886598.719502,89.000000,0.000000,4306.666504,4280.512695,4203.589844,4228.717773,4262.051270,450.000000,4.000000,91.000000,,,,0.000000,4.000000,4.000000,4.000000,1.000000,4.000000,75.000000,,,,,,,,,,,,,,,,,,,,,,,,,,,,,,,,,,,,,,,,,,,,,,,,,,,,,,,,,,,,,,,
1649886598.727216,90.000000,0.000000,4282.563965,4260.000000,4173.846191,4223.077148,4234.871582,450.000000,4.000000,91.000000,,,,0.000000,4.000000,4.000000,4.000000,1.000000,4.000000,75.000000,,,,,,,,,,,,,,,,,,,,,,,,,,,,,,,,,,,,,,,,,,,,,,,,,,,,,,,,,,,,,,,
1649886598.734931,91.000000,0.000000,4275.897461,4256.922852,4173.846191,4222.563965,4232.307617,16199.000000,4.000000,91.000000,,,,0.000000,4.000000,4.000000,4.000000,1.000000,4.000000,75.000000,,,,,,,,,,,,,,,,,,,,,,,,,,,,,,,,,,,,,,,,,,,,,,,,,,,,,,,,,,,,,,,
1649886598.742745,92.000000,0.000000,4285.128418,4264.102539,4183.589844,4223.589844,4241.538574,450.000000,4.000000,91.000000,,,,0.000000,4.000000,4.000000,4.000000,1.000000,4.000000,75.000000,,,,,,,,,,,,,,,,,,,,,,,,,,,,,,,,,,,,,,,,,,,,,,,,,,,,,,,,,,,,,,,
1649886598.750460,93.000000,0.000000,4288.205078,4259.487305,4177.948730,4225.128418,4239.487305,450.000000,4.000000,91.000000,,,,0.000000,4.000000,4.000000,4.000000,1.000000,4.000000,75.000000,,,,,,,,,,,,,,,,,,,,,,,,,,,,,,,,,,,,,,,,,,,,,,,,,,,,,,,,,,,,,,,
1649886598.758274,94.000000,0.000000,4290.256348,4244.615234,4178.461426,4228.205078,4249.743652,450.000000,4.000000,91.000000,,,,0.000000,4.000000,4.000000,4.000000,1.000000,4.000000,75.000000,,,,,,,,,,,,,,,,,,,,,,,,,,,,,,,,,,,,,,,,,,,,,,,,,,,,,,,,,,,,,,,
1649886598.765989,95.000000,0.000000,4290.769043,4245.128418,4183.077148,4225.641113,4259.487305,16199.000000,4.000000,91.000000,,,,0.000000,4.000000,4.000000,4.000000,1.000000,4.000000,75.000000,,,,,,,,,,,,,,,,,,,,,,,,,,,,,,,,,,,,,,,,,,,,,,,,,,,,,,,,,,,,,,,
1649886598.773803,96.000000,0.000000,4296.410156,4269.743652,4182.051270,4224.102539,4250.256348,450.000000,4.000000,91.000000,,,,0.000000,4.000000,4.000000,4.000000,1.000000,4.000000,75.000000,,,,,,,,,,,,,,,,,,,,,,,,,,,,,,,,,,,,,,,,,,,,,,,,,,,,,,,,,,,,,,,
1649886598.781518,97.000000,0.000000,4305.641113,4283.077148,4186.666504,4229.743652,4253.333496,450.000000,4.000000,91.000000,,,,0.000000,4.000000,4.000000,4.000000,1.000000,4.000000,75.000000,1.000000,66.666664,4.000000,4.000000,4.000000,0.000000,4.000000,,,,,,,,,,,,,,,,,,,,,,,,,,,,,,,,4.100672,4.664602,2.436664,2.023933,1.520804,0.905428,0.893796,0.684180,0.661899,0.694282,2.536521,4.158082,1.384979,0.815307,0.975334,0.136472,0.310658,0.124036,0.116148,0.091570,3.517737,6.066110,1.938265,1.630320,1.758437
1649886598.789332,98.000000,0.000000,4311.794922,4273.846191,4195.897461,4232.307617,4268.205078,450.000000,4.000000,91.000000,,,,0.000000,4.000000,4.000000,4.000000,1.000000,4.000000,75.000000,,,,,,,,,,,,,,,,,,,,,,,,,,,,,,,,,,,,,,,,,,,,,,,,,,,,,,,,,,,,,,,
1649886598.797046,99.000000,0.000000,4294.871582,4263.589844,4186.666504,4227.179688,4246.153809,16199.000000,4.000000,91.000000,,,,0.000000,4.000000,4.000000,4.000000,1.000000,4.000000,75.000000,,,,,,,,,,,,,,,,,,,,,,,,,,,,,,,,,,,,,,,,,,,,,,,,,,,,,,,,,,,,,,,
1649886598.804861,100.000000,0.000000,4261.538574,4254.358887,4173.846191,4222.051270,4216.410156,450.000000,4.000000,91.000000,,,,0.000000,4.000000,4.000000,4.000000,1.000000,4.000000,75.000000,,,,,,,,,,,,,,,,,,,,,,,,,,,,,,,,,,,,,,,,,,,,,,,,,,,,,,,,,,,,,,,
1649886598.812575,101.000000,0.000000,4268.717773,4255.897461,4191.794922,4225.641113,4235.384766,450.000000,4.000000,91.000000,,,,0.000000,4.000000,4.000000,4.000000,1.000000,4.000000,75.000000,,,,,,,,,,,,,,,,,,,,,,,,,,,,,,,,,,,,,,,,,,,,,,,,,,,,,,,,,,,,,,,
1649886598.820290,102.000000,0.000000,4300.512695,4264.615234,4208.717773,4232.820313,4260.000000,450.000000,4.000000,91.000000,,,,0.000000,4.000000,4.000000,4.000000,1.000000,4.000000,75.000000,,,,,,,,,,,,,,,,,,,,,,,,,,,,,,,,,,,,,,,,,,,,,,,,,,,,,,,,,,,,,,,
1649886598.828104,103.000000,0.000000,4298.461426,4258.974121,4204.102539,4230.769043,4254.358887,16199.000000,4.000000,91.000000,,,,0.000000,4.000000,4.000000,4.000000,1.000000,4.000000,75.000000,,,,,,,,,,,,,,,,,,,,,,,,,,,,,,,,,,,,,,,,,,,,,,,,,,,,,,,,,,,,,,,
1649886598.835819,104.000000,0.000000,4284.615234,4257.948730,4201.025879,4225.641113,4255.384766,450.000000,4.000000,91.000000,,,,0.000000,4.000000,4.000000,4.000000,1.000000,4.000000,75.000000,,,,,,,,,,,,,,,,,,,,,,,,,,,,,,,,,,,,,,,,,,,,,,,,,,,,,,,,,,,,,,,
1649886598.843633,105.000000,0.000000,4286.666504,4270.256348,4194.358887,4225.128418,4258.461426,450.000000,4.000000,91.000000,,,,0.000000,4.000000,4.000000,4.000000,1.000000,4.000000,75.000000,,,,,,,,,,,,,,,,,,,,,,,,,,,,,,,,,,,,,,,,,,,,,,,,,,,,,,,,,,,,,,,
1649886598.851448,106.000000,0.000000,4285.128418,4266.666504,4177.948730,4223.077148,4244.102539,450.000000,4.000000,91.000000,,,,0.000000,4.000000,4.000000,4.000000,1.000000,4.000000,75.000000,,,,,,,,,,,,,,,,,,,,,,,,,,,,,,,,,,,,,,,,,,,,,,,,,,,,,,,,,,,,,,,
