title:david_g_Right, start timestamp:1656266110.563777, stop timestamp:1656266115.565752, headset type:INSIGHT, headset serial:A2D201AE, headset firmware:932, channels:84, sampling rate:eeg_128;pm_0.1;pow_8, samples:639       , version:2.1, 
Timestamp,EEG.Counter,EEG.Interpolated,EEG.AF3,EEG.T7,EEG.Pz,EEG.T8,EEG.AF4,EEG.RawCq,EEG.Battery,EEG.BatteryPercent,MarkerIndex,MarkerType,MarkerValueInt,EEG.MarkerHardware,CQ.AF3,CQ.T7,CQ.Pz,CQ.T8,CQ.AF4,CQ.Overall,EQ.SampleRateQuality,EQ.OVERALL,EQ.AF3,EQ.T7,EQ.Pz,EQ.T8,EQ.AF4,PM.Engagement.IsActive,PM.Engagement.Scaled,PM.Engagement.Raw,PM.Engagement.Min,PM.Engagement.Max,PM.Excitement.IsActive,PM.Excitement.Scaled,PM.Excitement.Raw,PM.Excitement.Min,PM.Excitement.Max,PM.LongTermExcitement,PM.Stress.IsActive,PM.Stress.Scaled,PM.Stress.Raw,PM.Stress.Min,PM.Stress.Max,PM.Relaxation.IsActive,PM.Relaxation.Scaled,PM.Relaxation.Raw,PM.Relaxation.Min,PM.Relaxation.Max,PM.Interest.IsActive,PM.Interest.Scaled,PM.Interest.Raw,PM.Interest.Min,PM.Interest.Max,PM.Focus.IsActive,PM.Focus.Scaled,PM.Focus.Raw,PM.Focus.Min,PM.Focus.Max,POW.AF3.Theta,POW.AF3.Alpha,POW.AF3.BetaL,POW.AF3.BetaH,POW.AF3.Gamma,POW.T7.Theta,POW.T7.Alpha,POW.T7.BetaL,POW.T7.BetaH,POW.T7.Gamma,POW.Pz.Theta,POW.Pz.Alpha,POW.Pz.BetaL,POW.Pz.BetaH,POW.Pz.Gamma,POW.T8.Theta,POW.T8.Alpha,POW.T8.BetaL,POW.T8.BetaH,POW.T8.Gamma,POW.AF4.Theta,POW.AF4.Alpha,POW.AF4.BetaL,POW.AF4.BetaH,POW.AF4.Gamma
1656266110.563777,104.000000,0.000000,4241.025879,4184.102539,4067.692383,4038.974365,4190.769043,450.000000,4.000000,91.000000,,,,0.000000,4.000000,4.000000,4.000000,4.000000,4.000000,100.000000,,,,,,,,,,,,,,,,,,,,,,,,,,,,,,,,,,,,,,,,,,,,,,,,,,,,,,,,,,,,,,,
1656266110.571491,105.000000,0.000000,4242.051270,4204.102539,4054.871826,4035.384521,4191.794922,450.000000,4.000000,91.000000,,,,0.000000,4.000000,4.000000,4.000000,4.000000,4.000000,100.000000,,,,,,,,,,,,,,,,,,,,,,,,,,,,,,,,,,,,,,,,,,,,,,,,,,,,,,,,,,,,,,,
1656266110.579305,106.000000,0.000000,4221.538574,4204.102539,4048.718018,4026.153809,4178.461426,450.000000,4.000000,91.000000,,,,0.000000,4.000000,4.000000,4.000000,4.000000,4.000000,100.000000,,,,,,,,,,,,,,,,,,,,,,,,,,,,,,,,,,,,,,,,,,,,,,,,,,,,,,,,,,,,,,,
1656266110.587020,107.000000,0.000000,4213.333496,4195.897461,4061.025635,4030.769287,4169.743652,16206.000000,4.000000,91.000000,,,,0.000000,4.000000,4.000000,4.000000,4.000000,4.000000,100.000000,,,,,,,,,,,,,,,,,,,,,,,,,,,,,,,,,,,,,,,,,,,,,,,,,,,,,,,,,,,,,,,
1656266110.594834,108.000000,0.000000,4225.641113,4204.615234,4072.307617,4057.948730,4181.538574,450.000000,4.000000,91.000000,,,,0.000000,4.000000,4.000000,4.000000,4.000000,4.000000,100.000000,,,,,,,,,,,,,,,,,,,,,,,,,,,,,,,,,,,,,,,,,,,,,,,,,,,,,,,,,,,,,,,
1656266110.602549,109.000000,0.000000,4231.794922,4210.769043,4073.846191,4069.230713,4186.666504,450.000000,4.000000,91.000000,,,,0.000000,4.000000,4.000000,4.000000,4.000000,4.000000,100.000000,,,,,,,,,,,,,,,,,,,,,,,,,,,,,,,,,,,,,,,,,,,,,,,,,,,,,,,,,,,,,,,
1656266110.610463,110.000000,0.000000,4239.487305,4206.153809,4075.897461,4067.179443,4188.717773,450.000000,4.000000,91.000000,,,,0.000000,4.000000,4.000000,4.000000,4.000000,4.000000,100.000000,,,,,,,,,,,,,,,,,,,,,,,,,,,,,,,,,,,,,,,,,,,,,,,,,,,,,,,,,,,,,,,
1656266110.618278,111.000000,0.000000,4252.820313,4217.948730,4078.974365,4074.871826,4213.846191,16206.000000,4.000000,91.000000,,,,0.000000,4.000000,4.000000,4.000000,4.000000,4.000000,100.000000,,,,,,,,,,,,,,,,,,,,,,,,,,,,,,,,,,,,,,,,,,,,,,,,,,,,,,,,,,,,,,,
1656266110.626192,112.000000,0.000000,4243.077148,4230.769043,4087.692383,4073.846191,4221.538574,450.000000,4.000000,91.000000,,,,0.000000,4.000000,4.000000,4.000000,4.000000,4.000000,100.000000,,,,,,,,,,,,,,,,,,,,,,,,,,,,,,,,,,,,,,,2.361149,1.677262,0.469516,0.920586,0.755733,1.117173,0.743299,1.151510,0.535608,0.847432,2.012646,1.698877,1.027381,0.989764,0.573914,2.594827,2.867056,1.369340,0.770141,0.805356,1.811349,0.926272,0.960549,1.123087,0.728960
1656266110.634006,113.000000,0.000000,4245.641113,4226.666504,4098.461426,4075.897461,4207.692383,450.000000,4.000000,91.000000,,,,0.000000,4.000000,4.000000,4.000000,4.000000,4.000000,100.000000,,,,,,,,,,,,,,,,,,,,,,,,,,,,,,,,,,,,,,,,,,,,,,,,,,,,,,,,,,,,,,,
1656266110.641821,114.000000,0.000000,4262.563965,4225.641113,4092.820557,4088.718018,4217.436035,450.000000,4.000000,91.000000,,,,0.000000,4.000000,4.000000,4.000000,4.000000,4.000000,100.000000,,,,,,,,,,,,,,,,,,,,,,,,,,,,,,,,,,,,,,,,,,,,,,,,,,,,,,,,,,,,,,,
1656266110.649535,115.000000,0.000000,4255.384766,4221.538574,4089.230713,4090.256348,4225.641113,16206.000000,4.000000,91.000000,,,,0.000000,4.000000,4.000000,4.000000,4.000000,4.000000,100.000000,,,,,,,,,,,,,,,,,,,,,,,,,,,,,,,,,,,,,,,,,,,,,,,,,,,,,,,,,,,,,,,
1656266110.657350,116.000000,0.000000,4256.410156,4207.692383,4097.436035,4087.179443,4209.230957,450.000000,4.000000,91.000000,,,,0.000000,4.000000,4.000000,4.000000,4.000000,4.000000,100.000000,,,,,,,,,,,,,,,,,,,,,,,,,,,,,,,,,,,,,,,,,,,,,,,,,,,,,,,,,,,,,,,
1656266110.665064,117.000000,0.000000,4271.794922,4209.743652,4097.948730,4081.025635,4195.897461,450.000000,4.000000,91.000000,,,,0.000000,4.000000,4.000000,4.000000,4.000000,4.000000,100.000000,,,,,,,,,,,,,,,,,,,,,,,,,,,,,,,,,,,,,,,,,,,,,,,,,,,,,,,,,,,,,,,
1656266110.672978,118.000000,0.000000,4264.102539,4222.563965,4096.922852,4071.281982,4200.000000,450.000000,4.000000,91.000000,,,,0.000000,4.000000,4.000000,4.000000,4.000000,4.000000,100.000000,,,,,,,,,,,,,,,,,,,,,,,,,,,,,,,,,,,,,,,,,,,,,,,,,,,,,,,,,,,,,,,
1656266110.680793,119.000000,0.000000,4256.922852,4217.948730,4093.333252,4077.948730,4212.820313,16206.000000,4.000000,91.000000,,,,0.000000,4.000000,4.000000,4.000000,4.000000,4.000000,100.000000,,,,,,,,,,,,,,,,,,,,,,,,,,,,,,,,,,,,,,,,,,,,,,,,,,,,,,,,,,,,,,,
1656266110.688707,120.000000,0.000000,4269.743652,4220.512695,4077.948730,4088.205078,4227.179688,450.000000,4.000000,91.000000,,,,0.000000,4.000000,4.000000,4.000000,4.000000,4.000000,100.000000,,,,,,,,,,,,,,,,,,,,,,,,,,,,,,,,,,,,,,,,,,,,,,,,,,,,,,,,,,,,,,,
1656266110.696522,121.000000,0.000000,4274.871582,4244.615234,4069.743652,4082.564209,4233.846191,450.000000,4.000000,91.000000,,,,0.000000,4.000000,4.000000,4.000000,4.000000,4.000000,100.000000,,,,,,,,,,,,,,,,,,,,,,,,,,,,,,,,,,,,,,,,,,,,,,,,,,,,,,,,,,,,,,,
1656266110.704436,122.000000,0.000000,4269.743652,4249.743652,4073.333252,4069.230713,4228.205078,450.000000,4.000000,91.000000,,,,0.000000,4.000000,4.000000,4.000000,4.000000,4.000000,100.000000,,,,,,,,,,,,,,,,,,,,,,,,,,,,,,,,,,,,,,,,,,,,,,,,,,,,,,,,,,,,,,,
1656266110.712250,123.000000,0.000000,4268.717773,4230.769043,4079.487061,4060.512939,4222.563965,16206.000000,4.000000,91.000000,,,,0.000000,4.000000,4.000000,4.000000,4.000000,4.000000,100.000000,,,,,,,,,,,,,,,,,,,,,,,,,,,,,,,,,,,,,,,,,,,,,,,,,,,,,,,,,,,,,,,
1656266110.720165,124.000000,0.000000,4260.000000,4214.871582,4080.000000,4055.897461,4216.410156,450.000000,4.000000,91.000000,,,,0.000000,4.000000,4.000000,4.000000,4.000000,4.000000,100.000000,,,,,,,,,,,,,,,,,,,,,,,,,,,,,,,,,,,,,,,,,,,,,,,,,,,,,,,,,,,,,,,
1656266110.727979,125.000000,0.000000,4252.307617,4220.512695,4079.487061,4059.487061,4210.256348,450.000000,4.000000,91.000000,,,,0.000000,4.000000,4.000000,4.000000,4.000000,4.000000,100.000000,,,,,,,,,,,,,,,,,,,,,,,,,,,,,,,,,,,,,,,,,,,,,,,,,,,,,,,,,,,,,,,
1656266110.735893,126.000000,0.000000,4273.846191,4234.871582,4083.076904,4074.871826,4218.461426,450.000000,4.000000,91.000000,,,,0.000000,4.000000,4.000000,4.000000,4.000000,4.000000,100.000000,,,,,,,,,,,,,,,,,,,,,,,,,,,,,,,,,,,,,,,,,,,,,,,,,,,,,,,,,,,,,,,
1656266110.743708,127.000000,0.000000,4291.282227,4231.794922,4085.128174,4082.564209,4230.769043,242.000000,4.000000,91.000000,,,,0.000000,4.000000,4.000000,4.000000,4.000000,4.000000,100.000000,,,,,,,,,,,,,,,,,,,,,,,,,,,,,,,,,,,,,,,,,,,,,,,,,,,,,,,,,,,,,,,
1656266110.751622,0.000000,0.000000,4279.487305,4224.615234,4086.666748,4075.384521,4229.230957,450.000000,4.000000,91.000000,,,,0.000000,4.000000,4.000000,4.000000,4.000000,4.000000,100.000000,,,,,,,,,,,,,,,,,,,,,,,,,,,,,,,,,,,,,,,2.478498,1.631778,0.461877,0.983459,0.693913,1.022291,0.731761,1.048571,0.570586,0.795381,1.675964,1.673622,1.153508,0.969449,0.614105,3.091551,2.838586,1.322448,0.819920,0.737424,2.278978,1.056333,1.020026,1.121183,0.638288
1656266110.759536,1.000000,0.000000,4271.282227,4232.307617,4084.615479,4063.589844,4221.025879,450.000000,4.000000,91.000000,,,,0.000000,4.000000,4.000000,4.000000,4.000000,4.000000,100.000000,,,,,,,,,,,,,,,,,,,,,,,,,,,,,,,,,,,,,,,,,,,,,,,,,,,,,,,,,,,,,,,
1656266110.767351,2.000000,0.000000,4275.384766,4238.974121,4088.718018,4066.666748,4227.692383,16186.000000,4.000000,91.000000,,,,0.000000,4.000000,4.000000,4.000000,4.000000,4.000000,100.000000,,,,,,,,,,,,,,,,,,,,,,,,,,,,,,,,,,,,,,,,,,,,,,,,,,,,,,,,,,,,,,,
1656266110.775165,3.000000,0.000000,4272.820313,4235.897461,4091.794922,4085.641113,4238.461426,450.000000,4.000000,91.000000,,,,0.000000,4.000000,4.000000,4.000000,4.000000,4.000000,100.000000,,,,,,,,,,,,,,,,,,,,,,,,,,,,,,,,,,,,,,,,,,,,,,,,,,,,,,,,,,,,,,,
1656266110.782880,4.000000,0.000000,4271.282227,4234.871582,4081.538574,4087.692383,4232.820313,16144.000000,4.000000,91.000000,,,,0.000000,4.000000,4.000000,4.000000,4.000000,4.000000,100.000000,,,,,,,,,,,,,,,,,,,,,,,,,,,,,,,,,,,,,,,,,,,,,,,,,,,,,,,,,,,,,,,
1656266110.790694,5.000000,0.000000,4280.000000,4242.563965,4082.564209,4074.871826,4226.153809,450.000000,4.000000,91.000000,,,,0.000000,4.000000,4.000000,4.000000,4.000000,4.000000,100.000000,,,,,,,,,,,,,,,,,,,,,,,,,,,,,,,,,,,,,,,,,,,,,,,,,,,,,,,,,,,,,,,
1656266110.798409,6.000000,0.000000,4281.538574,4252.820313,4085.641113,4080.000000,4223.589844,16151.000000,4.000000,91.000000,,,,0.000000,4.000000,4.000000,4.000000,4.000000,4.000000,100.000000,,,,,,,,,,,,,,,,,,,,,,,,,,,,,,,,,,,,,,,,,,,,,,,,,,,,,,,,,,,,,,,
1656266110.806223,7.000000,0.000000,4281.538574,4254.871582,4079.487061,4088.718018,4218.461426,450.000000,4.000000,91.000000,,,,0.000000,4.000000,4.000000,4.000000,4.000000,4.000000,100.000000,,,,,,,,,,,,,,,,,,,,,,,,,,,,,,,,,,,,,,,,,,,,,,,,,,,,,,,,,,,,,,,
1656266110.813937,8.000000,0.000000,4285.128418,4255.897461,4081.538574,4074.358887,4226.666504,450.000000,4.000000,91.000000,,,,0.000000,4.000000,4.000000,4.000000,4.000000,4.000000,100.000000,,,,,,,,,,,,,,,,,,,,,,,,,,,,,,,,,,,,,,,,,,,,,,,,,,,,,,,,,,,,,,,
1656266110.821752,9.000000,0.000000,4282.051270,4256.922852,4095.897461,4068.718018,4238.461426,16134.000000,4.000000,91.000000,,,,0.000000,4.000000,4.000000,4.000000,4.000000,4.000000,100.000000,,,,,,,,,,,,,,,,,,,,,,,,,,,,,,,,,,,,,,,,,,,,,,,,,,,,,,,,,,,,,,,
1656266110.829466,10.000000,0.000000,4292.307617,4252.307617,4103.589844,4089.230713,4237.948730,450.000000,4.000000,91.000000,,,,0.000000,4.000000,4.000000,4.000000,4.000000,4.000000,100.000000,,,,,,,,,,,,,,,,,,,,,,,,,,,,,,,,,,,,,,,,,,,,,,,,,,,,,,,,,,,,,,,
1656266110.837381,11.000000,0.000000,4304.102539,4254.358887,4098.461426,4097.948730,4244.102539,16183.000000,4.000000,91.000000,,,,0.000000,4.000000,4.000000,4.000000,4.000000,4.000000,100.000000,,,,,,,,,,,,,,,,,,,,,,,,,,,,,,,,,,,,,,,,,,,,,,,,,,,,,,,,,,,,,,,
1656266110.845195,12.000000,0.000000,4290.256348,4256.922852,4092.307617,4092.820557,4249.743652,450.000000,4.000000,91.000000,,,,0.000000,4.000000,4.000000,4.000000,4.000000,4.000000,100.000000,,,,,,,,,,,,,,,,,,,,,,,,,,,,,,,,,,,,,,,,,,,,,,,,,,,,,,,,,,,,,,,
1656266110.853010,13.000000,0.000000,4276.410156,4252.820313,4084.615479,4098.974121,4240.000000,450.000000,4.000000,91.000000,,,,0.000000,4.000000,4.000000,4.000000,4.000000,4.000000,100.000000,,,,,,,,,,,,,,,,,,,,,,,,,,,,,,,,,,,,,,,,,,,,,,,,,,,,,,,,,,,,,,,
1656266110.860724,14.000000,0.000000,4277.948730,4256.410156,4080.512939,4097.948730,4230.769043,450.000000,4.000000,91.000000,,,,0.000000,4.000000,4.000000,4.000000,4.000000,4.000000,100.000000,,,,,,,,,,,,,,,,,,,,,,,,,,,,,,,,,,,,,,,,,,,,,,,,,,,,,,,,,,,,,,,
1656266110.868638,15.000000,0.000000,4285.128418,4261.025879,4087.692383,4093.333252,4236.922852,16183.000000,4.000000,91.000000,,,,0.000000,4.000000,4.000000,4.000000,4.000000,4.000000,100.000000,,,,,,,,,,,,,,,,,,,,,,,,,,,,,,,,,,,,,,,,,,,,,,,,,,,,,,,,,,,,,,,
1656266110.876453,16.000000,0.000000,4287.179688,4259.487305,4086.153809,4097.948730,4234.871582,0.000000,4.000000,91.000000,,,,0.000000,4.000000,4.000000,4.000000,4.000000,4.000000,100.000000,,,,,,,,,,,,,,,,,,,,,,,,,,,,,,,,,,,,,,,2.548337,1.585570,0.489815,1.011591,0.675770,1.072166,0.834692,0.885538,0.642726,0.722934,1.440798,1.612417,1.229302,0.933812,0.640651,3.437712,2.739441,1.371933,0.869385,0.675963,2.679712,1.206400,1.121415,1.121144,0.580102
1656266110.884367,17.000000,0.000000,4272.307617,4259.487305,4075.897461,4075.384521,4219.487305,0.000000,4.000000,91.000000,,,,0.000000,4.000000,4.000000,4.000000,4.000000,4.000000,100.000000,,,,,,,,,,,,,,,,,,,,,,,,,,,,,,,,,,,,,,,,,,,,,,,,,,,,,,,,,,,,,,,
1656266110.892181,18.000000,0.000000,4266.153809,4253.846191,4084.102539,4055.897461,4220.512695,0.000000,4.000000,91.000000,,,,0.000000,4.000000,4.000000,4.000000,4.000000,4.000000,100.000000,,,,,,,,,,,,,,,,,,,,,,,,,,,,,,,,,,,,,,,,,,,,,,,,,,,,,,,,,,,,,,,
1656266110.900096,19.000000,0.000000,4278.974121,4252.307617,4097.436035,4092.820557,4243.077148,0.000000,4.000000,91.000000,,,,0.000000,4.000000,4.000000,4.000000,4.000000,4.000000,100.000000,,,,,,,,,,,,,,,,,,,,,,,,,,,,,,,,,,,,,,,,,,,,,,,,,,,,,,,,,,,,,,,
1656266110.907910,20.000000,0.000000,4272.820313,4273.846191,4095.897461,4119.487305,4247.179688,0.000000,4.000000,91.000000,,,,0.000000,4.000000,4.000000,4.000000,4.000000,4.000000,100.000000,,,,,,,,,,,,,,,,,,,,,,,,,,,,,,,,,,,,,,,,,,,,,,,,,,,,,,,,,,,,,,,
1656266110.915824,21.000000,0.000000,4256.410156,4275.897461,4098.461426,4092.307617,4214.358887,0.000000,4.000000,91.000000,,,,0.000000,4.000000,4.000000,4.000000,4.000000,4.000000,100.000000,,,,,,,,,,,,,,,,,,,,,,,,,,,,,,,,,,,,,,,,,,,,,,,,,,,,,,,,,,,,,,,
1656266110.923639,22.000000,0.000000,4266.153809,4245.128418,4098.461426,4083.076904,4192.307617,0.000000,4.000000,91.000000,,,,0.000000,4.000000,4.000000,4.000000,4.000000,4.000000,100.000000,,,,,,,,,,,,,,,,,,,,,,,,,,,,,,,,,,,,,,,,,,,,,,,,,,,,,,,,,,,,,,,
1656266110.931353,23.000000,0.000000,4276.922852,4241.025879,4084.102539,4104.102539,4213.846191,0.000000,4.000000,91.000000,,,,0.000000,4.000000,4.000000,4.000000,4.000000,4.000000,100.000000,,,,,,,,,,,,,,,,,,,,,,,,,,,,,,,,,,,,,,,,,,,,,,,,,,,,,,,,,,,,,,,
1656266110.939168,24.000000,0.000000,4279.487305,4267.179688,4080.512939,4103.077148,4237.436035,0.000000,4.000000,91.000000,,,,0.000000,4.000000,4.000000,4.000000,4.000000,4.000000,100.000000,,,,,,,,,,,,,,,,,,,,,,,,,,,,,,,,,,,,,,,,,,,,,,,,,,,,,,,,,,,,,,,
1656266110.946882,25.000000,0.000000,4291.794922,4281.025879,4091.794922,4096.410156,4239.487305,0.000000,4.000000,91.000000,,,,0.000000,4.000000,4.000000,4.000000,4.000000,4.000000,100.000000,,,,,,,,,,,,,,,,,,,,,,,,,,,,,,,,,,,,,,,,,,,,,,,,,,,,,,,,,,,,,,,
1656266110.954697,26.000000,0.000000,4301.025879,4275.384766,4098.974121,4098.461426,4244.102539,0.000000,4.000000,91.000000,,,,0.000000,4.000000,4.000000,4.000000,4.000000,4.000000,100.000000,,,,,,,,,,,,,,,,,,,,,,,,,,,,,,,,,,,,,,,,,,,,,,,,,,,,,,,,,,,,,,,
1656266110.962411,27.000000,0.000000,4293.846191,4254.871582,4097.436035,4092.820557,4244.102539,0.000000,4.000000,91.000000,,,,0.000000,4.000000,4.000000,4.000000,4.000000,4.000000,100.000000,,,,,,,,,,,,,,,,,,,,,,,,,,,,,,,,,,,,,,,,,,,,,,,,,,,,,,,,,,,,,,,
1656266110.970226,28.000000,0.000000,4287.692383,4248.717773,4090.769287,4096.410156,4229.743652,0.000000,4.000000,91.000000,,,,0.000000,4.000000,4.000000,4.000000,4.000000,4.000000,100.000000,,,,,,,,,,,,,,,,,,,,,,,,,,,,,,,,,,,,,,,,,,,,,,,,,,,,,,,,,,,,,,,
1656266110.977940,29.000000,0.000000,4293.333496,4259.487305,4081.538574,4103.589844,4225.128418,0.000000,4.000000,91.000000,,,,0.000000,4.000000,4.000000,4.000000,4.000000,4.000000,100.000000,,,,,,,,,,,,,,,,,,,,,,,,,,,,,,,,,,,,,,,,,,,,,,,,,,,,,,,,,,,,,,,
1656266110.985755,30.000000,0.000000,4286.153809,4253.333496,4068.718018,4093.846191,4225.128418,0.000000,4.000000,91.000000,,,,0.000000,4.000000,4.000000,4.000000,4.000000,4.000000,100.000000,,,,,,,,,,,,,,,,,,,,,,,,,,,,,,,,,,,,,,,,,,,,,,,,,,,,,,,,,,,,,,,
1656266110.993469,31.000000,0.000000,4263.589844,4239.487305,4058.461426,4087.692383,4217.436035,0.000000,4.000000,91.000000,,,,0.000000,4.000000,4.000000,4.000000,4.000000,4.000000,100.000000,,,,,,,,,,,,,,,,,,,,,,,,,,,,,,,,,,,,,,,,,,,,,,,,,,,,,,,,,,,,,,,
1656266111.001283,32.000000,0.000000,4253.846191,4242.051270,4051.281982,4086.666748,4213.333496,0.000000,4.000000,91.000000,,,,0.000000,4.000000,4.000000,4.000000,4.000000,4.000000,100.000000,1.000000,100.000000,4.000000,4.000000,4.000000,4.000000,4.000000,,,,,,,,,,,,,,,,,,,,,,,,,,,,,,,,2.517040,1.535630,0.546660,1.019908,0.696404,1.210888,1.016980,0.717065,0.750258,0.640148,1.407495,1.513782,1.230169,0.906832,0.655138,3.579179,2.600662,1.463104,0.914692,0.627974,2.907469,1.323914,1.269401,1.148286,0.549428
1656266111.008998,33.000000,0.000000,4262.051270,4245.128418,4052.820557,4072.820557,4218.974121,0.000000,4.000000,91.000000,,,,0.000000,4.000000,4.000000,4.000000,4.000000,4.000000,100.000000,,,,,,,,,,,,,,,,,,,,,,,,,,,,,,,,,,,,,,,,,,,,,,,,,,,,,,,,,,,,,,,
1656266111.016812,34.000000,0.000000,4261.538574,4234.871582,4068.205078,4067.179443,4222.563965,0.000000,4.000000,91.000000,,,,0.000000,4.000000,4.000000,4.000000,4.000000,4.000000,100.000000,,,,,,,,,,,,,,,,,,,,,,,,,,,,,,,,,,,,,,,,,,,,,,,,,,,,,,,,,,,,,,,
1656266111.024527,35.000000,0.000000,4251.794922,4224.615234,4081.025635,4076.410156,4213.846191,0.000000,4.000000,91.000000,,,,0.000000,4.000000,4.000000,4.000000,4.000000,4.000000,100.000000,,,,,,,,,,,,,,,,,,,,,,,,,,,,,,,,,,,,,,,,,,,,,,,,,,,,,,,,,,,,,,,
1656266111.032341,36.000000,0.000000,4263.077148,4238.974121,4084.102539,4089.743652,4207.692383,0.000000,4.000000,91.000000,,,,0.000000,4.000000,4.000000,4.000000,4.000000,4.000000,100.000000,,,,,,,,,,,,,,,,,,,,,,,,,,,,,,,,,,,,,,,,,,,,,,,,,,,,,,,,,,,,,,,
1656266111.040056,37.000000,0.000000,4269.743652,4264.102539,4072.307617,4088.205078,4215.384766,0.000000,4.000000,91.000000,,,,0.000000,4.000000,4.000000,4.000000,4.000000,4.000000,100.000000,,,,,,,,,,,,,,,,,,,,,,,,,,,,,,,,,,,,,,,,,,,,,,,,,,,,,,,,,,,,,,,
1656266111.047870,38.000000,0.000000,4256.922852,4260.512695,4059.487061,4068.205078,4209.230957,0.000000,4.000000,91.000000,,,,0.000000,4.000000,4.000000,4.000000,4.000000,4.000000,100.000000,,,,,,,,,,,,,,,,,,,,,,,,,,,,,,,,,,,,,,,,,,,,,,,,,,,,,,,,,,,,,,,
1656266111.055585,39.000000,0.000000,4262.563965,4243.589844,4054.358887,4066.666748,4204.615234,0.000000,4.000000,91.000000,,,,0.000000,4.000000,4.000000,4.000000,4.000000,4.000000,100.000000,,,,,,,,,,,,,,,,,,,,,,,,,,,,,,,,,,,,,,,,,,,,,,,,,,,,,,,,,,,,,,,
1656266111.063499,40.000000,0.000000,4269.743652,4237.948730,4052.820557,4081.538574,4216.922852,0.000000,4.000000,91.000000,,,,0.000000,4.000000,4.000000,4.000000,4.000000,4.000000,100.000000,,,,,,,,,,,,,,,,,,,,,,,,,,,,,,,,,,,,,,,,,,,,,,,,,,,,,,,,,,,,,,,
1656266111.071313,41.000000,0.000000,4262.563965,4236.410156,4055.384521,4080.512939,4221.025879,0.000000,4.000000,91.000000,,,,0.000000,4.000000,4.000000,4.000000,4.000000,4.000000,100.000000,,,,,,,,,,,,,,,,,,,,,,,,,,,,,,,,,,,,,,,,,,,,,,,,,,,,,,,,,,,,,,,
1656266111.079228,42.000000,0.000000,4258.974121,4248.205078,4053.846191,4065.641113,4213.846191,0.000000,4.000000,91.000000,,,,0.000000,4.000000,4.000000,4.000000,4.000000,4.000000,100.000000,,,,,,,,,,,,,,,,,,,,,,,,,,,,,,,,,,,,,,,,,,,,,,,,,,,,,,,,,,,,,,,
1656266111.087042,43.000000,0.000000,4261.538574,4262.051270,4051.281982,4068.205078,4211.282227,0.000000,4.000000,91.000000,,,,0.000000,4.000000,4.000000,4.000000,4.000000,4.000000,100.000000,,,,,,,,,,,,,,,,,,,,,,,,,,,,,,,,,,,,,,,,,,,,,,,,,,,,,,,,,,,,,,,
1656266111.094956,44.000000,0.000000,4268.717773,4260.000000,4068.205078,4089.230713,4215.897461,0.000000,4.000000,91.000000,,,,0.000000,4.000000,4.000000,4.000000,4.000000,4.000000,100.000000,,,,,,,,,,,,,,,,,,,,,,,,,,,,,,,,,,,,,,,,,,,,,,,,,,,,,,,,,,,,,,,
1656266111.102771,45.000000,0.000000,4273.846191,4263.589844,4095.897461,4101.538574,4219.487305,0.000000,4.000000,91.000000,,,,0.000000,4.000000,4.000000,4.000000,4.000000,4.000000,100.000000,,,,,,,,,,,,,,,,,,,,,,,,,,,,,,,,,,,,,,,,,,,,,,,,,,,,,,,,,,,,,,,
1656266111.110685,46.000000,0.000000,4277.948730,4276.410156,4110.256348,4105.128418,4227.179688,0.000000,4.000000,91.000000,,,,0.000000,4.000000,4.000000,4.000000,4.000000,4.000000,100.000000,,,,,,,,,,,,,,,,,,,,,,,,,,,,,,,,,,,,,,,,,,,,,,,,,,,,,,,,,,,,,,,
1656266111.118500,47.000000,0.000000,4289.230957,4262.051270,4107.179688,4102.051270,4225.641113,0.000000,4.000000,91.000000,,,,0.000000,4.000000,4.000000,4.000000,4.000000,4.000000,100.000000,,,,,,,,,,,,,,,,,,,,,,,,,,,,,,,,,,,,,,,,,,,,,,,,,,,,,,,,,,,,,,,
1656266111.126414,48.000000,0.000000,4291.794922,4238.974121,4089.230713,4093.333252,4207.692383,0.000000,4.000000,91.000000,,,,0.000000,4.000000,4.000000,4.000000,4.000000,4.000000,100.000000,,,,,,,,,,,,,,,,,,,,,,,,,,,,,,,,,,,,,,,2.375705,1.487503,0.609469,1.026413,0.733103,1.359754,1.219194,0.583853,0.881054,0.562918,1.662074,1.391901,1.151565,0.904087,0.655611,3.601735,2.462292,1.513486,0.957572,0.595624,2.922490,1.374645,1.467898,1.215486,0.534454
1656266111.134228,49.000000,0.000000,4277.436035,4249.230957,4069.230713,4086.666748,4207.179688,0.000000,4.000000,91.000000,,,,0.000000,4.000000,4.000000,4.000000,4.000000,4.000000,100.000000,,,,,,,,,,,,,,,,,,,,,,,,,,,,,,,,,,,,,,,,,,,,,,,,,,,,,,,,,,,,,,,
1656266111.141943,50.000000,0.000000,4269.743652,4260.000000,4064.102539,4075.897461,4215.897461,0.000000,4.000000,91.000000,,,,0.000000,4.000000,4.000000,4.000000,4.000000,4.000000,100.000000,,,,,,,,,,,,,,,,,,,,,,,,,,,,,,,,,,,,,,,,,,,,,,,,,,,,,,,,,,,,,,,
1656266111.149757,51.000000,0.000000,4274.871582,4252.307617,4071.281982,4066.153809,4217.948730,0.000000,4.000000,91.000000,,,,0.000000,4.000000,4.000000,4.000000,4.000000,4.000000,100.000000,,,,,,,,,,,,,,,,,,,,,,,,,,,,,,,,,,,,,,,,,,,,,,,,,,,,,,,,,,,,,,,
1656266111.157472,52.000000,0.000000,4281.025879,4249.230957,4064.615479,4072.307617,4216.922852,0.000000,4.000000,91.000000,,,,0.000000,4.000000,4.000000,4.000000,4.000000,4.000000,100.000000,,,,,,,,,,,,,,,,,,,,,,,,,,,,,,,,,,,,,,,,,,,,,,,,,,,,,,,,,,,,,,,
1656266111.165286,53.000000,0.000000,4288.717773,4252.307617,4045.641113,4083.589844,4214.358887,0.000000,4.000000,91.000000,,,,0.000000,4.000000,4.000000,4.000000,4.000000,4.000000,100.000000,,,,,,,,,,,,,,,,,,,,,,,,,,,,,,,,,,,,,,,,,,,,,,,,,,,,,,,,,,,,,,,
1656266111.173001,54.000000,0.000000,4281.538574,4254.358887,4054.871826,4079.487061,4212.820313,0.000000,4.000000,91.000000,,,,0.000000,4.000000,4.000000,4.000000,4.000000,4.000000,100.000000,,,,,,,,,,,,,,,,,,,,,,,,,,,,,,,,,,,,,,,,,,,,,,,,,,,,,,,,,,,,,,,
1656266111.180815,55.000000,0.000000,4272.820313,4250.256348,4075.384521,4073.333252,4214.871582,0.000000,4.000000,91.000000,,,,0.000000,4.000000,4.000000,4.000000,4.000000,4.000000,100.000000,,,,,,,,,,,,,,,,,,,,,,,,,,,,,,,,,,,,,,,,,,,,,,,,,,,,,,,,,,,,,,,
1656266111.188530,56.000000,0.000000,4278.974121,4251.282227,4073.333252,4077.948730,4218.974121,0.000000,4.000000,91.000000,,,,0.000000,4.000000,4.000000,4.000000,4.000000,4.000000,100.000000,,,,,,,,,,,,,,,,,,,,,,,,,,,,,,,,,,,,,,,,,,,,,,,,,,,,,,,,,,,,,,,
1656266111.196344,57.000000,0.000000,4271.282227,4256.410156,4073.333252,4070.769287,4215.897461,0.000000,4.000000,91.000000,,,,0.000000,4.000000,4.000000,4.000000,4.000000,4.000000,100.000000,,,,,,,,,,,,,,,,,,,,,,,,,,,,,,,,,,,,,,,,,,,,,,,,,,,,,,,,,,,,,,,
1656266111.204058,58.000000,0.000000,4258.974121,4252.307617,4090.256348,4060.000000,4215.384766,0.000000,4.000000,91.000000,,,,0.000000,4.000000,4.000000,4.000000,4.000000,4.000000,100.000000,,,,,,,,,,,,,,,,,,,,,,,,,,,,,,,,,,,,,,,,,,,,,,,,,,,,,,,,,,,,,,,
1656266111.211973,59.000000,0.000000,4278.461426,4243.077148,4094.358887,4061.538574,4224.102539,0.000000,4.000000,91.000000,,,,0.000000,4.000000,4.000000,4.000000,4.000000,4.000000,100.000000,,,,,,,,,,,,,,,,,,,,,,,,,,,,,,,,,,,,,,,,,,,,,,,,,,,,,,,,,,,,,,,
1656266111.219787,60.000000,0.000000,4287.692383,4241.538574,4080.000000,4064.102539,4227.179688,0.000000,4.000000,91.000000,,,,0.000000,4.000000,4.000000,4.000000,4.000000,4.000000,100.000000,,,,,,,,,,,,,,,,,,,,,,,,,,,,,,,,,,,,,,,,,,,,,,,,,,,,,,,,,,,,,,,
1656266111.227701,61.000000,0.000000,4269.230957,4248.205078,4070.256348,4067.179443,4223.077148,0.000000,4.000000,91.000000,,,,0.000000,4.000000,4.000000,4.000000,4.000000,4.000000,100.000000,,,,,,,,,,,,,,,,,,,,,,,,,,,,,,,,,,,,,,,,,,,,,,,,,,,,,,,,,,,,,,,
1656266111.235516,62.000000,0.000000,4271.282227,4243.589844,4061.538574,4075.897461,4221.025879,0.000000,4.000000,91.000000,,,,0.000000,4.000000,4.000000,4.000000,4.000000,4.000000,100.000000,,,,,,,,,,,,,,,,,,,,,,,,,,,,,,,,,,,,,,,,,,,,,,,,,,,,,,,,,,,,,,,
1656266111.243430,63.000000,0.000000,4290.256348,4233.846191,4054.871826,4073.333252,4220.000000,0.000000,4.000000,91.000000,,,,0.000000,4.000000,4.000000,4.000000,4.000000,4.000000,100.000000,,,,,,,,,,,,,,,,,,,,,,,,,,,,,,,,,,,,,,,,,,,,,,,,,,,,,,,,,,,,,,,
1656266111.251245,64.000000,0.000000,4298.974121,4247.179688,4059.487061,4070.256348,4223.077148,450.000000,4.000000,91.000000,,,,0.000000,4.000000,4.000000,4.000000,4.000000,4.000000,100.000000,,,,,,,,,,,,,,,,,,,,,,,,,,,,,,,,,,,,,,,2.174842,1.454746,0.670476,1.039963,0.758805,1.462704,1.401635,0.510033,1.010088,0.509610,2.152818,1.273599,1.041173,0.923462,0.638224,3.622316,2.337356,1.476872,1.001949,0.582473,2.741565,1.368060,1.720532,1.322606,0.525022
1656266111.259159,65.000000,0.000000,4296.922852,4266.153809,4071.281982,4071.281982,4227.692383,450.000000,4.000000,91.000000,,,,0.000000,4.000000,4.000000,4.000000,4.000000,4.000000,100.000000,,,,,,,,,,,,,,,,,,,,,,,,,,,,,,,,,,,,,,,,,,,,,,,,,,,,,,,,,,,,,,,
1656266111.266973,66.000000,0.000000,4292.820313,4260.000000,4078.461426,4064.615479,4218.974121,16213.000000,4.000000,91.000000,,,,0.000000,4.000000,4.000000,4.000000,4.000000,4.000000,100.000000,,,,,,,,,,,,,,,,,,,,,,,,,,,,,,,,,,,,,,,,,,,,,,,,,,,,,,,,,,,,,,,
1656266111.274888,67.000000,0.000000,4293.846191,4250.769043,4071.794922,4074.871826,4215.897461,450.000000,4.000000,91.000000,,,,0.000000,4.000000,4.000000,4.000000,4.000000,4.000000,100.000000,,,,,,,,,,,,,,,,,,,,,,,,,,,,,,,,,,,,,,,,,,,,,,,,,,,,,,,,,,,,,,,
1656266111.282702,68.000000,0.000000,4293.846191,4251.282227,4065.128174,4091.281982,4228.717773,16218.000000,4.000000,91.000000,,,,0.000000,4.000000,4.000000,4.000000,4.000000,4.000000,100.000000,,,,,,,,,,,,,,,,,,,,,,,,,,,,,,,,,,,,,,,,,,,,,,,,,,,,,,,,,,,,,,,
1656266111.290616,69.000000,0.000000,4290.769043,4246.666504,4071.794922,4079.487061,4230.256348,450.000000,4.000000,91.000000,,,,0.000000,4.000000,4.000000,4.000000,4.000000,4.000000,100.000000,,,,,,,,,,,,,,,,,,,,,,,,,,,,,,,,,,,,,,,,,,,,,,,,,,,,,,,,,,,,,,,
1656266111.298431,70.000000,0.000000,4293.333496,4239.487305,4070.769287,4067.179443,4226.666504,16142.000000,4.000000,91.000000,,,,0.000000,4.000000,4.000000,4.000000,4.000000,4.000000,100.000000,,,,,,,,,,,,,,,,,,,,,,,,,,,,,,,,,,,,,,,,,,,,,,,,,,,,,,,,,,,,,,,
1656266111.306145,71.000000,0.000000,4300.512695,4244.102539,4065.128174,4078.461426,4237.948730,450.000000,4.000000,91.000000,,,,0.000000,4.000000,4.000000,4.000000,4.000000,4.000000,100.000000,,,,,,,,,,,,,,,,,,,,,,,,,,,,,,,,,,,,,,,,,,,,,,,,,,,,,,,,,,,,,,,
1656266111.313960,72.000000,0.000000,4300.512695,4261.025879,4077.948730,4084.102539,4244.102539,450.000000,4.000000,91.000000,,,,0.000000,4.000000,4.000000,4.000000,4.000000,4.000000,100.000000,,,,,,,,,,,,,,,,,,,,,,,,,,,,,,,,,,,,,,,,,,,,,,,,,,,,,,,,,,,,,,,
1656266111.321674,73.000000,0.000000,4295.384766,4262.563965,4086.666748,4072.307617,4228.205078,16191.000000,4.000000,91.000000,,,,0.000000,4.000000,4.000000,4.000000,4.000000,4.000000,100.000000,,,,,,,,,,,,,,,,,,,,,,,,,,,,,,,,,,,,,,,,,,,,,,,,,,,,,,,,,,,,,,,
1656266111.329489,74.000000,0.000000,4287.692383,4243.589844,4077.435791,4071.281982,4221.025879,450.000000,4.000000,91.000000,,,,0.000000,4.000000,4.000000,4.000000,4.000000,4.000000,100.000000,,,,,,,,,,,,,,,,,,,,,,,,,,,,,,,,,,,,,,,,,,,,,,,,,,,,,,,,,,,,,,,
1656266111.337203,75.000000,0.000000,4283.077148,4242.051270,4066.153809,4084.102539,4232.820313,16151.000000,4.000000,91.000000,,,,0.000000,4.000000,4.000000,4.000000,4.000000,4.000000,100.000000,,,,,,,,,,,,,,,,,,,,,,,,,,,,,,,,,,,,,,,,,,,,,,,,,,,,,,,,,,,,,,,
1656266111.345017,76.000000,0.000000,4294.871582,4261.538574,4068.718018,4082.051270,4244.615234,450.000000,4.000000,91.000000,,,,0.000000,4.000000,4.000000,4.000000,4.000000,4.000000,100.000000,,,,,,,,,,,,,,,,,,,,,,,,,,,,,,,,,,,,,,,,,,,,,,,,,,,,,,,,,,,,,,,
1656266111.352732,77.000000,0.000000,4307.179688,4267.692383,4081.538574,4074.358887,4250.256348,450.000000,4.000000,91.000000,,,,0.000000,4.000000,4.000000,4.000000,4.000000,4.000000,100.000000,,,,,,,,,,,,,,,,,,,,,,,,,,,,,,,,,,,,,,,,,,,,,,,,,,,,,,,,,,,,,,,
1656266111.360546,78.000000,0.000000,4297.436035,4254.358887,4079.487061,4076.410156,4247.179688,450.000000,4.000000,91.000000,,,,0.000000,4.000000,4.000000,4.000000,4.000000,4.000000,100.000000,,,,,,,,,,,,,,,,,,,,,,,,,,,,,,,,,,,,,,,,,,,,,,,,,,,,,,,,,,,,,,,
1656266111.368261,79.000000,0.000000,4280.512695,4239.487305,4065.641113,4078.461426,4242.051270,16151.000000,4.000000,91.000000,,,,0.000000,4.000000,4.000000,4.000000,4.000000,4.000000,100.000000,,,,,,,,,,,,,,,,,,,,,,,,,,,,,,,,,,,,,,,,,,,,,,,,,,,,,,,,,,,,,,,
1656266111.376075,80.000000,0.000000,4282.563965,4244.615234,4070.769287,4078.461426,4245.128418,450.000000,4.000000,91.000000,,,,0.000000,4.000000,4.000000,4.000000,4.000000,4.000000,100.000000,,,,,,,,,,,,,,,,,,,,,,,,,,,,,,,,,,,,,,,2.038224,1.428817,0.733005,1.054740,0.757346,1.518020,1.519279,0.501788,1.115212,0.494811,2.773263,1.220347,0.998641,0.944275,0.600710,3.757757,2.190898,1.378201,1.049612,0.594070,2.450185,1.325482,1.997447,1.441514,0.518747
1656266111.383790,81.000000,0.000000,4290.769043,4253.333496,4077.435791,4072.820557,4242.563965,450.000000,4.000000,91.000000,,,,0.000000,4.000000,4.000000,4.000000,4.000000,4.000000,100.000000,,,,,,,,,,,,,,,,,,,,,,,,,,,,,,,,,,,,,,,,,,,,,,,,,,,,,,,,,,,,,,,
1656266111.391704,82.000000,0.000000,4288.205078,4236.410156,4064.102539,4062.564209,4236.410156,450.000000,4.000000,91.000000,,,,0.000000,4.000000,4.000000,4.000000,4.000000,4.000000,100.000000,,,,,,,,,,,,,,,,,,,,,,,,,,,,,,,,,,,,,,,,,,,,,,,,,,,,,,,,,,,,,,,
1656266111.399519,83.000000,0.000000,4284.102539,4222.051270,4060.000000,4064.102539,4239.487305,16151.000000,4.000000,91.000000,,,,0.000000,4.000000,4.000000,4.000000,4.000000,4.000000,100.000000,,,,,,,,,,,,,,,,,,,,,,,,,,,,,,,,,,,,,,,,,,,,,,,,,,,,,,,,,,,,,,,
1656266111.407433,84.000000,0.000000,4284.615234,4237.436035,4071.794922,4075.897461,4243.077148,450.000000,4.000000,91.000000,,,,0.000000,4.000000,4.000000,4.000000,4.000000,4.000000,100.000000,,,,,,,,,,,,,,,,,,,,,,,,,,,,,,,,,,,,,,,,,,,,,,,,,,,,,,,,,,,,,,,
1656266111.415247,85.000000,0.000000,4289.230957,4245.128418,4078.461426,4080.000000,4239.487305,450.000000,4.000000,91.000000,,,,0.000000,4.000000,4.000000,4.000000,4.000000,4.000000,100.000000,,,,,,,,,,,,,,,,,,,,,,,,,,,,,,,,,,,,,,,,,,,,,,,,,,,,,,,,,,,,,,,
1656266111.423162,86.000000,0.000000,4288.717773,4229.743652,4077.435791,4079.487061,4229.230957,450.000000,4.000000,91.000000,,,,0.000000,4.000000,4.000000,4.000000,4.000000,4.000000,100.000000,,,,,,,,,,,,,,,,,,,,,,,,,,,,,,,,,,,,,,,,,,,,,,,,,,,,,,,,,,,,,,,
1656266111.430976,87.000000,0.000000,4285.641113,4235.897461,4075.384521,4077.948730,4223.589844,16151.000000,4.000000,91.000000,,,,0.000000,4.000000,4.000000,4.000000,4.000000,4.000000,100.000000,,,,,,,,,,,,,,,,,,,,,,,,,,,,,,,,,,,,,,,,,,,,,,,,,,,,,,,,,,,,,,,
1656266111.438890,88.000000,0.000000,4280.512695,4253.846191,4072.307617,4066.153809,4227.692383,450.000000,4.000000,91.000000,,,,0.000000,4.000000,4.000000,4.000000,4.000000,4.000000,100.000000,,,,,,,,,,,,,,,,,,,,,,,,,,,,,,,,,,,,,,,,,,,,,,,,,,,,,,,,,,,,,,,
1656266111.446705,89.000000,0.000000,4268.205078,4245.641113,4075.897461,4064.615479,4225.641113,450.000000,4.000000,91.000000,,,,0.000000,4.000000,4.000000,4.000000,4.000000,4.000000,100.000000,,,,,,,,,,,,,,,,,,,,,,,,,,,,,,,,,,,,,,,,,,,,,,,,,,,,,,,,,,,,,,,
1656266111.454619,90.000000,0.000000,4265.641113,4236.410156,4084.615479,4067.692383,4215.384766,450.000000,4.000000,91.000000,,,,0.000000,4.000000,4.000000,4.000000,4.000000,4.000000,100.000000,,,,,,,,,,,,,,,,,,,,,,,,,,,,,,,,,,,,,,,,,,,,,,,,,,,,,,,,,,,,,,,
1656266111.462433,91.000000,0.000000,4270.769043,4235.384766,4077.435791,4050.769287,4214.358887,16151.000000,4.000000,91.000000,,,,0.000000,4.000000,4.000000,4.000000,4.000000,4.000000,100.000000,,,,,,,,,,,,,,,,,,,,,,,,,,,,,,,,,,,,,,,,,,,,,,,,,,,,,,,,,,,,,,,
1656266111.470248,92.000000,0.000000,4273.333496,4237.948730,4081.538574,4049.743652,4225.128418,450.000000,4.000000,91.000000,,,,0.000000,4.000000,4.000000,4.000000,4.000000,4.000000,100.000000,,,,,,,,,,,,,,,,,,,,,,,,,,,,,,,,,,,,,,,,,,,,,,,,,,,,,,,,,,,,,,,
1656266111.477962,93.000000,0.000000,4276.922852,4258.974121,4110.256348,4076.410156,4227.692383,450.000000,4.000000,91.000000,,,,0.000000,4.000000,4.000000,4.000000,4.000000,4.000000,100.000000,,,,,,,,,,,,,,,,,,,,,,,,,,,,,,,,,,,,,,,,,,,,,,,,,,,,,,,,,,,,,,,
1656266111.485777,94.000000,0.000000,4279.487305,4268.717773,4113.846191,4077.435791,4219.487305,450.000000,4.000000,91.000000,,,,0.000000,4.000000,4.000000,4.000000,4.000000,4.000000,100.000000,,,,,,,,,,,,,,,,,,,,,,,,,,,,,,,,,,,,,,,,,,,,,,,,,,,,,,,,,,,,,,,
1656266111.493491,95.000000,0.000000,4273.846191,4243.077148,4086.153809,4056.410156,4216.410156,16151.000000,4.000000,91.000000,,,,0.000000,4.000000,4.000000,4.000000,4.000000,4.000000,100.000000,,,,,,,,,,,,,,,,,,,,,,,,,,,,,,,,,,,,,,,,,,,,,,,,,,,,,,,,,,,,,,,
1656266111.501406,96.000000,0.000000,4269.743652,4229.230957,4075.384521,4054.358887,4219.487305,450.000000,4.000000,91.000000,,,,0.000000,4.000000,4.000000,4.000000,4.000000,4.000000,100.000000,1.000000,100.000000,4.000000,4.000000,4.000000,4.000000,4.000000,,,,,,,,,,,,,,,,,,,,,,,,,,,,,,,,2.084220,1.413607,0.796797,1.050538,0.724916,1.570980,1.539039,0.556094,1.182488,0.518784,3.389535,1.342069,1.131855,0.950889,0.548298,4.028091,1.973816,1.297276,1.098219,0.630410,2.151346,1.272639,2.232895,1.529416,0.515984
1656266111.509220,97.000000,0.000000,4277.436035,4250.256348,4083.589844,4066.153809,4226.153809,450.000000,4.000000,91.000000,,,,0.000000,4.000000,4.000000,4.000000,4.000000,4.000000,100.000000,,,,,,,,,,,,,,,,,,,,,,,,,,,,,,,,,,,,,,,,,,,,,,,,,,,,,,,,,,,,,,,
1656266111.516934,98.000000,0.000000,4276.922852,4257.436035,4076.923096,4068.718018,4225.641113,450.000000,4.000000,91.000000,,,,0.000000,4.000000,4.000000,4.000000,4.000000,4.000000,100.000000,,,,,,,,,,,,,,,,,,,,,,,,,,,,,,,,,,,,,,,,,,,,,,,,,,,,,,,,,,,,,,,
1656266111.524749,99.000000,0.000000,4267.692383,4246.666504,4065.641113,4063.589844,4212.820313,16151.000000,4.000000,91.000000,,,,0.000000,4.000000,4.000000,4.000000,4.000000,4.000000,100.000000,,,,,,,,,,,,,,,,,,,,,,,,,,,,,,,,,,,,,,,,,,,,,,,,,,,,,,,,,,,,,,,
1656266111.532463,100.000000,0.000000,4271.794922,4253.333496,4069.230713,4068.718018,4212.820313,450.000000,4.000000,91.000000,,,,0.000000,4.000000,4.000000,4.000000,4.000000,4.000000,100.000000,,,,,,,,,,,,,,,,,,,,,,,,,,,,,,,,,,,,,,,,,,,,,,,,,,,,,,,,,,,,,,,
1656266111.540278,101.000000,0.000000,4272.820313,4255.897461,4077.948730,4068.718018,4221.025879,450.000000,4.000000,91.000000,,,,0.000000,4.000000,4.000000,4.000000,4.000000,4.000000,100.000000,,,,,,,,,,,,,,,,,,,,,,,,,,,,,,,,,,,,,,,,,,,,,,,,,,,,,,,,,,,,,,,
1656266111.547992,102.000000,0.000000,4256.922852,4238.461426,4086.153809,4057.435791,4214.871582,450.000000,4.000000,91.000000,,,,0.000000,4.000000,4.000000,4.000000,4.000000,4.000000,100.000000,,,,,,,,,,,,,,,,,,,,,,,,,,,,,,,,,,,,,,,,,,,,,,,,,,,,,,,,,,,,,,,
1656266111.555907,103.000000,0.000000,4263.589844,4231.794922,4092.307617,4067.179443,4210.769043,16151.000000,4.000000,91.000000,,,,0.000000,4.000000,4.000000,4.000000,4.000000,4.000000,100.000000,,,,,,,,,,,,,,,,,,,,,,,,,,,,,,,,,,,,,,,,,,,,,,,,,,,,,,,,,,,,,,,
1656266111.563721,104.000000,0.000000,4285.128418,4238.974121,4088.718018,4082.051270,4215.897461,450.000000,4.000000,91.000000,,,,0.000000,4.000000,4.000000,4.000000,4.000000,4.000000,100.000000,,,,,,,,,,,,,,,,,,,,,,,,,,,,,,,,,,,,,,,,,,,,,,,,,,,,,,,,,,,,,,,
1656266111.571635,105.000000,0.000000,4283.077148,4235.897461,4088.205078,4073.333252,4217.436035,450.000000,4.000000,91.000000,,,,0.000000,4.000000,4.000000,4.000000,4.000000,4.000000,100.000000,,,,,,,,,,,,,,,,,,,,,,,,,,,,,,,,,,,,,,,,,,,,,,,,,,,,,,,,,,,,,,,
1656266111.579450,106.000000,0.000000,4266.666504,4230.769043,4087.692383,4063.076904,4217.436035,450.000000,4.000000,91.000000,,,,0.000000,4.000000,4.000000,4.000000,4.000000,4.000000,100.000000,,,,,,,,,,,,,,,,,,,,,,,,,,,,,,,,,,,,,,,,,,,,,,,,,,,,,,,,,,,,,,,
1656266111.587264,107.000000,0.000000,4264.102539,4237.948730,4077.435791,4063.076904,4224.615234,16151.000000,4.000000,91.000000,,,,0.000000,4.000000,4.000000,4.000000,4.000000,4.000000,100.000000,,,,,,,,,,,,,,,,,,,,,,,,,,,,,,,,,,,,,,,,,,,,,,,,,,,,,,,,,,,,,,,
1656266111.594979,108.000000,0.000000,4274.871582,4247.179688,4079.487061,4066.666748,4227.692383,450.000000,4.000000,91.000000,,,,0.000000,4.000000,4.000000,4.000000,4.000000,4.000000,100.000000,,,,,,,,,,,,,,,,,,,,,,,,,,,,,,,,,,,,,,,,,,,,,,,,,,,,,,,,,,,,,,,
1656266111.602893,109.000000,0.000000,4271.794922,4240.512695,4088.718018,4069.743652,4211.282227,450.000000,4.000000,91.000000,,,,0.000000,4.000000,4.000000,4.000000,4.000000,4.000000,100.000000,,,,,,,,,,,,,,,,,,,,,,,,,,,,,,,,,,,,,,,,,,,,,,,,,,,,,,,,,,,,,,,
1656266111.610707,110.000000,0.000000,4269.230957,4230.256348,4091.794922,4065.641113,4206.666504,450.000000,4.000000,91.000000,,,,0.000000,4.000000,4.000000,4.000000,4.000000,4.000000,100.000000,,,,,,,,,,,,,,,,,,,,,,,,,,,,,,,,,,,,,,,,,,,,,,,,,,,,,,,,,,,,,,,
1656266111.618622,111.000000,0.000000,4282.563965,4238.461426,4093.846191,4069.230713,4227.692383,16151.000000,4.000000,91.000000,,,,0.000000,4.000000,4.000000,4.000000,4.000000,4.000000,100.000000,,,,,,,,,,,,,,,,,,,,,,,,,,,,,,,,,,,,,,,,,,,,,,,,,,,,,,,,,,,,,,,
1656266111.626436,112.000000,0.000000,4277.948730,4248.717773,4090.256348,4076.923096,4232.820313,450.000000,4.000000,91.000000,,,,0.000000,4.000000,4.000000,4.000000,4.000000,4.000000,100.000000,,,,,,,,,,,,,,,,,,,,,,,,,,,,,,,,,,,,,,,2.323296,1.403286,0.859044,1.008740,0.668670,1.665805,1.447680,0.658020,1.206282,0.568941,3.801796,1.718069,1.499103,0.941240,0.491689,4.321715,1.675946,1.308240,1.134539,0.679053,1.911912,1.217289,2.344010,1.549848,0.512983
1656266111.634350,113.000000,0.000000,4260.000000,4240.512695,4080.512939,4067.692383,4211.282227,450.000000,4.000000,91.000000,,,,0.000000,4.000000,4.000000,4.000000,4.000000,4.000000,100.000000,,,,,,,,,,,,,,,,,,,,,,,,,,,,,,,,,,,,,,,,,,,,,,,,,,,,,,,,,,,,,,,
1656266111.642165,114.000000,0.000000,4265.128418,4234.358887,4082.564209,4054.871826,4203.077148,450.000000,4.000000,91.000000,,,,0.000000,4.000000,4.000000,4.000000,4.000000,4.000000,100.000000,,,,,,,,,,,,,,,,,,,,,,,,,,,,,,,,,,,,,,,,,,,,,,,,,,,,,,,,,,,,,,,
1656266111.650079,115.000000,0.000000,4283.077148,4247.179688,4095.384521,4064.615479,4222.563965,16151.000000,4.000000,91.000000,,,,0.000000,4.000000,4.000000,4.000000,4.000000,4.000000,100.000000,,,,,,,,,,,,,,,,,,,,,,,,,,,,,,,,,,,,,,,,,,,,,,,,,,,,,,,,,,,,,,,
1656266111.657893,116.000000,0.000000,4283.589844,4257.948730,4095.384521,4077.435791,4231.794922,450.000000,4.000000,91.000000,,,,0.000000,4.000000,4.000000,4.000000,4.000000,4.000000,100.000000,,,,,,,,,,,,,,,,,,,,,,,,,,,,,,,,,,,,,,,,,,,,,,,,,,,,,,,,,,,,,,,
1656266111.665808,117.000000,0.000000,4276.410156,4250.769043,4085.641113,4076.410156,4220.512695,450.000000,4.000000,91.000000,,,,0.000000,4.000000,4.000000,4.000000,4.000000,4.000000,100.000000,,,,,,,,,,,,,,,,,,,,,,,,,,,,,,,,,,,,,,,,,,,,,,,,,,,,,,,,,,,,,,,
1656266111.673622,118.000000,0.000000,4277.436035,4239.487305,4081.025635,4075.897461,4209.743652,450.000000,4.000000,91.000000,,,,0.000000,4.000000,4.000000,4.000000,4.000000,4.000000,100.000000,,,,,,,,,,,,,,,,,,,,,,,,,,,,,,,,,,,,,,,,,,,,,,,,,,,,,,,,,,,,,,,
1656266111.681337,119.000000,0.000000,4274.871582,4241.025879,4080.000000,4073.846191,4202.563965,16151.000000,4.000000,91.000000,,,,0.000000,4.000000,4.000000,4.000000,4.000000,4.000000,100.000000,,,,,,,,,,,,,,,,,,,,,,,,,,,,,,,,,,,,,,,,,,,,,,,,,,,,,,,,,,,,,,,
1656266111.689151,120.000000,0.000000,4279.487305,4255.384766,4085.128174,4072.307617,4210.256348,450.000000,4.000000,91.000000,,,,0.000000,4.000000,4.000000,4.000000,4.000000,4.000000,100.000000,,,,,,,,,,,,,,,,,,,,,,,,,,,,,,,,,,,,,,,,,,,,,,,,,,,,,,,,,,,,,,,
1656266111.696866,121.000000,0.000000,4291.282227,4267.179688,4095.897461,4072.307617,4236.410156,450.000000,4.000000,91.000000,,,,0.000000,4.000000,4.000000,4.000000,4.000000,4.000000,100.000000,,,,,,,,,,,,,,,,,,,,,,,,,,,,,,,,,,,,,,,,,,,,,,,,,,,,,,,,,,,,,,,
1656266111.704780,122.000000,0.000000,4287.692383,4263.077148,4109.743652,4081.538574,4244.615234,450.000000,4.000000,91.000000,,,,0.000000,4.000000,4.000000,4.000000,4.000000,4.000000,100.000000,,,,,,,,,,,,,,,,,,,,,,,,,,,,,,,,,,,,,,,,,,,,,,,,,,,,,,,,,,,,,,,
1656266111.712594,123.000000,0.000000,4275.384766,4254.358887,4109.743652,4097.948730,4228.205078,16151.000000,4.000000,91.000000,,,,0.000000,4.000000,4.000000,4.000000,4.000000,4.000000,100.000000,,,,,,,,,,,,,,,,,,,,,,,,,,,,,,,,,,,,,,,,,,,,,,,,,,,,,,,,,,,,,,,
1656266111.720509,124.000000,0.000000,4273.333496,4253.333496,4095.897461,4096.410156,4216.922852,450.000000,4.000000,91.000000,,,,0.000000,4.000000,4.000000,4.000000,4.000000,4.000000,100.000000,,,,,,,,,,,,,,,,,,,,,,,,,,,,,,,,,,,,,,,,,,,,,,,,,,,,,,,,,,,,,,,
1656266111.728323,125.000000,0.000000,4275.897461,4257.948730,4091.794922,4085.641113,4218.974121,450.000000,4.000000,91.000000,,,,0.000000,4.000000,4.000000,4.000000,4.000000,4.000000,100.000000,,,,,,,,,,,,,,,,,,,,,,,,,,,,,,,,,,,,,,,,,,,,,,,,,,,,,,,,,,,,,,,
1656266111.736137,126.000000,0.000000,4267.692383,4254.358887,4092.307617,4081.538574,4213.333496,450.000000,4.000000,91.000000,,,,0.000000,4.000000,4.000000,4.000000,4.000000,4.000000,100.000000,,,,,,,,,,,,,,,,,,,,,,,,,,,,,,,,,,,,,,,,,,,,,,,,,,,,,,,,,,,,,,,
1656266111.743852,127.000000,0.000000,4248.717773,4236.922852,4080.000000,4064.102539,4195.897461,242.000000,4.000000,91.000000,,,,0.000000,4.000000,4.000000,4.000000,4.000000,4.000000,100.000000,,,,,,,,,,,,,,,,,,,,,,,,,,,,,,,,,,,,,,,,,,,,,,,,,,,,,,,,,,,,,,,
1656266111.751666,0.000000,0.000000,4244.102539,4230.769043,4074.871826,4049.743652,4191.282227,450.000000,4.000000,91.000000,,,,0.000000,4.000000,4.000000,4.000000,4.000000,4.000000,100.000000,,,,,,,,,,,,,,,,,,,,,,,,,,,,,,,,,,,,,,,2.652971,1.376951,0.911688,0.924239,0.602591,1.810856,1.262897,0.784140,1.195888,0.630404,3.907205,2.326865,2.048553,0.920621,0.444421,4.471514,1.332286,1.424220,1.139473,0.720825,1.744804,1.149825,2.264072,1.483805,0.504074
1656266111.759381,1.000000,0.000000,4258.974121,4234.358887,4084.615479,4056.410156,4200.512695,450.000000,4.000000,91.000000,,,,0.000000,4.000000,4.000000,4.000000,4.000000,4.000000,100.000000,,,,,,,,,,,,,,,,,,,,,,,,,,,,,,,,,,,,,,,,,,,,,,,,,,,,,,,,,,,,,,,
1656266111.767195,2.000000,0.000000,4263.077148,4230.256348,4091.794922,4053.846191,4206.666504,16206.000000,4.000000,91.000000,,,,0.000000,4.000000,4.000000,4.000000,4.000000,4.000000,100.000000,,,,,,,,,,,,,,,,,,,,,,,,,,,,,,,,,,,,,,,,,,,,,,,,,,,,,,,,,,,,,,,
1656266111.774910,3.000000,0.000000,4260.512695,4225.641113,4091.794922,4055.384521,4213.333496,450.000000,4.000000,91.000000,,,,0.000000,4.000000,4.000000,4.000000,4.000000,4.000000,100.000000,,,,,,,,,,,,,,,,,,,,,,,,,,,,,,,,,,,,,,,,,,,,,,,,,,,,,,,,,,,,,,,
1656266111.782724,4.000000,0.000000,4262.563965,4229.743652,4091.281982,4075.384521,4209.743652,16168.000000,4.000000,91.000000,,,,0.000000,4.000000,4.000000,4.000000,4.000000,4.000000,100.000000,,,,,,,,,,,,,,,,,,,,,,,,,,,,,,,,,,,,,,,,,,,,,,,,,,,,,,,,,,,,,,,
1656266111.790439,5.000000,0.000000,4255.897461,4229.230957,4086.153809,4074.358887,4196.410156,450.000000,4.000000,91.000000,,,,0.000000,4.000000,4.000000,4.000000,4.000000,4.000000,100.000000,,,,,,,,,,,,,,,,,,,,,,,,,,,,,,,,,,,,,,,,,,,,,,,,,,,,,,,,,,,,,,,
1656266111.798253,6.000000,0.000000,4251.794922,4220.512695,4071.281982,4054.358887,4203.077148,16164.000000,4.000000,91.000000,,,,0.000000,4.000000,4.000000,4.000000,4.000000,4.000000,100.000000,,,,,,,,,,,,,,,,,,,,,,,,,,,,,,,,,,,,,,,,,,,,,,,,,,,,,,,,,,,,,,,
1656266111.805968,7.000000,0.000000,4258.974121,4225.641113,4068.718018,4063.589844,4215.384766,450.000000,4.000000,91.000000,,,,0.000000,4.000000,4.000000,4.000000,4.000000,4.000000,100.000000,,,,,,,,,,,,,,,,,,,,,,,,,,,,,,,,,,,,,,,,,,,,,,,,,,,,,,,,,,,,,,,
1656266111.813882,8.000000,0.000000,4263.589844,4244.615234,4086.153809,4080.512939,4210.256348,450.000000,4.000000,91.000000,,,,0.000000,4.000000,4.000000,4.000000,4.000000,4.000000,100.000000,,,,,,,,,,,,,,,,,,,,,,,,,,,,,,,,,,,,,,,,,,,,,,,,,,,,,,,,,,,,,,,
1656266111.821696,9.000000,0.000000,4254.871582,4240.000000,4088.718018,4061.025635,4205.641113,16166.000000,4.000000,91.000000,,,,0.000000,4.000000,4.000000,4.000000,4.000000,4.000000,100.000000,,,,,,,,,,,,,,,,,,,,,,,,,,,,,,,,,,,,,,,,,,,,,,,,,,,,,,,,,,,,,,,
1656266111.829611,10.000000,0.000000,4246.153809,4220.512695,4084.102539,4053.333252,4206.666504,450.000000,4.000000,91.000000,,,,0.000000,4.000000,4.000000,4.000000,4.000000,4.000000,100.000000,,,,,,,,,,,,,,,,,,,,,,,,,,,,,,,,,,,,,,,,,,,,,,,,,,,,,,,,,,,,,,,
1656266111.837525,11.000000,0.000000,4248.717773,4218.974121,4097.948730,4075.384521,4207.692383,16226.000000,4.000000,91.000000,,,,0.000000,4.000000,4.000000,4.000000,4.000000,4.000000,100.000000,,,,,,,,,,,,,,,,,,,,,,,,,,,,,,,,,,,,,,,,,,,,,,,,,,,,,,,,,,,,,,,
1656266111.845339,12.000000,0.000000,4256.922852,4232.820313,4104.102539,4078.974365,4213.846191,450.000000,4.000000,91.000000,,,,0.000000,4.000000,4.000000,4.000000,4.000000,4.000000,100.000000,,,,,,,,,,,,,,,,,,,,,,,,,,,,,,,,,,,,,,,,,,,,,,,,,,,,,,,,,,,,,,,
1656266111.853154,13.000000,0.000000,4259.487305,4243.589844,4093.333252,4062.564209,4215.384766,450.000000,4.000000,91.000000,,,,0.000000,4.000000,4.000000,4.000000,4.000000,4.000000,100.000000,,,,,,,,,,,,,,,,,,,,,,,,,,,,,,,,,,,,,,,,,,,,,,,,,,,,,,,,,,,,,,,
1656266111.861068,14.000000,0.000000,4248.205078,4227.692383,4078.461426,4052.820557,4203.589844,450.000000,4.000000,91.000000,,,,0.000000,4.000000,4.000000,4.000000,4.000000,4.000000,100.000000,,,,,,,,,,,,,,,,,,,,,,,,,,,,,,,,,,,,,,,,,,,,,,,,,,,,,,,,,,,,,,,
1656266111.868882,15.000000,0.000000,4230.769043,4211.794922,4074.358887,4051.794922,4189.230957,16226.000000,4.000000,91.000000,,,,0.000000,4.000000,4.000000,4.000000,4.000000,4.000000,100.000000,,,,,,,,,,,,,,,,,,,,,,,,,,,,,,,,,,,,,,,,,,,,,,,,,,,,,,,,,,,,,,,
1656266111.876597,16.000000,0.000000,4223.589844,4229.743652,4088.718018,4044.615479,4182.563965,0.000000,4.000000,91.000000,,,,0.000000,4.000000,4.000000,4.000000,4.000000,4.000000,100.000000,,,,,,,,,,,,,,,,,,,,,,,,,,,,,,,,,,,,,,,2.911985,1.313104,0.932036,0.813224,0.540946,1.976955,1.032005,0.895631,1.166578,0.691983,3.679127,3.045864,2.631345,0.898853,0.419485,4.327920,1.006879,1.589112,1.104589,0.738315,1.624201,1.064153,1.986783,1.338302,0.489419
1656266111.884411,17.000000,0.000000,4233.333496,4238.461426,4103.589844,4047.179443,4186.666504,0.000000,4.000000,91.000000,,,,0.000000,4.000000,4.000000,4.000000,4.000000,4.000000,100.000000,,,,,,,,,,,,,,,,,,,,,,,,,,,,,,,,,,,,,,,,,,,,,,,,,,,,,,,,,,,,,,,
1656266111.892126,18.000000,0.000000,4255.384766,4238.974121,4107.692383,4077.435791,4206.153809,0.000000,4.000000,91.000000,,,,0.000000,4.000000,4.000000,4.000000,4.000000,4.000000,100.000000,,,,,,,,,,,,,,,,,,,,,,,,,,,,,,,,,,,,,,,,,,,,,,,,,,,,,,,,,,,,,,,
1656266111.899940,19.000000,0.000000,4270.769043,4252.820313,4104.615234,4100.000000,4223.589844,0.000000,4.000000,91.000000,,,,0.000000,4.000000,4.000000,4.000000,4.000000,4.000000,100.000000,,,,,,,,,,,,,,,,,,,,,,,,,,,,,,,,,,,,,,,,,,,,,,,,,,,,,,,,,,,,,,,
1656266111.907655,20.000000,0.000000,4269.743652,4242.563965,4092.820557,4083.076904,4218.461426,0.000000,4.000000,91.000000,,,,0.000000,4.000000,4.000000,4.000000,4.000000,4.000000,100.000000,,,,,,,,,,,,,,,,,,,,,,,,,,,,,,,,,,,,,,,,,,,,,,,,,,,,,,,,,,,,,,,
1656266111.915469,21.000000,0.000000,4261.025879,4222.051270,4074.871826,4067.179443,4213.846191,0.000000,4.000000,91.000000,,,,0.000000,4.000000,4.000000,4.000000,4.000000,4.000000,100.000000,,,,,,,,,,,,,,,,,,,,,,,,,,,,,,,,,,,,,,,,,,,,,,,,,,,,,,,,,,,,,,,
1656266111.923184,22.000000,0.000000,4255.384766,4227.692383,4068.205078,4071.281982,4218.974121,0.000000,4.000000,91.000000,,,,0.000000,4.000000,4.000000,4.000000,4.000000,4.000000,100.000000,,,,,,,,,,,,,,,,,,,,,,,,,,,,,,,,,,,,,,,,,,,,,,,,,,,,,,,,,,,,,,,
1656266111.930998,23.000000,0.000000,4256.922852,4229.743652,4075.897461,4066.666748,4218.461426,0.000000,4.000000,91.000000,,,,0.000000,4.000000,4.000000,4.000000,4.000000,4.000000,100.000000,,,,,,,,,,,,,,,,,,,,,,,,,,,,,,,,,,,,,,,,,,,,,,,,,,,,,,,,,,,,,,,
1656266111.938713,24.000000,0.000000,4260.512695,4217.948730,4080.000000,4055.897461,4213.846191,0.000000,4.000000,91.000000,,,,0.000000,4.000000,4.000000,4.000000,4.000000,4.000000,100.000000,,,,,,,,,,,,,,,,,,,,,,,,,,,,,,,,,,,,,,,,,,,,,,,,,,,,,,,,,,,,,,,
1656266111.946527,25.000000,0.000000,4269.743652,4230.256348,4090.256348,4056.410156,4216.410156,0.000000,4.000000,91.000000,,,,0.000000,4.000000,4.000000,4.000000,4.000000,4.000000,100.000000,,,,,,,,,,,,,,,,,,,,,,,,,,,,,,,,,,,,,,,,,,,,,,,,,,,,,,,,,,,,,,,
1656266111.954242,26.000000,0.000000,4277.948730,4246.666504,4105.641113,4070.256348,4224.102539,0.000000,4.000000,91.000000,,,,0.000000,4.000000,4.000000,4.000000,4.000000,4.000000,100.000000,,,,,,,,,,,,,,,,,,,,,,,,,,,,,,,,,,,,,,,,,,,,,,,,,,,,,,,,,,,,,,,
1656266111.962056,27.000000,0.000000,4271.282227,4236.922852,4102.051270,4078.461426,4223.077148,0.000000,4.000000,91.000000,,,,0.000000,4.000000,4.000000,4.000000,4.000000,4.000000,100.000000,,,,,,,,,,,,,,,,,,,,,,,,,,,,,,,,,,,,,,,,,,,,,,,,,,,,,,,,,,,,,,,
1656266111.969770,28.000000,0.000000,4266.666504,4229.230957,4093.333252,4073.333252,4220.000000,0.000000,4.000000,91.000000,,,,0.000000,4.000000,4.000000,4.000000,4.000000,4.000000,100.000000,,,,,,,,,,,,,,,,,,,,,,,,,,,,,,,,,,,,,,,,,,,,,,,,,,,,,,,,,,,,,,,
1656266111.977585,29.000000,0.000000,4267.692383,4237.436035,4092.307617,4073.333252,4211.282227,0.000000,4.000000,91.000000,,,,0.000000,4.000000,4.000000,4.000000,4.000000,4.000000,100.000000,,,,,,,,,,,,,,,,,,,,,,,,,,,,,,,,,,,,,,,,,,,,,,,,,,,,,,,,,,,,,,,
1656266111.985299,30.000000,0.000000,4256.922852,4238.974121,4085.128174,4072.307617,4198.974121,0.000000,4.000000,91.000000,,,,0.000000,4.000000,4.000000,4.000000,4.000000,4.000000,100.000000,,,,,,,,,,,,,,,,,,,,,,,,,,,,,,,,,,,,,,,,,,,,,,,,,,,,,,,,,,,,,,,
1656266111.993214,31.000000,0.000000,4244.102539,4227.179688,4076.410156,4060.000000,4204.102539,0.000000,4.000000,91.000000,,,,0.000000,4.000000,4.000000,4.000000,4.000000,4.000000,100.000000,,,,,,,,,,,,,,,,,,,,,,,,,,,,,,,,,,,,,,,,,,,,,,,,,,,,,,,,,,,,,,,
1656266112.001028,32.000000,0.000000,4249.230957,4221.538574,4072.820557,4051.794922,4213.846191,0.000000,4.000000,91.000000,,,,0.000000,4.000000,4.000000,4.000000,4.000000,4.000000,100.000000,1.000000,100.000000,4.000000,4.000000,4.000000,4.000000,4.000000,,,,,,,,,,,,,,,,,,,,,,,,,,,,,,,,2.964917,1.190718,0.902293,0.707748,0.493365,2.147040,0.818255,0.945364,1.125981,0.745745,3.250406,3.675367,3.061895,0.885197,0.419647,3.917785,0.762361,1.703319,1.038214,0.722749,1.519971,0.958774,1.581356,1.141939,0.477155
1656266112.008942,33.000000,0.000000,4261.538574,4221.538574,4074.358887,4051.281982,4219.487305,0.000000,4.000000,91.000000,,,,0.000000,4.000000,4.000000,4.000000,4.000000,4.000000,100.000000,,,,,,,,,,,,,,,,,,,,,,,,,,,,,,,,,,,,,,,,,,,,,,,,,,,,,,,,,,,,,,,
1656266112.016757,34.000000,0.000000,4269.743652,4223.589844,4087.692383,4061.025635,4228.205078,0.000000,4.000000,91.000000,,,,0.000000,4.000000,4.000000,4.000000,4.000000,4.000000,100.000000,,,,,,,,,,,,,,,,,,,,,,,,,,,,,,,,,,,,,,,,,,,,,,,,,,,,,,,,,,,,,,,
1656266112.024671,35.000000,0.000000,4268.717773,4226.666504,4096.410156,4072.307617,4221.025879,0.000000,4.000000,91.000000,,,,0.000000,4.000000,4.000000,4.000000,4.000000,4.000000,100.000000,,,,,,,,,,,,,,,,,,,,,,,,,,,,,,,,,,,,,,,,,,,,,,,,,,,,,,,,,,,,,,,
1656266112.032486,36.000000,0.000000,4258.974121,4228.717773,4092.307617,4075.384521,4201.025879,0.000000,4.000000,91.000000,,,,0.000000,4.000000,4.000000,4.000000,4.000000,4.000000,100.000000,,,,,,,,,,,,,,,,,,,,,,,,,,,,,,,,,,,,,,,,,,,,,,,,,,,,,,,,,,,,,,,
1656266112.040400,37.000000,0.000000,4254.871582,4227.179688,4094.358887,4076.410156,4207.179688,0.000000,4.000000,91.000000,,,,0.000000,4.000000,4.000000,4.000000,4.000000,4.000000,100.000000,,,,,,,,,,,,,,,,,,,,,,,,,,,,,,,,,,,,,,,,,,,,,,,,,,,,,,,,,,,,,,,
1656266112.048214,38.000000,0.000000,4268.717773,4218.461426,4094.358887,4081.538574,4227.692383,0.000000,4.000000,91.000000,,,,0.000000,4.000000,4.000000,4.000000,4.000000,4.000000,100.000000,,,,,,,,,,,,,,,,,,,,,,,,,,,,,,,,,,,,,,,,,,,,,,,,,,,,,,,,,,,,,,,
1656266112.056129,39.000000,0.000000,4273.333496,4214.358887,4083.076904,4082.564209,4220.512695,0.000000,4.000000,91.000000,,,,0.000000,4.000000,4.000000,4.000000,4.000000,4.000000,100.000000,,,,,,,,,,,,,,,,,,,,,,,,,,,,,,,,,,,,,,,,,,,,,,,,,,,,,,,,,,,,,,,
1656266112.063943,40.000000,0.000000,4251.282227,4217.436035,4076.923096,4067.179443,4201.538574,0.000000,4.000000,91.000000,,,,0.000000,4.000000,4.000000,4.000000,4.000000,4.000000,100.000000,,,,,,,,,,,,,,,,,,,,,,,,,,,,,,,,,,,,,,,,,,,,,,,,,,,,,,,,,,,,,,,
1656266112.071657,41.000000,0.000000,4256.922852,4225.128418,4072.307617,4053.333252,4207.692383,0.000000,4.000000,91.000000,,,,0.000000,4.000000,4.000000,4.000000,4.000000,4.000000,100.000000,,,,,,,,,,,,,,,,,,,,,,,,,,,,,,,,,,,,,,,,,,,,,,,,,,,,,,,,,,,,,,,
1656266112.079472,42.000000,0.000000,4289.230957,4227.179688,4066.153809,4059.487061,4223.589844,0.000000,4.000000,91.000000,,,,0.000000,4.000000,4.000000,4.000000,4.000000,4.000000,100.000000,,,,,,,,,,,,,,,,,,,,,,,,,,,,,,,,,,,,,,,,,,,,,,,,,,,,,,,,,,,,,,,
1656266112.087186,43.000000,0.000000,4289.230957,4224.615234,4076.410156,4075.897461,4230.256348,0.000000,4.000000,91.000000,,,,0.000000,4.000000,4.000000,4.000000,4.000000,4.000000,100.000000,,,,,,,,,,,,,,,,,,,,,,,,,,,,,,,,,,,,,,,,,,,,,,,,,,,,,,,,,,,,,,,
1656266112.095001,44.000000,0.000000,4274.871582,4229.743652,4091.794922,4077.435791,4234.871582,0.000000,4.000000,91.000000,,,,0.000000,4.000000,4.000000,4.000000,4.000000,4.000000,100.000000,,,,,,,,,,,,,,,,,,,,,,,,,,,,,,,,,,,,,,,,,,,,,,,,,,,,,,,,,,,,,,,
1656266112.102715,45.000000,0.000000,4279.487305,4232.307617,4090.769287,4065.128174,4230.769043,0.000000,4.000000,91.000000,,,,0.000000,4.000000,4.000000,4.000000,4.000000,4.000000,100.000000,,,,,,,,,,,,,,,,,,,,,,,,,,,,,,,,,,,,,,,,,,,,,,,,,,,,,,,,,,,,,,,
1656266112.110530,46.000000,0.000000,4280.000000,4230.769043,4090.256348,4066.153809,4216.922852,0.000000,4.000000,91.000000,,,,0.000000,4.000000,4.000000,4.000000,4.000000,4.000000,100.000000,,,,,,,,,,,,,,,,,,,,,,,,,,,,,,,,,,,,,,,,,,,,,,,,,,,,,,,,,,,,,,,
1656266112.118244,47.000000,0.000000,4264.615234,4228.205078,4097.948730,4073.846191,4211.282227,0.000000,4.000000,91.000000,,,,0.000000,4.000000,4.000000,4.000000,4.000000,4.000000,100.000000,,,,,,,,,,,,,,,,,,,,,,,,,,,,,,,,,,,,,,,,,,,,,,,,,,,,,,,,,,,,,,,
1656266112.126059,48.000000,0.000000,4258.974121,4225.128418,4093.333252,4076.410156,4214.871582,0.000000,4.000000,91.000000,,,,0.000000,4.000000,4.000000,4.000000,4.000000,4.000000,100.000000,,,,,,,,,,,,,,,,,,,,,,,,,,,,,,,,,,,,,,,2.765472,1.016143,0.827405,0.645454,0.462285,2.305849,0.679598,0.905326,1.075569,0.786586,2.799560,4.007093,3.223254,0.891325,0.435943,3.324648,0.627858,1.692612,0.972216,0.680778,1.394673,0.854752,1.173999,0.941463,0.479086
1656266112.133773,49.000000,0.000000,4273.846191,4230.769043,4084.615479,4077.948730,4217.436035,0.000000,4.000000,91.000000,,,,0.000000,4.000000,4.000000,4.000000,4.000000,4.000000,100.000000,,,,,,,,,,,,,,,,,,,,,,,,,,,,,,,,,,,,,,,,,,,,,,,,,,,,,,,,,,,,,,,
1656266112.141687,50.000000,0.000000,4286.666504,4238.974121,4090.769287,4080.512939,4229.743652,0.000000,4.000000,91.000000,,,,0.000000,4.000000,4.000000,4.000000,4.000000,4.000000,100.000000,,,,,,,,,,,,,,,,,,,,,,,,,,,,,,,,,,,,,,,,,,,,,,,,,,,,,,,,,,,,,,,
1656266112.149502,51.000000,0.000000,4281.025879,4232.820313,4097.948730,4078.461426,4244.615234,0.000000,4.000000,91.000000,,,,0.000000,4.000000,4.000000,4.000000,4.000000,4.000000,100.000000,,,,,,,,,,,,,,,,,,,,,,,,,,,,,,,,,,,,,,,,,,,,,,,,,,,,,,,,,,,,,,,
1656266112.157416,52.000000,0.000000,4283.077148,4219.487305,4093.846191,4066.153809,4242.563965,0.000000,4.000000,91.000000,,,,0.000000,4.000000,4.000000,4.000000,4.000000,4.000000,100.000000,,,,,,,,,,,,,,,,,,,,,,,,,,,,,,,,,,,,,,,,,,,,,,,,,,,,,,,,,,,,,,,
1656266112.165231,53.000000,0.000000,4297.436035,4221.538574,4096.922852,4067.692383,4234.871582,0.000000,4.000000,91.000000,,,,0.000000,4.000000,4.000000,4.000000,4.000000,4.000000,100.000000,,,,,,,,,,,,,,,,,,,,,,,,,,,,,,,,,,,,,,,,,,,,,,,,,,,,,,,,,,,,,,,
1656266112.173045,54.000000,0.000000,4294.871582,4235.897461,4104.615234,4088.205078,4232.820313,0.000000,4.000000,91.000000,,,,0.000000,4.000000,4.000000,4.000000,4.000000,4.000000,100.000000,,,,,,,,,,,,,,,,,,,,,,,,,,,,,,,,,,,,,,,,,,,,,,,,,,,,,,,,,,,,,,,
1656266112.180759,55.000000,0.000000,4275.897461,4234.358887,4090.769287,4083.076904,4223.589844,0.000000,4.000000,91.000000,,,,0.000000,4.000000,4.000000,4.000000,4.000000,4.000000,100.000000,,,,,,,,,,,,,,,,,,,,,,,,,,,,,,,,,,,,,,,,,,,,,,,,,,,,,,,,,,,,,,,
1656266112.188674,56.000000,0.000000,4271.794922,4225.641113,4084.102539,4066.153809,4213.846191,0.000000,4.000000,91.000000,,,,0.000000,4.000000,4.000000,4.000000,4.000000,4.000000,100.000000,,,,,,,,,,,,,,,,,,,,,,,,,,,,,,,,,,,,,,,,,,,,,,,,,,,,,,,,,,,,,,,
1656266112.196488,57.000000,0.000000,4284.102539,4231.282227,4098.974121,4077.435791,4216.922852,0.000000,4.000000,91.000000,,,,0.000000,4.000000,4.000000,4.000000,4.000000,4.000000,100.000000,,,,,,,,,,,,,,,,,,,,,,,,,,,,,,,,,,,,,,,,,,,,,,,,,,,,,,,,,,,,,,,
1656266112.204402,58.000000,0.000000,4280.512695,4231.794922,4097.948730,4082.564209,4210.769043,0.000000,4.000000,91.000000,,,,0.000000,4.000000,4.000000,4.000000,4.000000,4.000000,100.000000,,,,,,,,,,,,,,,,,,,,,,,,,,,,,,,,,,,,,,,,,,,,,,,,,,,,,,,,,,,,,,,
1656266112.212217,59.000000,0.000000,4265.128418,4226.153809,4090.769287,4073.846191,4206.666504,0.000000,4.000000,91.000000,,,,0.000000,4.000000,4.000000,4.000000,4.000000,4.000000,100.000000,,,,,,,,,,,,,,,,,,,,,,,,,,,,,,,,,,,,,,,,,,,,,,,,,,,,,,,,,,,,,,,
1656266112.220131,60.000000,0.000000,4268.205078,4231.282227,4090.769287,4076.410156,4222.563965,0.000000,4.000000,91.000000,,,,0.000000,4.000000,4.000000,4.000000,4.000000,4.000000,100.000000,,,,,,,,,,,,,,,,,,,,,,,,,,,,,,,,,,,,,,,,,,,,,,,,,,,,,,,,,,,,,,,
1656266112.227946,61.000000,0.000000,4275.384766,4238.974121,4091.281982,4072.307617,4227.692383,0.000000,4.000000,91.000000,,,,0.000000,4.000000,4.000000,4.000000,4.000000,4.000000,100.000000,,,,,,,,,,,,,,,,,,,,,,,,,,,,,,,,,,,,,,,,,,,,,,,,,,,,,,,,,,,,,,,
1656266112.235860,62.000000,0.000000,4268.717773,4237.436035,4097.436035,4062.051270,4223.077148,0.000000,4.000000,91.000000,,,,0.000000,4.000000,4.000000,4.000000,4.000000,4.000000,100.000000,,,,,,,,,,,,,,,,,,,,,,,,,,,,,,,,,,,,,,,,,,,,,,,,,,,,,,,,,,,,,,,
1656266112.243674,63.000000,0.000000,4266.666504,4233.333496,4103.077148,4070.769287,4229.230957,0.000000,4.000000,91.000000,,,,0.000000,4.000000,4.000000,4.000000,4.000000,4.000000,100.000000,,,,,,,,,,,,,,,,,,,,,,,,,,,,,,,,,,,,,,,,,,,,,,,,,,,,,,,,,,,,,,,
1656266112.251389,64.000000,0.000000,4278.461426,4235.384766,4103.077148,4084.615479,4228.205078,450.000000,4.000000,91.000000,,,,0.000000,4.000000,4.000000,4.000000,4.000000,4.000000,100.000000,,,,,,,,,,,,,,,,,,,,,,,,,,,,,,,,,,,,,,,2.362183,0.845281,0.737618,0.657183,0.442883,2.429518,0.639580,0.788707,1.014278,0.810129,2.359572,3.918464,3.156221,0.922840,0.451980,2.657307,0.624158,1.588353,0.949198,0.629996,1.225999,0.806771,0.887715,0.785806,0.500840
1656266112.259203,65.000000,0.000000,4281.538574,4235.384766,4095.897461,4080.512939,4219.487305,450.000000,4.000000,91.000000,,,,0.000000,4.000000,4.000000,4.000000,4.000000,4.000000,100.000000,,,,,,,,,,,,,,,,,,,,,,,,,,,,,,,,,,,,,,,,,,,,,,,,,,,,,,,,,,,,,,,
1656266112.266918,66.000000,0.000000,4275.897461,4232.820313,4088.205078,4070.256348,4226.153809,16189.000000,4.000000,91.000000,,,,0.000000,4.000000,4.000000,4.000000,4.000000,4.000000,100.000000,,,,,,,,,,,,,,,,,,,,,,,,,,,,,,,,,,,,,,,,,,,,,,,,,,,,,,,,,,,,,,,
1656266112.274732,67.000000,0.000000,4277.948730,4234.358887,4087.692383,4064.615479,4234.358887,450.000000,4.000000,91.000000,,,,0.000000,4.000000,4.000000,4.000000,4.000000,4.000000,100.000000,,,,,,,,,,,,,,,,,,,,,,,,,,,,,,,,,,,,,,,,,,,,,,,,,,,,,,,,,,,,,,,
1656266112.282447,68.000000,0.000000,4281.025879,4231.282227,4093.846191,4061.025635,4229.230957,16118.000000,4.000000,91.000000,,,,0.000000,4.000000,4.000000,4.000000,4.000000,4.000000,100.000000,,,,,,,,,,,,,,,,,,,,,,,,,,,,,,,,,,,,,,,,,,,,,,,,,,,,,,,,,,,,,,,
1656266112.290261,69.000000,0.000000,4271.794922,4219.487305,4098.461426,4058.974365,4220.512695,450.000000,4.000000,91.000000,,,,0.000000,4.000000,4.000000,4.000000,4.000000,4.000000,100.000000,,,,,,,,,,,,,,,,,,,,,,,,,,,,,,,,,,,,,,,,,,,,,,,,,,,,,,,,,,,,,,,
1656266112.297976,70.000000,0.000000,4262.563965,4210.769043,4100.000000,4063.076904,4212.820313,16189.000000,4.000000,91.000000,,,,0.000000,4.000000,4.000000,4.000000,4.000000,4.000000,100.000000,,,,,,,,,,,,,,,,,,,,,,,,,,,,,,,,,,,,,,,,,,,,,,,,,,,,,,,,,,,,,,,
1656266112.305890,71.000000,0.000000,4268.717773,4210.769043,4099.487305,4073.333252,4209.743652,450.000000,4.000000,91.000000,,,,0.000000,4.000000,4.000000,4.000000,4.000000,4.000000,100.000000,,,,,,,,,,,,,,,,,,,,,,,,,,,,,,,,,,,,,,,,,,,,,,,,,,,,,,,,,,,,,,,
1656266112.313704,72.000000,0.000000,4282.051270,4221.025879,4096.922852,4077.948730,4217.948730,450.000000,4.000000,91.000000,,,,0.000000,4.000000,4.000000,4.000000,4.000000,4.000000,100.000000,,,,,,,,,,,,,,,,,,,,,,,,,,,,,,,,,,,,,,,,,,,,,,,,,,,,,,,,,,,,,,,
1656266112.321519,73.000000,0.000000,4280.000000,4227.179688,4091.794922,4070.769287,4231.794922,16153.000000,4.000000,91.000000,,,,0.000000,4.000000,4.000000,4.000000,4.000000,4.000000,100.000000,,,,,,,,,,,,,,,,,,,,,,,,,,,,,,,,,,,,,,,,,,,,,,,,,,,,,,,,,,,,,,,
1656266112.329233,74.000000,0.000000,4274.871582,4222.051270,4089.743652,4066.153809,4232.307617,450.000000,4.000000,91.000000,,,,0.000000,4.000000,4.000000,4.000000,4.000000,4.000000,100.000000,,,,,,,,,,,,,,,,,,,,,,,,,,,,,,,,,,,,,,,,,,,,,,,,,,,,,,,,,,,,,,,
1656266112.337148,75.000000,0.000000,4283.077148,4225.641113,4095.384521,4064.102539,4225.128418,16218.000000,4.000000,91.000000,,,,0.000000,4.000000,4.000000,4.000000,4.000000,4.000000,100.000000,,,,,,,,,,,,,,,,,,,,,,,,,,,,,,,,,,,,,,,,,,,,,,,,,,,,,,,,,,,,,,,
1656266112.344962,76.000000,0.000000,4279.487305,4235.384766,4099.487305,4056.410156,4223.077148,450.000000,4.000000,91.000000,,,,0.000000,4.000000,4.000000,4.000000,4.000000,4.000000,100.000000,,,,,,,,,,,,,,,,,,,,,,,,,,,,,,,,,,,,,,,,,,,,,,,,,,,,,,,,,,,,,,,
1656266112.352876,77.000000,0.000000,4270.769043,4229.230957,4096.922852,4063.076904,4225.641113,450.000000,4.000000,91.000000,,,,0.000000,4.000000,4.000000,4.000000,4.000000,4.000000,100.000000,,,,,,,,,,,,,,,,,,,,,,,,,,,,,,,,,,,,,,,,,,,,,,,,,,,,,,,,,,,,,,,
1656266112.360691,78.000000,0.000000,4269.743652,4222.051270,4084.615479,4069.743652,4220.512695,450.000000,4.000000,91.000000,,,,0.000000,4.000000,4.000000,4.000000,4.000000,4.000000,100.000000,,,,,,,,,,,,,,,,,,,,,,,,,,,,,,,,,,,,,,,,,,,,,,,,,,,,,,,,,,,,,,,
1656266112.368605,79.000000,0.000000,4263.077148,4230.256348,4078.974365,4052.820557,4202.563965,16218.000000,4.000000,91.000000,,,,0.000000,4.000000,4.000000,4.000000,4.000000,4.000000,100.000000,,,,,,,,,,,,,,,,,,,,,,,,,,,,,,,,,,,,,,,,,,,,,,,,,,,,,,,,,,,,,,,
1656266112.376419,80.000000,0.000000,4265.641113,4234.871582,4089.230713,4058.461426,4200.000000,450.000000,4.000000,91.000000,,,,0.000000,4.000000,4.000000,4.000000,4.000000,4.000000,100.000000,,,,,,,,,,,,,,,,,,,,,,,,,,,,,,,,,,,,,,,1.936357,0.744237,0.688975,0.748603,0.432813,2.550737,0.666911,0.645858,0.943444,0.812054,2.034592,3.427753,3.013173,0.970713,0.452490,2.069198,0.749402,1.493364,0.989176,0.590544,1.076291,0.852408,0.804206,0.710854,0.539106
1656266112.384334,81.000000,0.000000,4288.717773,4227.692383,4095.897461,4091.794922,4220.000000,450.000000,4.000000,91.000000,,,,0.000000,4.000000,4.000000,4.000000,4.000000,4.000000,100.000000,,,,,,,,,,,,,,,,,,,,,,,,,,,,,,,,,,,,,,,,,,,,,,,,,,,,,,,,,,,,,,,
1656266112.392148,82.000000,0.000000,4293.333496,4225.128418,4086.666748,4091.281982,4231.794922,450.000000,4.000000,91.000000,,,,0.000000,4.000000,4.000000,4.000000,4.000000,4.000000,100.000000,,,,,,,,,,,,,,,,,,,,,,,,,,,,,,,,,,,,,,,,,,,,,,,,,,,,,,,,,,,,,,,
1656266112.400062,83.000000,0.000000,4268.717773,4226.153809,4076.923096,4058.974365,4213.333496,16218.000000,4.000000,91.000000,,,,0.000000,4.000000,4.000000,4.000000,4.000000,4.000000,100.000000,,,,,,,,,,,,,,,,,,,,,,,,,,,,,,,,,,,,,,,,,,,,,,,,,,,,,,,,,,,,,,,
1656266112.407877,84.000000,0.000000,4265.641113,4238.974121,4087.692383,4053.846191,4205.128418,450.000000,4.000000,91.000000,,,,0.000000,4.000000,4.000000,4.000000,4.000000,4.000000,100.000000,,,,,,,,,,,,,,,,,,,,,,,,,,,,,,,,,,,,,,,,,,,,,,,,,,,,,,,,,,,,,,,
1656266112.415691,85.000000,0.000000,4285.641113,4250.769043,4096.922852,4068.718018,4225.641113,450.000000,4.000000,91.000000,,,,0.000000,4.000000,4.000000,4.000000,4.000000,4.000000,100.000000,,,,,,,,,,,,,,,,,,,,,,,,,,,,,,,,,,,,,,,,,,,,,,,,,,,,,,,,,,,,,,,
1656266112.423406,86.000000,0.000000,4280.000000,4235.897461,4079.487061,4058.974365,4221.025879,450.000000,4.000000,91.000000,,,,0.000000,4.000000,4.000000,4.000000,4.000000,4.000000,100.000000,,,,,,,,,,,,,,,,,,,,,,,,,,,,,,,,,,,,,,,,,,,,,,,,,,,,,,,,,,,,,,,
1656266112.431320,87.000000,0.000000,4267.692383,4232.307617,4076.410156,4056.410156,4205.641113,16218.000000,4.000000,91.000000,,,,0.000000,4.000000,4.000000,4.000000,4.000000,4.000000,100.000000,,,,,,,,,,,,,,,,,,,,,,,,,,,,,,,,,,,,,,,,,,,,,,,,,,,,,,,,,,,,,,,
1656266112.439134,88.000000,0.000000,4276.922852,4254.358887,4090.256348,4078.461426,4218.461426,450.000000,4.000000,91.000000,,,,0.000000,4.000000,4.000000,4.000000,4.000000,4.000000,100.000000,,,,,,,,,,,,,,,,,,,,,,,,,,,,,,,,,,,,,,,,,,,,,,,,,,,,,,,,,,,,,,,
1656266112.446849,89.000000,0.000000,4291.282227,4258.461426,4085.128174,4092.307617,4235.897461,450.000000,4.000000,91.000000,,,,0.000000,4.000000,4.000000,4.000000,4.000000,4.000000,100.000000,,,,,,,,,,,,,,,,,,,,,,,,,,,,,,,,,,,,,,,,,,,,,,,,,,,,,,,,,,,,,,,
1656266112.454763,90.000000,0.000000,4297.436035,4245.128418,4082.564209,4092.820557,4233.333496,450.000000,4.000000,91.000000,,,,0.000000,4.000000,4.000000,4.000000,4.000000,4.000000,100.000000,,,,,,,,,,,,,,,,,,,,,,,,,,,,,,,,,,,,,,,,,,,,,,,,,,,,,,,,,,,,,,,
1656266112.462578,91.000000,0.000000,4291.794922,4242.563965,4093.333252,4092.307617,4228.717773,16218.000000,4.000000,91.000000,,,,0.000000,4.000000,4.000000,4.000000,4.000000,4.000000,100.000000,,,,,,,,,,,,,,,,,,,,,,,,,,,,,,,,,,,,,,,,,,,,,,,,,,,,,,,,,,,,,,,
1656266112.470392,92.000000,0.000000,4272.307617,4245.128418,4088.205078,4089.230713,4228.717773,450.000000,4.000000,91.000000,,,,0.000000,4.000000,4.000000,4.000000,4.000000,4.000000,100.000000,,,,,,,,,,,,,,,,,,,,,,,,,,,,,,,,,,,,,,,,,,,,,,,,,,,,,,,,,,,,,,,
1656266112.478107,93.000000,0.000000,4267.692383,4238.461426,4078.974365,4087.179443,4223.589844,450.000000,4.000000,91.000000,,,,0.000000,4.000000,4.000000,4.000000,4.000000,4.000000,100.000000,,,,,,,,,,,,,,,,,,,,,,,,,,,,,,,,,,,,,,,,,,,,,,,,,,,,,,,,,,,,,,,
1656266112.486021,94.000000,0.000000,4281.025879,4235.897461,4081.025635,4091.794922,4217.436035,450.000000,4.000000,91.000000,,,,0.000000,4.000000,4.000000,4.000000,4.000000,4.000000,100.000000,,,,,,,,,,,,,,,,,,,,,,,,,,,,,,,,,,,,,,,,,,,,,,,,,,,,,,,,,,,,,,,
1656266112.493835,95.000000,0.000000,4275.897461,4237.436035,4078.974365,4087.179443,4220.000000,16218.000000,4.000000,91.000000,,,,0.000000,4.000000,4.000000,4.000000,4.000000,4.000000,100.000000,,,,,,,,,,,,,,,,,,,,,,,,,,,,,,,,,,,,,,,,,,,,,,,,,,,,,,,,,,,,,,,
1656266112.501750,96.000000,0.000000,4268.717773,4235.384766,4078.461426,4072.820557,4229.230957,450.000000,4.000000,91.000000,,,,0.000000,4.000000,4.000000,4.000000,4.000000,4.000000,100.000000,1.000000,100.000000,4.000000,4.000000,4.000000,4.000000,4.000000,,,,,,,,,,,,,,,,,,,,,,,,,,,,,,,,1.623859,0.752678,0.726780,0.894676,0.435946,2.626209,0.714503,0.533613,0.868490,0.789422,1.742126,2.691564,2.951443,1.017794,0.431082,1.605830,0.973211,1.510681,1.076797,0.574047,0.949159,1.000101,0.937969,0.724747,0.581502
1656266112.509564,97.000000,0.000000,4291.282227,4238.461426,4086.153809,4066.666748,4235.897461,450.000000,4.000000,91.000000,,,,0.000000,4.000000,4.000000,4.000000,4.000000,4.000000,100.000000,,,,,,,,,,,,,,,,,,,,,,,,,,,,,,,,,,,,,,,,,,,,,,,,,,,,,,,,,,,,,,,
1656266112.517478,98.000000,0.000000,4299.487305,4243.589844,4089.743652,4075.384521,4234.358887,450.000000,4.000000,91.000000,,,,0.000000,4.000000,4.000000,4.000000,4.000000,4.000000,100.000000,,,,,,,,,,,,,,,,,,,,,,,,,,,,,,,,,,,,,,,,,,,,,,,,,,,,,,,,,,,,,,,
1656266112.525293,99.000000,0.000000,4283.077148,4238.461426,4087.692383,4085.641113,4234.871582,16218.000000,4.000000,91.000000,,,,0.000000,4.000000,4.000000,4.000000,4.000000,4.000000,100.000000,,,,,,,,,,,,,,,,,,,,,,,,,,,,,,,,,,,,,,,,,,,,,,,,,,,,,,,,,,,,,,,
1656266112.533207,100.000000,0.000000,4288.717773,4236.922852,4078.461426,4079.487061,4241.025879,450.000000,4.000000,91.000000,,,,0.000000,4.000000,4.000000,4.000000,4.000000,4.000000,100.000000,,,,,,,,,,,,,,,,,,,,,,,,,,,,,,,,,,,,,,,,,,,,,,,,,,,,,,,,,,,,,,,
1656266112.541021,101.000000,0.000000,4296.410156,4245.641113,4069.230713,4071.794922,4230.256348,450.000000,4.000000,91.000000,,,,0.000000,4.000000,4.000000,4.000000,4.000000,4.000000,100.000000,,,,,,,,,,,,,,,,,,,,,,,,,,,,,,,,,,,,,,,,,,,,,,,,,,,,,,,,,,,,,,,
1656266112.548836,102.000000,0.000000,4285.128418,4250.769043,4077.435791,4084.615479,4220.512695,450.000000,4.000000,91.000000,,,,0.000000,4.000000,4.000000,4.000000,4.000000,4.000000,100.000000,,,,,,,,,,,,,,,,,,,,,,,,,,,,,,,,,,,,,,,,,,,,,,,,,,,,,,,,,,,,,,,
1656266112.556550,103.000000,0.000000,4287.179688,4245.641113,4090.256348,4095.897461,4241.025879,16218.000000,4.000000,91.000000,,,,0.000000,4.000000,4.000000,4.000000,4.000000,4.000000,100.000000,,,,,,,,,,,,,,,,,,,,,,,,,,,,,,,,,,,,,,,,,,,,,,,,,,,,,,,,,,,,,,,
1656266112.564465,104.000000,0.000000,4293.846191,4236.410156,4090.769287,4086.666748,4250.256348,450.000000,4.000000,91.000000,,,,0.000000,4.000000,4.000000,4.000000,4.000000,4.000000,100.000000,,,,,,,,,,,,,,,,,,,,,,,,,,,,,,,,,,,,,,,,,,,,,,,,,,,,,,,,,,,,,,,
1656266112.572279,105.000000,0.000000,4285.641113,4236.410156,4087.179443,4082.051270,4234.358887,450.000000,4.000000,91.000000,,,,0.000000,4.000000,4.000000,4.000000,4.000000,4.000000,100.000000,,,,,,,,,,,,,,,,,,,,,,,,,,,,,,,,,,,,,,,,,,,,,,,,,,,,,,,,,,,,,,,
1656266112.580193,106.000000,0.000000,4278.974121,4244.615234,4080.000000,4085.128174,4223.589844,450.000000,4.000000,91.000000,,,,0.000000,4.000000,4.000000,4.000000,4.000000,4.000000,100.000000,,,,,,,,,,,,,,,,,,,,,,,,,,,,,,,,,,,,,,,,,,,,,,,,,,,,,,,,,,,,,,,
1656266112.588008,107.000000,0.000000,4286.666504,4243.077148,4084.615479,4078.461426,4228.205078,16218.000000,4.000000,91.000000,,,,0.000000,4.000000,4.000000,4.000000,4.000000,4.000000,100.000000,,,,,,,,,,,,,,,,,,,,,,,,,,,,,,,,,,,,,,,,,,,,,,,,,,,,,,,,,,,,,,,
1656266112.595822,108.000000,0.000000,4297.436035,4246.666504,4106.666504,4083.076904,4242.051270,450.000000,4.000000,91.000000,,,,0.000000,4.000000,4.000000,4.000000,4.000000,4.000000,100.000000,,,,,,,,,,,,,,,,,,,,,,,,,,,,,,,,,,,,,,,,,,,,,,,,,,,,,,,,,,,,,,,
1656266112.603537,109.000000,0.000000,4287.179688,4257.948730,4106.153809,4092.307617,4242.051270,450.000000,4.000000,91.000000,,,,0.000000,4.000000,4.000000,4.000000,4.000000,4.000000,100.000000,,,,,,,,,,,,,,,,,,,,,,,,,,,,,,,,,,,,,,,,,,,,,,,,,,,,,,,,,,,,,,,
1656266112.611251,110.000000,0.000000,4273.846191,4256.410156,4086.153809,4084.102539,4234.871582,450.000000,4.000000,91.000000,,,,0.000000,4.000000,4.000000,4.000000,4.000000,4.000000,100.000000,,,,,,,,,,,,,,,,,,,,,,,,,,,,,,,,,,,,,,,,,,,,,,,,,,,,,,,,,,,,,,,
1656266112.619066,111.000000,0.000000,4284.102539,4246.666504,4084.102539,4079.487061,4243.589844,16218.000000,4.000000,91.000000,,,,0.000000,4.000000,4.000000,4.000000,4.000000,4.000000,100.000000,,,,,,,,,,,,,,,,,,,,,,,,,,,,,,,,,,,,,,,,,,,,,,,,,,,,,,,,,,,,,,,
1656266112.626780,112.000000,0.000000,4289.743652,4242.563965,4083.076904,4087.692383,4245.641113,450.000000,4.000000,91.000000,,,,0.000000,4.000000,4.000000,4.000000,4.000000,4.000000,100.000000,,,,,,,,,,,,,,,,,,,,,,,,,,,,,,,,,,,,,,,1.536344,0.864050,0.855704,1.054541,0.456875,2.668621,0.747154,0.488027,0.793870,0.741544,1.494986,1.922643,3.034035,1.043491,0.392426,1.294013,1.224593,1.685310,1.172090,0.579475,0.898219,1.212856,1.223981,0.815029,0.611862
1656266112.634594,113.000000,0.000000,4284.615234,4248.717773,4077.948730,4094.358887,4229.230957,450.000000,4.000000,91.000000,,,,0.000000,4.000000,4.000000,4.000000,4.000000,4.000000,100.000000,,,,,,,,,,,,,,,,,,,,,,,,,,,,,,,,,,,,,,,,,,,,,,,,,,,,,,,,,,,,,,,
1656266112.642309,114.000000,0.000000,4283.077148,4256.922852,4082.564209,4086.666748,4221.538574,450.000000,4.000000,91.000000,,,,0.000000,4.000000,4.000000,4.000000,4.000000,4.000000,100.000000,,,,,,,,,,,,,,,,,,,,,,,,,,,,,,,,,,,,,,,,,,,,,,,,,,,,,,,,,,,,,,,
1656266112.650223,115.000000,0.000000,4270.769043,4250.256348,4080.000000,4070.769287,4218.461426,16218.000000,4.000000,91.000000,,,,0.000000,4.000000,4.000000,4.000000,4.000000,4.000000,100.000000,,,,,,,,,,,,,,,,,,,,,,,,,,,,,,,,,,,,,,,,,,,,,,,,,,,,,,,,,,,,,,,
1656266112.658038,116.000000,0.000000,4261.025879,4245.128418,4069.230713,4065.128174,4218.461426,450.000000,4.000000,91.000000,,,,0.000000,4.000000,4.000000,4.000000,4.000000,4.000000,100.000000,,,,,,,,,,,,,,,,,,,,,,,,,,,,,,,,,,,,,,,,,,,,,,,,,,,,,,,,,,,,,,,
1656266112.665952,117.000000,0.000000,4277.436035,4254.871582,4074.358887,4075.897461,4230.769043,450.000000,4.000000,91.000000,,,,0.000000,4.000000,4.000000,4.000000,4.000000,4.000000,100.000000,,,,,,,,,,,,,,,,,,,,,,,,,,,,,,,,,,,,,,,,,,,,,,,,,,,,,,,,,,,,,,,
1656266112.673766,118.000000,0.000000,4296.922852,4260.000000,4086.153809,4092.307617,4238.974121,450.000000,4.000000,91.000000,,,,0.000000,4.000000,4.000000,4.000000,4.000000,4.000000,100.000000,,,,,,,,,,,,,,,,,,,,,,,,,,,,,,,,,,,,,,,,,,,,,,,,,,,,,,,,,,,,,,,
1656266112.681581,119.000000,0.000000,4299.487305,4251.794922,4089.743652,4096.410156,4238.461426,16218.000000,4.000000,91.000000,,,,0.000000,4.000000,4.000000,4.000000,4.000000,4.000000,100.000000,,,,,,,,,,,,,,,,,,,,,,,,,,,,,,,,,,,,,,,,,,,,,,,,,,,,,,,,,,,,,,,
1656266112.689295,120.000000,0.000000,4299.487305,4254.358887,4103.077148,4098.461426,4243.589844,450.000000,4.000000,91.000000,,,,0.000000,4.000000,4.000000,4.000000,4.000000,4.000000,100.000000,,,,,,,,,,,,,,,,,,,,,,,,,,,,,,,,,,,,,,,,,,,,,,,,,,,,,,,,,,,,,,,
1656266112.697110,121.000000,0.000000,4302.563965,4264.615234,4110.769043,4103.077148,4248.717773,450.000000,4.000000,91.000000,,,,0.000000,4.000000,4.000000,4.000000,4.000000,4.000000,100.000000,,,,,,,,,,,,,,,,,,,,,,,,,,,,,,,,,,,,,,,,,,,,,,,,,,,,,,,,,,,,,,,
1656266112.704824,122.000000,0.000000,4298.461426,4262.051270,4092.820557,4097.436035,4242.563965,450.000000,4.000000,91.000000,,,,0.000000,4.000000,4.000000,4.000000,4.000000,4.000000,100.000000,,,,,,,,,,,,,,,,,,,,,,,,,,,,,,,,,,,,,,,,,,,,,,,,,,,,,,,,,,,,,,,
1656266112.712639,123.000000,0.000000,4290.769043,4258.974121,4073.846191,4092.820557,4237.436035,16218.000000,4.000000,91.000000,,,,0.000000,4.000000,4.000000,4.000000,4.000000,4.000000,100.000000,,,,,,,,,,,,,,,,,,,,,,,,,,,,,,,,,,,,,,,,,,,,,,,,,,,,,,,,,,,,,,,
1656266112.720353,124.000000,0.000000,4280.512695,4253.333496,4072.307617,4089.230713,4229.743652,450.000000,4.000000,91.000000,,,,0.000000,4.000000,4.000000,4.000000,4.000000,4.000000,100.000000,,,,,,,,,,,,,,,,,,,,,,,,,,,,,,,,,,,,,,,,,,,,,,,,,,,,,,,,,,,,,,,
1656266112.728267,125.000000,0.000000,4277.948730,4247.179688,4085.128174,4080.512939,4224.615234,450.000000,4.000000,91.000000,,,,0.000000,4.000000,4.000000,4.000000,4.000000,4.000000,100.000000,,,,,,,,,,,,,,,,,,,,,,,,,,,,,,,,,,,,,,,,,,,,,,,,,,,,,,,,,,,,,,,
1656266112.736082,126.000000,0.000000,4289.230957,4257.948730,4096.922852,4080.000000,4231.282227,450.000000,4.000000,91.000000,,,,0.000000,4.000000,4.000000,4.000000,4.000000,4.000000,100.000000,,,,,,,,,,,,,,,,,,,,,,,,,,,,,,,,,,,,,,,,,,,,,,,,,,,,,,,,,,,,,,,
1656266112.743896,127.000000,0.000000,4285.641113,4263.077148,4090.769287,4089.743652,4236.410156,242.000000,4.000000,91.000000,,,,0.000000,4.000000,4.000000,4.000000,4.000000,4.000000,100.000000,,,,,,,,,,,,,,,,,,,,,,,,,,,,,,,,,,,,,,,,,,,,,,,,,,,,,,,,,,,,,,,
1656266112.751611,0.000000,0.000000,4257.948730,4248.205078,4071.281982,4089.230713,4223.077148,450.000000,4.000000,91.000000,,,,0.000000,4.000000,4.000000,4.000000,4.000000,4.000000,100.000000,,,,,,,,,,,,,,,,,,,,,,,,,,,,,,,,,,,,,,,1.580709,1.031190,1.042427,1.183735,0.496433,2.593374,0.750454,0.503110,0.719827,0.672104,1.254177,1.290925,3.178654,1.029100,0.348128,1.077250,1.419544,1.977556,1.231511,0.597150,0.865202,1.425764,1.545978,0.947803,0.619400
1656266112.759525,1.000000,0.000000,4238.461426,4236.922852,4066.153809,4074.871826,4194.358887,450.000000,4.000000,91.000000,,,,0.000000,4.000000,4.000000,4.000000,4.000000,4.000000,100.000000,,,,,,,,,,,,,,,,,,,,,,,,,,,,,,,,,,,,,,,,,,,,,,,,,,,,,,,,,,,,,,,
1656266112.767340,2.000000,0.000000,4244.615234,4241.538574,4083.076904,4071.281982,4181.538574,16249.000000,4.000000,91.000000,,,,0.000000,4.000000,4.000000,4.000000,4.000000,4.000000,100.000000,,,,,,,,,,,,,,,,,,,,,,,,,,,,,,,,,,,,,,,,,,,,,,,,,,,,,,,,,,,,,,,
1656266112.775254,3.000000,0.000000,4259.487305,4243.077148,4089.230713,4080.512939,4197.948730,450.000000,4.000000,91.000000,,,,0.000000,4.000000,4.000000,4.000000,4.000000,4.000000,100.000000,,,,,,,,,,,,,,,,,,,,,,,,,,,,,,,,,,,,,,,,,,,,,,,,,,,,,,,,,,,,,,,
1656266112.783168,4.000000,0.000000,4266.153809,4243.077148,4078.461426,4077.435791,4217.436035,16175.000000,4.000000,91.000000,,,,0.000000,4.000000,4.000000,4.000000,4.000000,4.000000,100.000000,,,,,,,,,,,,,,,,,,,,,,,,,,,,,,,,,,,,,,,,,,,,,,,,,,,,,,,,,,,,,,,
1656266112.791082,5.000000,0.000000,4271.794922,4251.282227,4078.461426,4068.718018,4225.641113,450.000000,4.000000,91.000000,,,,0.000000,4.000000,4.000000,4.000000,4.000000,4.000000,100.000000,,,,,,,,,,,,,,,,,,,,,,,,,,,,,,,,,,,,,,,,,,,,,,,,,,,,,,,,,,,,,,,
1656266112.798897,6.000000,0.000000,4277.948730,4261.538574,4085.128174,4070.769287,4230.769043,16213.000000,4.000000,91.000000,,,,0.000000,4.000000,4.000000,4.000000,4.000000,4.000000,100.000000,,,,,,,,,,,,,,,,,,,,,,,,,,,,,,,,,,,,,,,,,,,,,,,,,,,,,,,,,,,,,,,
1656266112.806711,7.000000,0.000000,4274.358887,4265.641113,4079.487061,4069.743652,4220.000000,450.000000,4.000000,91.000000,,,,0.000000,4.000000,4.000000,4.000000,4.000000,4.000000,100.000000,,,,,,,,,,,,,,,,,,,,,,,,,,,,,,,,,,,,,,,,,,,,,,,,,,,,,,,,,,,,,,,
1656266112.814626,8.000000,0.000000,4265.641113,4259.487305,4076.410156,4067.179443,4201.538574,450.000000,4.000000,91.000000,,,,0.000000,4.000000,4.000000,4.000000,4.000000,4.000000,100.000000,,,,,,,,,,,,,,,,,,,,,,,,,,,,,,,,,,,,,,,,,,,,,,,,,,,,,,,,,,,,,,,
1656266112.822440,9.000000,0.000000,4261.538574,4251.794922,4080.000000,4070.769287,4208.205078,16189.000000,4.000000,91.000000,,,,0.000000,4.000000,4.000000,4.000000,4.000000,4.000000,100.000000,,,,,,,,,,,,,,,,,,,,,,,,,,,,,,,,,,,,,,,,,,,,,,,,,,,,,,,,,,,,,,,
1656266112.830354,10.000000,0.000000,4264.615234,4248.205078,4083.076904,4071.281982,4222.563965,450.000000,4.000000,91.000000,,,,0.000000,4.000000,4.000000,4.000000,4.000000,4.000000,100.000000,,,,,,,,,,,,,,,,,,,,,,,,,,,,,,,,,,,,,,,,,,,,,,,,,,,,,,,,,,,,,,,
1656266112.838169,11.000000,0.000000,4262.051270,4239.487305,4082.051270,4071.794922,4210.256348,16188.000000,4.000000,91.000000,,,,0.000000,4.000000,4.000000,4.000000,4.000000,4.000000,100.000000,,,,,,,,,,,,,,,,,,,,,,,,,,,,,,,,,,,,,,,,,,,,,,,,,,,,,,,,,,,,,,,
1656266112.846083,12.000000,0.000000,4252.820313,4237.436035,4081.538574,4074.358887,4201.538574,450.000000,4.000000,91.000000,,,,0.000000,4.000000,4.000000,4.000000,4.000000,4.000000,100.000000,,,,,,,,,,,,,,,,,,,,,,,,,,,,,,,,,,,,,,,,,,,,,,,,,,,,,,,,,,,,,,,
1656266112.853897,13.000000,0.000000,4262.563965,4258.461426,4097.436035,4078.974365,4224.102539,450.000000,4.000000,91.000000,,,,0.000000,4.000000,4.000000,4.000000,4.000000,4.000000,100.000000,,,,,,,,,,,,,,,,,,,,,,,,,,,,,,,,,,,,,,,,,,,,,,,,,,,,,,,,,,,,,,,
1656266112.861812,14.000000,0.000000,4283.077148,4272.820313,4108.717773,4083.076904,4243.077148,450.000000,4.000000,91.000000,,,,0.000000,4.000000,4.000000,4.000000,4.000000,4.000000,100.000000,,,,,,,,,,,,,,,,,,,,,,,,,,,,,,,,,,,,,,,,,,,,,,,,,,,,,,,,,,,,,,,
1656266112.869626,15.000000,0.000000,4287.179688,4256.922852,4098.461426,4082.051270,4244.615234,16188.000000,4.000000,91.000000,,,,0.000000,4.000000,4.000000,4.000000,4.000000,4.000000,100.000000,,,,,,,,,,,,,,,,,,,,,,,,,,,,,,,,,,,,,,,,,,,,,,,,,,,,,,,,,,,,,,,
1656266112.877540,16.000000,0.000000,4284.615234,4250.256348,4088.718018,4078.974365,4247.692383,0.000000,4.000000,91.000000,,,,0.000000,4.000000,4.000000,4.000000,4.000000,4.000000,100.000000,,,,,,,,,,,,,,,,,,,,,,,,,,,,,,,,,,,,,,,1.671719,1.179810,1.213901,1.245641,0.550593,2.402700,0.739183,0.538542,0.641077,0.590233,1.028122,0.881730,3.222472,0.968463,0.311473,0.953741,1.497797,2.282744,1.223457,0.614769,0.865990,1.574879,1.786136,1.069508,0.603950
1656266112.885355,17.000000,0.000000,4283.589844,4260.512695,4085.641113,4073.846191,4239.487305,0.000000,4.000000,91.000000,,,,0.000000,4.000000,4.000000,4.000000,4.000000,4.000000,100.000000,,,,,,,,,,,,,,,,,,,,,,,,,,,,,,,,,,,,,,,,,,,,,,,,,,,,,,,,,,,,,,,
1656266112.893269,18.000000,0.000000,4285.128418,4260.512695,4086.153809,4073.846191,4223.589844,0.000000,4.000000,91.000000,,,,0.000000,4.000000,4.000000,4.000000,4.000000,4.000000,100.000000,,,,,,,,,,,,,,,,,,,,,,,,,,,,,,,,,,,,,,,,,,,,,,,,,,,,,,,,,,,,,,,
1656266112.901183,19.000000,0.000000,4284.102539,4248.205078,4092.307617,4080.512939,4222.051270,0.000000,4.000000,91.000000,,,,0.000000,4.000000,4.000000,4.000000,4.000000,4.000000,100.000000,,,,,,,,,,,,,,,,,,,,,,,,,,,,,,,,,,,,,,,,,,,,,,,,,,,,,,,,,,,,,,,
1656266112.908998,20.000000,0.000000,4280.000000,4247.692383,4097.948730,4082.051270,4226.666504,0.000000,4.000000,91.000000,,,,0.000000,4.000000,4.000000,4.000000,4.000000,4.000000,100.000000,,,,,,,,,,,,,,,,,,,,,,,,,,,,,,,,,,,,,,,,,,,,,,,,,,,,,,,,,,,,,,,
1656266112.916812,21.000000,0.000000,4286.153809,4259.487305,4095.384521,4080.512939,4222.051270,0.000000,4.000000,91.000000,,,,0.000000,4.000000,4.000000,4.000000,4.000000,4.000000,100.000000,,,,,,,,,,,,,,,,,,,,,,,,,,,,,,,,,,,,,,,,,,,,,,,,,,,,,,,,,,,,,,,
1656266112.924727,22.000000,0.000000,4291.794922,4254.358887,4093.846191,4085.641113,4214.871582,0.000000,4.000000,91.000000,,,,0.000000,4.000000,4.000000,4.000000,4.000000,4.000000,100.000000,,,,,,,,,,,,,,,,,,,,,,,,,,,,,,,,,,,,,,,,,,,,,,,,,,,,,,,,,,,,,,,
1656266112.932541,23.000000,0.000000,4285.641113,4247.692383,4096.922852,4094.871826,4218.461426,0.000000,4.000000,91.000000,,,,0.000000,4.000000,4.000000,4.000000,4.000000,4.000000,100.000000,,,,,,,,,,,,,,,,,,,,,,,,,,,,,,,,,,,,,,,,,,,,,,,,,,,,,,,,,,,,,,,
1656266112.940455,24.000000,0.000000,4277.436035,4253.333496,4100.000000,4094.358887,4218.974121,0.000000,4.000000,91.000000,,,,0.000000,4.000000,4.000000,4.000000,4.000000,4.000000,100.000000,,,,,,,,,,,,,,,,,,,,,,,,,,,,,,,,,,,,,,,,,,,,,,,,,,,,,,,,,,,,,,,
1656266112.948370,25.000000,0.000000,4269.743652,4247.179688,4105.128418,4083.076904,4201.025879,0.000000,4.000000,91.000000,,,,0.000000,4.000000,4.000000,4.000000,4.000000,4.000000,100.000000,,,,,,,,,,,,,,,,,,,,,,,,,,,,,,,,,,,,,,,,,,,,,,,,,,,,,,,,,,,,,,,
1656266112.956184,26.000000,0.000000,4271.282227,4235.384766,4110.256348,4076.923096,4196.922852,0.000000,4.000000,91.000000,,,,0.000000,4.000000,4.000000,4.000000,4.000000,4.000000,100.000000,,,,,,,,,,,,,,,,,,,,,,,,,,,,,,,,,,,,,,,,,,,,,,,,,,,,,,,,,,,,,,,
1656266112.964098,27.000000,0.000000,4289.743652,4241.538574,4107.692383,4081.025635,4214.871582,0.000000,4.000000,91.000000,,,,0.000000,4.000000,4.000000,4.000000,4.000000,4.000000,100.000000,,,,,,,,,,,,,,,,,,,,,,,,,,,,,,,,,,,,,,,,,,,,,,,,,,,,,,,,,,,,,,,
1656266112.971913,28.000000,0.000000,4299.487305,4248.717773,4103.589844,4084.615479,4224.102539,0.000000,4.000000,91.000000,,,,0.000000,4.000000,4.000000,4.000000,4.000000,4.000000,100.000000,,,,,,,,,,,,,,,,,,,,,,,,,,,,,,,,,,,,,,,,,,,,,,,,,,,,,,,,,,,,,,,
1656266112.979827,29.000000,0.000000,4294.358887,4239.487305,4100.000000,4072.820557,4215.897461,0.000000,4.000000,91.000000,,,,0.000000,4.000000,4.000000,4.000000,4.000000,4.000000,100.000000,,,,,,,,,,,,,,,,,,,,,,,,,,,,,,,,,,,,,,,,,,,,,,,,,,,,,,,,,,,,,,,
1656266112.987641,30.000000,0.000000,4293.333496,4236.922852,4098.461426,4067.179443,4211.282227,0.000000,4.000000,91.000000,,,,0.000000,4.000000,4.000000,4.000000,4.000000,4.000000,100.000000,,,,,,,,,,,,,,,,,,,,,,,,,,,,,,,,,,,,,,,,,,,,,,,,,,,,,,,,,,,,,,,
1656266112.995556,31.000000,0.000000,4282.563965,4244.615234,4098.461426,4077.435791,4217.436035,0.000000,4.000000,91.000000,,,,0.000000,4.000000,4.000000,4.000000,4.000000,4.000000,100.000000,,,,,,,,,,,,,,,,,,,,,,,,,,,,,,,,,,,,,,,,,,,,,,,,,,,,,,,,,,,,,,,
1656266113.003370,32.000000,0.000000,4260.000000,4242.051270,4097.948730,4075.384521,4213.846191,0.000000,4.000000,91.000000,,,,0.000000,4.000000,4.000000,4.000000,4.000000,4.000000,100.000000,1.000000,100.000000,4.000000,4.000000,4.000000,4.000000,4.000000,,,,,,,,,,,,,,,,,,,,,,,,,,,,,,,,1.740001,1.269465,1.288257,1.227388,0.611037,2.135580,0.739221,0.546736,0.553322,0.509320,0.817815,0.688952,3.027117,0.880967,0.292150,0.909648,1.452448,2.488110,1.142707,0.626344,0.895811,1.626764,1.844714,1.135964,0.576835
1656266113.011284,33.000000,0.000000,4258.974121,4243.589844,4097.436035,4068.718018,4202.051270,0.000000,4.000000,91.000000,,,,0.000000,4.000000,4.000000,4.000000,4.000000,4.000000,100.000000,,,,,,,,,,,,,,,,,,,,,,,,,,,,,,,,,,,,,,,,,,,,,,,,,,,,,,,,,,,,,,,
1656266113.019099,34.000000,0.000000,4258.974121,4254.358887,4088.205078,4069.230713,4194.358887,0.000000,4.000000,91.000000,,,,0.000000,4.000000,4.000000,4.000000,4.000000,4.000000,100.000000,,,,,,,,,,,,,,,,,,,,,,,,,,,,,,,,,,,,,,,,,,,,,,,,,,,,,,,,,,,,,,,
1656266113.027013,35.000000,0.000000,4237.436035,4243.077148,4080.000000,4065.641113,4179.487305,0.000000,4.000000,91.000000,,,,0.000000,4.000000,4.000000,4.000000,4.000000,4.000000,100.000000,,,,,,,,,,,,,,,,,,,,,,,,,,,,,,,,,,,,,,,,,,,,,,,,,,,,,,,,,,,,,,,
1656266113.034828,36.000000,0.000000,4238.461426,4230.256348,4093.846191,4064.102539,4180.000000,0.000000,4.000000,91.000000,,,,0.000000,4.000000,4.000000,4.000000,4.000000,4.000000,100.000000,,,,,,,,,,,,,,,,,,,,,,,,,,,,,,,,,,,,,,,,,,,,,,,,,,,,,,,,,,,,,,,
1656266113.042742,37.000000,0.000000,4265.128418,4243.589844,4110.256348,4073.333252,4212.820313,0.000000,4.000000,91.000000,,,,0.000000,4.000000,4.000000,4.000000,4.000000,4.000000,100.000000,,,,,,,,,,,,,,,,,,,,,,,,,,,,,,,,,,,,,,,,,,,,,,,,,,,,,,,,,,,,,,,
1656266113.050556,38.000000,0.000000,4280.000000,4260.512695,4112.820313,4087.179443,4234.358887,0.000000,4.000000,91.000000,,,,0.000000,4.000000,4.000000,4.000000,4.000000,4.000000,100.000000,,,,,,,,,,,,,,,,,,,,,,,,,,,,,,,,,,,,,,,,,,,,,,,,,,,,,,,,,,,,,,,
1656266113.058471,39.000000,0.000000,4274.871582,4255.384766,4121.025879,4085.128174,4209.230957,0.000000,4.000000,91.000000,,,,0.000000,4.000000,4.000000,4.000000,4.000000,4.000000,100.000000,,,,,,,,,,,,,,,,,,,,,,,,,,,,,,,,,,,,,,,,,,,,,,,,,,,,,,,,,,,,,,,
1656266113.066385,40.000000,0.000000,4268.717773,4238.461426,4125.641113,4065.128174,4187.179688,0.000000,4.000000,91.000000,,,,0.000000,4.000000,4.000000,4.000000,4.000000,4.000000,100.000000,,,,,,,,,,,,,,,,,,,,,,,,,,,,,,,,,,,,,,,,,,,,,,,,,,,,,,,,,,,,,,,
1656266113.074199,41.000000,0.000000,4273.846191,4233.846191,4113.846191,4063.076904,4205.641113,0.000000,4.000000,91.000000,,,,0.000000,4.000000,4.000000,4.000000,4.000000,4.000000,100.000000,,,,,,,,,,,,,,,,,,,,,,,,,,,,,,,,,,,,,,,,,,,,,,,,,,,,,,,,,,,,,,,
1656266113.082014,42.000000,0.000000,4278.974121,4244.102539,4103.077148,4083.589844,4224.615234,0.000000,4.000000,91.000000,,,,0.000000,4.000000,4.000000,4.000000,4.000000,4.000000,100.000000,,,,,,,,,,,,,,,,,,,,,,,,,,,,,,,,,,,,,,,,,,,,,,,,,,,,,,,,,,,,,,,
1656266113.089928,43.000000,0.000000,4273.333496,4255.897461,4105.641113,4086.666748,4216.922852,0.000000,4.000000,91.000000,,,,0.000000,4.000000,4.000000,4.000000,4.000000,4.000000,100.000000,,,,,,,,,,,,,,,,,,,,,,,,,,,,,,,,,,,,,,,,,,,,,,,,,,,,,,,,,,,,,,,
1656266113.097842,44.000000,0.000000,4272.820313,4259.487305,4111.282227,4089.230713,4207.692383,0.000000,4.000000,91.000000,,,,0.000000,4.000000,4.000000,4.000000,4.000000,4.000000,100.000000,,,,,,,,,,,,,,,,,,,,,,,,,,,,,,,,,,,,,,,,,,,,,,,,,,,,,,,,,,,,,,,
1656266113.105657,45.000000,0.000000,4275.897461,4254.871582,4107.179688,4091.281982,4203.589844,0.000000,4.000000,91.000000,,,,0.000000,4.000000,4.000000,4.000000,4.000000,4.000000,100.000000,,,,,,,,,,,,,,,,,,,,,,,,,,,,,,,,,,,,,,,,,,,,,,,,,,,,,,,,,,,,,,,
1656266113.113571,46.000000,0.000000,4278.974121,4246.666504,4104.102539,4075.897461,4205.641113,0.000000,4.000000,91.000000,,,,0.000000,4.000000,4.000000,4.000000,4.000000,4.000000,100.000000,,,,,,,,,,,,,,,,,,,,,,,,,,,,,,,,,,,,,,,,,,,,,,,,,,,,,,,,,,,,,,,
1656266113.121385,47.000000,0.000000,4287.692383,4247.692383,4095.897461,4082.564209,4229.743652,0.000000,4.000000,91.000000,,,,0.000000,4.000000,4.000000,4.000000,4.000000,4.000000,100.000000,,,,,,,,,,,,,,,,,,,,,,,,,,,,,,,,,,,,,,,,,,,,,,,,,,,,,,,,,,,,,,,
1656266113.129200,48.000000,0.000000,4283.589844,4257.948730,4085.641113,4100.512695,4252.820313,0.000000,4.000000,91.000000,,,,0.000000,4.000000,4.000000,4.000000,4.000000,4.000000,100.000000,,,,,,,,,,,,,,,,,,,,,,,,,,,,,,,,,,,,,,,1.791899,1.335144,1.226002,1.148632,0.664867,1.842808,0.764033,0.511310,0.465117,0.443840,0.651068,0.656030,2.562948,0.805768,0.292049,0.936963,1.324076,2.525988,1.009415,0.630375,0.974405,1.609001,1.706152,1.150206,0.554664
1656266113.136914,49.000000,0.000000,4273.846191,4260.512695,4100.512695,4093.846191,4247.179688,0.000000,4.000000,91.000000,,,,0.000000,4.000000,4.000000,4.000000,4.000000,4.000000,100.000000,,,,,,,,,,,,,,,,,,,,,,,,,,,,,,,,,,,,,,,,,,,,,,,,,,,,,,,,,,,,,,,
1656266113.144829,50.000000,0.000000,4280.000000,4258.461426,4112.820313,4084.102539,4235.897461,0.000000,4.000000,91.000000,,,,0.000000,4.000000,4.000000,4.000000,4.000000,4.000000,100.000000,,,,,,,,,,,,,,,,,,,,,,,,,,,,,,,,,,,,,,,,,,,,,,,,,,,,,,,,,,,,,,,
1656266113.152643,51.000000,0.000000,4283.589844,4253.846191,4096.410156,4083.589844,4229.230957,0.000000,4.000000,91.000000,,,,0.000000,4.000000,4.000000,4.000000,4.000000,4.000000,100.000000,,,,,,,,,,,,,,,,,,,,,,,,,,,,,,,,,,,,,,,,,,,,,,,,,,,,,,,,,,,,,,,
1656266113.160557,52.000000,0.000000,4281.538574,4246.666504,4095.384521,4076.410156,4223.589844,0.000000,4.000000,91.000000,,,,0.000000,4.000000,4.000000,4.000000,4.000000,4.000000,100.000000,,,,,,,,,,,,,,,,,,,,,,,,,,,,,,,,,,,,,,,,,,,,,,,,,,,,,,,,,,,,,,,
1656266113.168372,53.000000,0.000000,4290.256348,4246.153809,4120.000000,4083.589844,4228.205078,0.000000,4.000000,91.000000,,,,0.000000,4.000000,4.000000,4.000000,4.000000,4.000000,100.000000,,,,,,,,,,,,,,,,,,,,,,,,,,,,,,,,,,,,,,,,,,,,,,,,,,,,,,,,,,,,,,,
1656266113.176286,54.000000,0.000000,4290.256348,4257.436035,4121.025879,4103.077148,4237.948730,0.000000,4.000000,91.000000,,,,0.000000,4.000000,4.000000,4.000000,4.000000,4.000000,100.000000,,,,,,,,,,,,,,,,,,,,,,,,,,,,,,,,,,,,,,,,,,,,,,,,,,,,,,,,,,,,,,,
1656266113.184100,55.000000,0.000000,4272.307617,4267.179688,4102.051270,4095.897461,4232.307617,0.000000,4.000000,91.000000,,,,0.000000,4.000000,4.000000,4.000000,4.000000,4.000000,100.000000,,,,,,,,,,,,,,,,,,,,,,,,,,,,,,,,,,,,,,,,,,,,,,,,,,,,,,,,,,,,,,,
1656266113.192015,56.000000,0.000000,4265.641113,4269.743652,4100.000000,4085.641113,4226.153809,0.000000,4.000000,91.000000,,,,0.000000,4.000000,4.000000,4.000000,4.000000,4.000000,100.000000,,,,,,,,,,,,,,,,,,,,,,,,,,,,,,,,,,,,,,,,,,,,,,,,,,,,,,,,,,,,,,,
1656266113.199829,57.000000,0.000000,4284.102539,4267.692383,4107.179688,4100.000000,4234.871582,0.000000,4.000000,91.000000,,,,0.000000,4.000000,4.000000,4.000000,4.000000,4.000000,100.000000,,,,,,,,,,,,,,,,,,,,,,,,,,,,,,,,,,,,,,,,,,,,,,,,,,,,,,,,,,,,,,,
1656266113.207743,58.000000,0.000000,4301.538574,4258.974121,4107.692383,4112.820313,4234.871582,0.000000,4.000000,91.000000,,,,0.000000,4.000000,4.000000,4.000000,4.000000,4.000000,100.000000,,,,,,,,,,,,,,,,,,,,,,,,,,,,,,,,,,,,,,,,,,,,,,,,,,,,,,,,,,,,,,,
1656266113.215558,59.000000,0.000000,4301.538574,4263.077148,4115.384766,4115.384766,4228.205078,0.000000,4.000000,91.000000,,,,0.000000,4.000000,4.000000,4.000000,4.000000,4.000000,100.000000,,,,,,,,,,,,,,,,,,,,,,,,,,,,,,,,,,,,,,,,,,,,,,,,,,,,,,,,,,,,,,,
1656266113.223472,60.000000,0.000000,4292.307617,4278.974121,4124.615234,4113.333496,4236.410156,0.000000,4.000000,91.000000,,,,0.000000,4.000000,4.000000,4.000000,4.000000,4.000000,100.000000,,,,,,,,,,,,,,,,,,,,,,,,,,,,,,,,,,,,,,,,,,,,,,,,,,,,,,,,,,,,,,,
1656266113.231287,61.000000,0.000000,4284.102539,4273.333496,4114.871582,4096.410156,4241.025879,0.000000,4.000000,91.000000,,,,0.000000,4.000000,4.000000,4.000000,4.000000,4.000000,100.000000,,,,,,,,,,,,,,,,,,,,,,,,,,,,,,,,,,,,,,,,,,,,,,,,,,,,,,,,,,,,,,,
1656266113.239201,62.000000,0.000000,4294.871582,4248.717773,4104.102539,4090.256348,4230.256348,0.000000,4.000000,91.000000,,,,0.000000,4.000000,4.000000,4.000000,4.000000,4.000000,100.000000,,,,,,,,,,,,,,,,,,,,,,,,,,,,,,,,,,,,,,,,,,,,,,,,,,,,,,,,,,,,,,,
1656266113.247015,63.000000,0.000000,4315.897461,4248.717773,4104.615234,4114.871582,4240.512695,0.000000,4.000000,91.000000,,,,0.000000,4.000000,4.000000,4.000000,4.000000,4.000000,100.000000,,,,,,,,,,,,,,,,,,,,,,,,,,,,,,,,,,,,,,,,,,,,,,,,,,,,,,,,,,,,,,,
1656266113.254930,64.000000,0.000000,4314.358887,4278.974121,4108.717773,4122.051270,4264.615234,450.000000,4.000000,91.000000,,,,0.000000,4.000000,4.000000,4.000000,4.000000,4.000000,100.000000,,,,,,,,,,,,,,,,,,,,,,,,,,,,,,,,,,,,,,,1.910501,1.459137,1.058882,1.056223,0.697625,1.586734,0.803156,0.462423,0.394953,0.403340,0.553753,0.731918,1.938899,0.785200,0.305342,1.058063,1.178659,2.405619,0.859041,0.622939,1.166333,1.591468,1.451329,1.154399,0.549260
1656266113.262844,65.000000,0.000000,4297.436035,4283.077148,4106.666504,4100.000000,4252.820313,450.000000,4.000000,91.000000,,,,0.000000,4.000000,4.000000,4.000000,4.000000,4.000000,100.000000,,,,,,,,,,,,,,,,,,,,,,,,,,,,,,,,,,,,,,,,,,,,,,,,,,,,,,,,,,,,,,,
1656266113.270658,66.000000,0.000000,4297.948730,4265.128418,4103.077148,4100.512695,4236.410156,16252.000000,4.000000,91.000000,,,,0.000000,4.000000,4.000000,4.000000,4.000000,4.000000,100.000000,,,,,,,,,,,,,,,,,,,,,,,,,,,,,,,,,,,,,,,,,,,,,,,,,,,,,,,,,,,,,,,
1656266113.278573,67.000000,0.000000,4307.692383,4267.692383,4100.000000,4116.410156,4250.256348,450.000000,4.000000,91.000000,,,,0.000000,4.000000,4.000000,4.000000,4.000000,4.000000,100.000000,,,,,,,,,,,,,,,,,,,,,,,,,,,,,,,,,,,,,,,,,,,,,,,,,,,,,,,,,,,,,,,
1656266113.286387,68.000000,0.000000,4293.846191,4269.230957,4093.333252,4104.615234,4243.077148,16231.000000,4.000000,91.000000,,,,0.000000,4.000000,4.000000,4.000000,4.000000,4.000000,100.000000,,,,,,,,,,,,,,,,,,,,,,,,,,,,,,,,,,,,,,,,,,,,,,,,,,,,,,,,,,,,,,,
1656266113.294301,69.000000,0.000000,4278.461426,4250.769043,4093.333252,4093.333252,4226.666504,450.000000,4.000000,91.000000,,,,0.000000,4.000000,4.000000,4.000000,4.000000,4.000000,100.000000,,,,,,,,,,,,,,,,,,,,,,,,,,,,,,,,,,,,,,,,,,,,,,,,,,,,,,,,,,,,,,,
1656266113.302116,70.000000,0.000000,4290.256348,4243.077148,4101.025879,4112.307617,4252.307617,16214.000000,4.000000,91.000000,,,,0.000000,4.000000,4.000000,4.000000,4.000000,4.000000,100.000000,,,,,,,,,,,,,,,,,,,,,,,,,,,,,,,,,,,,,,,,,,,,,,,,,,,,,,,,,,,,,,,
1656266113.310030,71.000000,0.000000,4304.615234,4253.846191,4101.025879,4125.641113,4278.974121,450.000000,4.000000,91.000000,,,,0.000000,4.000000,4.000000,4.000000,4.000000,4.000000,100.000000,,,,,,,,,,,,,,,,,,,,,,,,,,,,,,,,,,,,,,,,,,,,,,,,,,,,,,,,,,,,,,,
1656266113.317844,72.000000,0.000000,4297.436035,4260.512695,4100.512695,4108.205078,4263.077148,450.000000,4.000000,91.000000,,,,0.000000,4.000000,4.000000,4.000000,4.000000,4.000000,100.000000,,,,,,,,,,,,,,,,,,,,,,,,,,,,,,,,,,,,,,,,,,,,,,,,,,,,,,,,,,,,,,,
1656266113.325759,73.000000,0.000000,4282.051270,4251.282227,4107.179688,4083.589844,4233.846191,16247.000000,4.000000,91.000000,,,,0.000000,4.000000,4.000000,4.000000,4.000000,4.000000,100.000000,,,,,,,,,,,,,,,,,,,,,,,,,,,,,,,,,,,,,,,,,,,,,,,,,,,,,,,,,,,,,,,
1656266113.333573,74.000000,0.000000,4282.051270,4241.025879,4107.692383,4091.794922,4229.230957,450.000000,4.000000,91.000000,,,,0.000000,4.000000,4.000000,4.000000,4.000000,4.000000,100.000000,,,,,,,,,,,,,,,,,,,,,,,,,,,,,,,,,,,,,,,,,,,,,,,,,,,,,,,,,,,,,,,
1656266113.341487,75.000000,0.000000,4285.128418,4247.179688,4112.307617,4106.153809,4234.871582,16095.000000,4.000000,91.000000,,,,0.000000,4.000000,4.000000,4.000000,4.000000,4.000000,100.000000,,,,,,,,,,,,,,,,,,,,,,,,,,,,,,,,,,,,,,,,,,,,,,,,,,,,,,,,,,,,,,,
1656266113.349302,76.000000,0.000000,4284.615234,4250.256348,4124.102539,4089.230713,4232.307617,450.000000,4.000000,91.000000,,,,0.000000,4.000000,4.000000,4.000000,4.000000,4.000000,100.000000,,,,,,,,,,,,,,,,,,,,,,,,,,,,,,,,,,,,,,,,,,,,,,,,,,,,,,,,,,,,,,,
1656266113.357216,77.000000,0.000000,4296.410156,4247.179688,4110.769043,4081.538574,4240.000000,450.000000,4.000000,91.000000,,,,0.000000,4.000000,4.000000,4.000000,4.000000,4.000000,100.000000,,,,,,,,,,,,,,,,,,,,,,,,,,,,,,,,,,,,,,,,,,,,,,,,,,,,,,,,,,,,,,,
1656266113.365031,78.000000,0.000000,4302.051270,4248.205078,4085.128174,4094.358887,4251.794922,450.000000,4.000000,91.000000,,,,0.000000,4.000000,4.000000,4.000000,4.000000,4.000000,100.000000,,,,,,,,,,,,,,,,,,,,,,,,,,,,,,,,,,,,,,,,,,,,,,,,,,,,,,,,,,,,,,,
1656266113.372945,79.000000,0.000000,4297.436035,4253.333496,4093.846191,4097.948730,4240.000000,16095.000000,4.000000,91.000000,,,,0.000000,4.000000,4.000000,4.000000,4.000000,4.000000,100.000000,,,,,,,,,,,,,,,,,,,,,,,,,,,,,,,,,,,,,,,,,,,,,,,,,,,,,,,,,,,,,,,
1656266113.380759,80.000000,0.000000,4296.922852,4270.256348,4104.615234,4101.538574,4238.974121,450.000000,4.000000,91.000000,,,,0.000000,4.000000,4.000000,4.000000,4.000000,4.000000,100.000000,,,,,,,,,,,,,,,,,,,,,,,,,,,,,,,,,,,,,,,2.190948,1.712410,0.880712,1.000211,0.700120,1.407351,0.835407,0.444847,0.362649,0.388917,0.542510,0.912159,1.313522,0.839795,0.322735,1.296996,1.073022,2.183147,0.726923,0.600141,1.533983,1.641137,1.231121,1.199019,0.565571
1656266113.388674,81.000000,0.000000,4288.205078,4277.436035,4095.384521,4105.641113,4257.948730,450.000000,4.000000,91.000000,,,,0.000000,4.000000,4.000000,4.000000,4.000000,4.000000,100.000000,,,,,,,,,,,,,,,,,,,,,,,,,,,,,,,,,,,,,,,,,,,,,,,,,,,,,,,,,,,,,,,
1656266113.396488,82.000000,0.000000,4277.948730,4264.102539,4103.077148,4105.128418,4254.871582,450.000000,4.000000,91.000000,,,,0.000000,4.000000,4.000000,4.000000,4.000000,4.000000,100.000000,,,,,,,,,,,,,,,,,,,,,,,,,,,,,,,,,,,,,,,,,,,,,,,,,,,,,,,,,,,,,,,
1656266113.404402,83.000000,0.000000,4281.538574,4257.436035,4121.025879,4100.512695,4237.948730,16095.000000,4.000000,91.000000,,,,0.000000,4.000000,4.000000,4.000000,4.000000,4.000000,100.000000,,,,,,,,,,,,,,,,,,,,,,,,,,,,,,,,,,,,,,,,,,,,,,,,,,,,,,,,,,,,,,,
1656266113.412217,84.000000,0.000000,4281.538574,4258.974121,4124.102539,4091.281982,4231.794922,450.000000,4.000000,91.000000,,,,0.000000,4.000000,4.000000,4.000000,4.000000,4.000000,100.000000,,,,,,,,,,,,,,,,,,,,,,,,,,,,,,,,,,,,,,,,,,,,,,,,,,,,,,,,,,,,,,,
1656266113.420131,85.000000,0.000000,4279.487305,4256.410156,4121.538574,4094.358887,4238.974121,450.000000,4.000000,91.000000,,,,0.000000,4.000000,4.000000,4.000000,4.000000,4.000000,100.000000,,,,,,,,,,,,,,,,,,,,,,,,,,,,,,,,,,,,,,,,,,,,,,,,,,,,,,,,,,,,,,,
1656266113.427945,86.000000,0.000000,4291.794922,4263.589844,4123.589844,4112.307617,4251.794922,450.000000,4.000000,91.000000,,,,0.000000,4.000000,4.000000,4.000000,4.000000,4.000000,100.000000,,,,,,,,,,,,,,,,,,,,,,,,,,,,,,,,,,,,,,,,,,,,,,,,,,,,,,,,,,,,,,,
1656266113.435860,87.000000,0.000000,4302.563965,4275.897461,4126.666504,4118.974121,4255.897461,16095.000000,4.000000,91.000000,,,,0.000000,4.000000,4.000000,4.000000,4.000000,4.000000,100.000000,,,,,,,,,,,,,,,,,,,,,,,,,,,,,,,,,,,,,,,,,,,,,,,,,,,,,,,,,,,,,,,
1656266113.443774,88.000000,0.000000,4296.922852,4285.641113,4127.692383,4109.743652,4251.282227,450.000000,4.000000,91.000000,,,,0.000000,4.000000,4.000000,4.000000,4.000000,4.000000,100.000000,,,,,,,,,,,,,,,,,,,,,,,,,,,,,,,,,,,,,,,,,,,,,,,,,,,,,,,,,,,,,,,
1656266113.451588,89.000000,0.000000,4286.666504,4289.230957,4127.692383,4101.025879,4251.794922,450.000000,4.000000,91.000000,,,,0.000000,4.000000,4.000000,4.000000,4.000000,4.000000,100.000000,,,,,,,,,,,,,,,,,,,,,,,,,,,,,,,,,,,,,,,,,,,,,,,,,,,,,,,,,,,,,,,
1656266113.459503,90.000000,0.000000,4302.563965,4289.743652,4141.538574,4123.589844,4268.717773,450.000000,4.000000,91.000000,,,,0.000000,4.000000,4.000000,4.000000,4.000000,4.000000,100.000000,,,,,,,,,,,,,,,,,,,,,,,,,,,,,,,,,,,,,,,,,,,,,,,,,,,,,,,,,,,,,,,
1656266113.467317,91.000000,0.000000,4368.205078,4328.717773,4187.692383,4187.179688,4314.358887,16095.000000,4.000000,91.000000,,,,0.000000,4.000000,4.000000,4.000000,4.000000,4.000000,100.000000,,,,,,,,,,,,,,,,,,,,,,,,,,,,,,,,,,,,,,,,,,,,,,,,,,,,,,,,,,,,,,,
1656266113.475231,92.000000,0.000000,4454.358887,4418.461426,4253.846191,4251.794922,4386.153809,450.000000,4.000000,91.000000,,,,0.000000,4.000000,4.000000,4.000000,4.000000,4.000000,100.000000,,,,,,,,,,,,,,,,,,,,,,,,,,,,,,,,,,,,,,,,,,,,,,,,,,,,,,,,,,,,,,,
1656266113.483046,93.000000,0.000000,4506.666504,4485.641113,4312.820313,4281.025879,4446.666504,450.000000,4.000000,91.000000,,,,0.000000,4.000000,4.000000,4.000000,4.000000,4.000000,100.000000,,,,,,,,,,,,,,,,,,,,,,,,,,,,,,,,,,,,,,,,,,,,,,,,,,,,,,,,,,,,,,,
1656266113.490960,94.000000,0.000000,4531.794922,4492.820313,4345.128418,4304.102539,4473.333496,450.000000,4.000000,91.000000,,,,0.000000,4.000000,4.000000,4.000000,4.000000,4.000000,100.000000,,,,,,,,,,,,,,,,,,,,,,,,,,,,,,,,,,,,,,,,,,,,,,,,,,,,,,,,,,,,,,,
1656266113.498775,95.000000,0.000000,4554.871582,4505.641113,4350.256348,4334.871582,4487.692383,16095.000000,4.000000,91.000000,,,,0.000000,4.000000,4.000000,4.000000,4.000000,4.000000,100.000000,,,,,,,,,,,,,,,,,,,,,,,,,,,,,,,,,,,,,,,,,,,,,,,,,,,,,,,,,,,,,,,
1656266113.506689,96.000000,0.000000,4560.000000,4529.743652,4352.820313,4339.487305,4492.820313,450.000000,4.000000,91.000000,,,,0.000000,4.000000,4.000000,4.000000,4.000000,4.000000,100.000000,1.000000,75.000000,4.000000,3.000000,3.000000,3.000000,4.000000,,,,,,,,,,,,,,,,,,,,,,,,,,,,,,,,2.645530,2.092117,0.784023,1.003469,0.675108,1.281882,0.834982,0.486249,0.384279,0.396206,0.618088,1.183338,0.813532,0.949079,0.337200,1.589363,1.016351,1.909839,0.638070,0.565228,2.068800,1.780799,1.183693,1.316643,0.601067
1656266113.514503,97.000000,0.000000,4554.871582,4520.000000,4370.256348,4332.820313,4493.846191,450.000000,4.000000,91.000000,,,,0.000000,4.000000,4.000000,4.000000,4.000000,4.000000,100.000000,,,,,,,,,,,,,,,,,,,,,,,,,,,,,,,,,,,,,,,,,,,,,,,,,,,,,,,,,,,,,,,
1656266113.522418,98.000000,0.000000,4566.666504,4517.436035,4363.077148,4337.436035,4503.589844,450.000000,4.000000,91.000000,,,,0.000000,4.000000,4.000000,4.000000,4.000000,4.000000,100.000000,,,,,,,,,,,,,,,,,,,,,,,,,,,,,,,,,,,,,,,,,,,,,,,,,,,,,,,,,,,,,,,
1656266113.530232,99.000000,0.000000,4586.153809,4536.410156,4340.000000,4340.000000,4510.256348,16095.000000,4.000000,91.000000,,,,0.000000,4.000000,4.000000,4.000000,4.000000,4.000000,100.000000,,,,,,,,,,,,,,,,,,,,,,,,,,,,,,,,,,,,,,,,,,,,,,,,,,,,,,,,,,,,,,,
1656266113.538146,100.000000,0.000000,4600.000000,4538.461426,4352.307617,4345.641113,4518.461426,450.000000,4.000000,91.000000,,,,0.000000,4.000000,4.000000,4.000000,4.000000,4.000000,100.000000,,,,,,,,,,,,,,,,,,,,,,,,,,,,,,,,,,,,,,,,,,,,,,,,,,,,,,,,,,,,,,,
1656266113.545961,101.000000,0.000000,4595.384766,4530.769043,4373.333496,4349.230957,4524.615234,450.000000,4.000000,91.000000,,,,0.000000,4.000000,4.000000,4.000000,4.000000,4.000000,100.000000,,,,,,,,,,,,,,,,,,,,,,,,,,,,,,,,,,,,,,,,,,,,,,,,,,,,,,,,,,,,,,,
1656266113.553875,102.000000,0.000000,4585.128418,4539.487305,4378.974121,4341.538574,4523.589844,450.000000,4.000000,91.000000,,,,0.000000,4.000000,4.000000,4.000000,4.000000,4.000000,100.000000,,,,,,,,,,,,,,,,,,,,,,,,,,,,,,,,,,,,,,,,,,,,,,,,,,,,,,,,,,,,,,,
1656266113.561689,103.000000,0.000000,4592.820313,4535.384766,4390.769043,4343.077148,4517.948730,16095.000000,4.000000,91.000000,,,,0.000000,4.000000,4.000000,4.000000,4.000000,4.000000,100.000000,,,,,,,,,,,,,,,,,,,,,,,,,,,,,,,,,,,,,,,,,,,,,,,,,,,,,,,,,,,,,,,
1656266113.569604,104.000000,0.000000,4596.922852,4529.743652,4393.846191,4357.436035,4515.897461,450.000000,4.000000,91.000000,,,,0.000000,4.000000,4.000000,4.000000,4.000000,4.000000,100.000000,,,,,,,,,,,,,,,,,,,,,,,,,,,,,,,,,,,,,,,,,,,,,,,,,,,,,,,,,,,,,,,
1656266113.577418,105.000000,0.000000,4585.641113,4543.589844,4386.153809,4360.512695,4516.410156,450.000000,4.000000,91.000000,,,,0.000000,4.000000,4.000000,4.000000,4.000000,4.000000,100.000000,,,,,,,,,,,,,,,,,,,,,,,,,,,,,,,,,,,,,,,,,,,,,,,,,,,,,,,,,,,,,,,
1656266113.585332,106.000000,0.000000,4597.948730,4534.358887,4382.563965,4360.000000,4516.922852,450.000000,4.000000,91.000000,,,,0.000000,4.000000,4.000000,4.000000,4.000000,4.000000,100.000000,,,,,,,,,,,,,,,,,,,,,,,,,,,,,,,,,,,,,,,,,,,,,,,,,,,,,,,,,,,,,,,
1656266113.593247,107.000000,0.000000,4625.128418,4527.179688,4383.077148,4367.179688,4531.282227,16095.000000,4.000000,91.000000,,,,0.000000,4.000000,4.000000,4.000000,4.000000,4.000000,100.000000,,,,,,,,,,,,,,,,,,,,,,,,,,,,,,,,,,,,,,,,,,,,,,,,,,,,,,,,,,,,,,,
1656266113.601061,108.000000,0.000000,4632.307617,4544.615234,4382.563965,4361.538574,4543.589844,450.000000,4.000000,91.000000,,,,0.000000,4.000000,4.000000,4.000000,4.000000,4.000000,100.000000,,,,,,,,,,,,,,,,,,,,,,,,,,,,,,,,,,,,,,,,,,,,,,,,,,,,,,,,,,,,,,,
1656266113.608975,109.000000,0.000000,4626.666504,4535.897461,4373.846191,4349.743652,4541.025879,450.000000,4.000000,91.000000,,,,0.000000,4.000000,4.000000,4.000000,4.000000,4.000000,100.000000,,,,,,,,,,,,,,,,,,,,,,,,,,,,,,,,,,,,,,,,,,,,,,,,,,,,,,,,,,,,,,,
1656266113.616790,110.000000,0.000000,4637.436035,4517.948730,4369.230957,4354.358887,4553.333496,450.000000,4.000000,91.000000,,,,0.000000,4.000000,4.000000,4.000000,4.000000,4.000000,100.000000,,,,,,,,,,,,,,,,,,,,,,,,,,,,,,,,,,,,,,,,,,,,,,,,,,,,,,,,,,,,,,,
1656266113.624704,111.000000,0.000000,4647.692383,4528.205078,4378.461426,4356.410156,4572.307617,16095.000000,4.000000,91.000000,,,,0.000000,4.000000,4.000000,4.000000,4.000000,4.000000,100.000000,,,,,,,,,,,,,,,,,,,,,,,,,,,,,,,,,,,,,,,,,,,,,,,,,,,,,,,,,,,,,,,
1656266113.632519,112.000000,0.000000,4636.410156,4538.974121,4377.948730,4334.358887,4576.410156,450.000000,4.000000,91.000000,,,,0.000000,4.000000,4.000000,4.000000,4.000000,4.000000,100.000000,,,,,,,,,,,,,,,,,,,,,,,,,,,,,,,,,,,,,,,3.203830,2.518629,0.806687,1.069537,0.636705,1.248607,0.831995,0.567024,0.473623,0.419074,0.864303,1.475309,0.518755,1.064648,0.346905,1.943021,0.992333,1.602013,0.607892,0.531482,2.688788,2.038959,1.337872,1.523899,0.649691
1656266113.640333,113.000000,0.000000,4641.538574,4529.230957,4363.077148,4318.974121,4574.358887,450.000000,4.000000,91.000000,,,,0.000000,4.000000,4.000000,4.000000,4.000000,4.000000,100.000000,,,,,,,,,,,,,,,,,,,,,,,,,,,,,,,,,,,,,,,,,,,,,,,,,,,,,,,,,,,,,,,
1656266113.648047,114.000000,0.000000,4661.025879,4519.487305,4359.487305,4326.666504,4569.230957,450.000000,4.000000,91.000000,,,,0.000000,4.000000,4.000000,4.000000,4.000000,4.000000,100.000000,,,,,,,,,,,,,,,,,,,,,,,,,,,,,,,,,,,,,,,,,,,,,,,,,,,,,,,,,,,,,,,
1656266113.655962,115.000000,0.000000,4658.974121,4516.410156,4370.256348,4333.333496,4562.051270,16095.000000,4.000000,91.000000,,,,0.000000,4.000000,4.000000,4.000000,4.000000,4.000000,100.000000,,,,,,,,,,,,,,,,,,,,,,,,,,,,,,,,,,,,,,,,,,,,,,,,,,,,,,,,,,,,,,,
1656266113.663776,116.000000,0.000000,4652.307617,4517.948730,4369.230957,4331.794922,4562.051270,450.000000,4.000000,91.000000,,,,0.000000,4.000000,4.000000,4.000000,4.000000,4.000000,100.000000,,,,,,,,,,,,,,,,,,,,,,,,,,,,,,,,,,,,,,,,,,,,,,,,,,,,,,,,,,,,,,,
1656266113.671691,117.000000,0.000000,4656.410156,4521.538574,4356.922852,4330.256348,4553.333496,450.000000,4.000000,91.000000,,,,0.000000,4.000000,4.000000,4.000000,4.000000,4.000000,100.000000,,,,,,,,,,,,,,,,,,,,,,,,,,,,,,,,,,,,,,,,,,,,,,,,,,,,,,,,,,,,,,,
1656266113.679505,118.000000,0.000000,4654.871582,4521.538574,4361.538574,4341.538574,4542.051270,450.000000,4.000000,91.000000,,,,0.000000,4.000000,4.000000,4.000000,4.000000,4.000000,100.000000,,,,,,,,,,,,,,,,,,,,,,,,,,,,,,,,,,,,,,,,,,,,,,,,,,,,,,,,,,,,,,,
1656266113.687419,119.000000,0.000000,4636.922852,4516.922852,4365.128418,4350.769043,4553.846191,16095.000000,4.000000,91.000000,,,,0.000000,4.000000,4.000000,4.000000,4.000000,4.000000,100.000000,,,,,,,,,,,,,,,,,,,,,,,,,,,,,,,,,,,,,,,,,,,,,,,,,,,,,,,,,,,,,,,
1656266113.695234,120.000000,0.000000,4615.897461,4514.871582,4352.307617,4334.358887,4556.410156,450.000000,4.000000,91.000000,,,,0.000000,4.000000,4.000000,4.000000,4.000000,4.000000,100.000000,,,,,,,,,,,,,,,,,,,,,,,,,,,,,,,,,,,,,,,,,,,,,,,,,,,,,,,,,,,,,,,
1656266113.703148,121.000000,0.000000,4608.717773,4507.179688,4345.641113,4316.922852,4522.051270,450.000000,4.000000,91.000000,,,,0.000000,4.000000,4.000000,4.000000,4.000000,4.000000,100.000000,,,,,,,,,,,,,,,,,,,,,,,,,,,,,,,,,,,,,,,,,,,,,,,,,,,,,,,,,,,,,,,
1656266113.710962,122.000000,0.000000,4608.717773,4489.230957,4339.487305,4322.051270,4502.563965,450.000000,4.000000,91.000000,,,,0.000000,4.000000,4.000000,4.000000,4.000000,4.000000,100.000000,,,,,,,,,,,,,,,,,,,,,,,,,,,,,,,,,,,,,,,,,,,,,,,,,,,,,,,,,,,,,,,
1656266113.718877,123.000000,0.000000,4594.358887,4477.948730,4327.692383,4326.153809,4509.743652,16095.000000,4.000000,91.000000,,,,0.000000,4.000000,4.000000,4.000000,4.000000,4.000000,100.000000,,,,,,,,,,,,,,,,,,,,,,,,,,,,,,,,,,,,,,,,,,,,,,,,,,,,,,,,,,,,,,,
1656266113.726691,124.000000,0.000000,4571.282227,4474.871582,4321.025879,4312.820313,4486.153809,450.000000,4.000000,91.000000,,,,0.000000,4.000000,4.000000,4.000000,4.000000,4.000000,100.000000,,,,,,,,,,,,,,,,,,,,,,,,,,,,,,,,,,,,,,,,,,,,,,,,,,,,,,,,,,,,,,,
1656266113.734605,125.000000,0.000000,4556.410156,4480.512695,4322.563965,4300.512695,4448.205078,450.000000,4.000000,91.000000,,,,0.000000,4.000000,4.000000,4.000000,4.000000,4.000000,100.000000,,,,,,,,,,,,,,,,,,,,,,,,,,,,,,,,,,,,,,,,,,,,,,,,,,,,,,,,,,,,,,,
1656266113.742420,126.000000,0.000000,4549.743652,4488.205078,4320.512695,4298.974121,4452.307617,450.000000,4.000000,91.000000,,,,0.000000,4.000000,4.000000,4.000000,4.000000,4.000000,100.000000,,,,,,,,,,,,,,,,,,,,,,,,,,,,,,,,,,,,,,,,,,,,,,,,,,,,,,,,,,,,,,,
1656266113.750334,127.000000,0.000000,4541.538574,4478.461426,4307.692383,4296.410156,4465.641113,242.000000,4.000000,91.000000,,,,0.000000,4.000000,4.000000,4.000000,4.000000,4.000000,100.000000,,,,,,,,,,,,,,,,,,,,,,,,,,,,,,,,,,,,,,,,,,,,,,,,,,,,,,,,,,,,,,,
1656266113.758248,0.000000,0.000000,4542.051270,4474.871582,4302.051270,4297.948730,4457.436035,450.000000,4.000000,91.000000,,,,0.000000,4.000000,4.000000,4.000000,4.000000,4.000000,100.000000,,,,,,,,,,,,,,,,,,,,,,,,,,,,,,,,,,,,,,,4.521725,3.077862,0.992910,1.216453,0.604522,1.917839,1.052326,0.681635,0.651149,0.453845,1.866626,1.857765,0.568189,1.139112,0.355426,2.775497,1.166313,1.275788,0.656042,0.516660,3.982330,2.567850,1.670619,1.819289,0.704017
1656266113.766063,1.000000,0.000000,4550.769043,4493.333496,4307.179688,4304.102539,4456.922852,450.000000,4.000000,91.000000,,,,0.000000,4.000000,4.000000,4.000000,4.000000,4.000000,100.000000,,,,,,,,,,,,,,,,,,,,,,,,,,,,,,,,,,,,,,,,,,,,,,,,,,,,,,,,,,,,,,,
1656266113.773877,2.000000,0.000000,4545.128418,4497.436035,4307.179688,4315.384766,4462.563965,16254.000000,4.000000,91.000000,,,,0.000000,4.000000,4.000000,4.000000,4.000000,4.000000,100.000000,,,,,,,,,,,,,,,,,,,,,,,,,,,,,,,,,,,,,,,,,,,,,,,,,,,,,,,,,,,,,,,
1656266113.781592,3.000000,0.000000,4517.436035,4480.512695,4305.128418,4312.307617,4442.563965,450.000000,4.000000,91.000000,,,,0.000000,4.000000,4.000000,4.000000,4.000000,4.000000,100.000000,,,,,,,,,,,,,,,,,,,,,,,,,,,,,,,,,,,,,,,,,,,,,,,,,,,,,,,,,,,,,,,
1656266113.789406,4.000000,0.000000,4496.410156,4470.256348,4315.384766,4293.846191,4412.820313,16258.000000,4.000000,91.000000,,,,0.000000,4.000000,4.000000,4.000000,4.000000,4.000000,100.000000,,,,,,,,,,,,,,,,,,,,,,,,,,,,,,,,,,,,,,,,,,,,,,,,,,,,,,,,,,,,,,,
1656266113.797121,5.000000,0.000000,4506.666504,4473.846191,4327.179688,4294.358887,4424.102539,450.000000,4.000000,91.000000,,,,0.000000,4.000000,4.000000,4.000000,4.000000,4.000000,100.000000,,,,,,,,,,,,,,,,,,,,,,,,,,,,,,,,,,,,,,,,,,,,,,,,,,,,,,,,,,,,,,,
1656266113.804935,6.000000,0.000000,4522.051270,4469.743652,4322.051270,4297.948730,4447.692383,16193.000000,4.000000,91.000000,,,,0.000000,4.000000,4.000000,4.000000,4.000000,4.000000,100.000000,,,,,,,,,,,,,,,,,,,,,,,,,,,,,,,,,,,,,,,,,,,,,,,,,,,,,,,,,,,,,,,
1656266113.812650,7.000000,0.000000,4509.230957,4446.153809,4312.820313,4276.922852,4429.743652,450.000000,4.000000,91.000000,,,,0.000000,4.000000,4.000000,4.000000,4.000000,4.000000,100.000000,,,,,,,,,,,,,,,,,,,,,,,,,,,,,,,,,,,,,,,,,,,,,,,,,,,,,,,,,,,,,,,
1656266113.820464,8.000000,0.000000,4490.769043,4435.897461,4309.230957,4263.589844,4402.563965,450.000000,4.000000,91.000000,,,,0.000000,4.000000,4.000000,4.000000,4.000000,4.000000,100.000000,,,,,,,,,,,,,,,,,,,,,,,,,,,,,,,,,,,,,,,,,,,,,,,,,,,,,,,,,,,,,,,
1656266113.828178,9.000000,0.000000,4490.769043,4452.820313,4309.230957,4278.974121,4411.282227,16254.000000,4.000000,91.000000,,,,0.000000,4.000000,4.000000,4.000000,4.000000,4.000000,100.000000,,,,,,,,,,,,,,,,,,,,,,,,,,,,,,,,,,,,,,,,,,,,,,,,,,,,,,,,,,,,,,,
1656266113.836093,10.000000,0.000000,4500.512695,4459.487305,4311.794922,4282.051270,4424.615234,450.000000,4.000000,91.000000,,,,0.000000,4.000000,4.000000,4.000000,4.000000,4.000000,100.000000,,,,,,,,,,,,,,,,,,,,,,,,,,,,,,,,,,,,,,,,,,,,,,,,,,,,,,,,,,,,,,,
1656266113.843907,11.000000,0.000000,4494.871582,4447.179688,4303.077148,4269.230957,4410.256348,16137.000000,4.000000,91.000000,,,,0.000000,4.000000,4.000000,4.000000,4.000000,4.000000,100.000000,,,,,,,,,,,,,,,,,,,,,,,,,,,,,,,,,,,,,,,,,,,,,,,,,,,,,,,,,,,,,,,
1656266113.851821,12.000000,0.000000,4477.948730,4440.000000,4283.589844,4272.307617,4391.282227,450.000000,4.000000,91.000000,,,,0.000000,4.000000,4.000000,4.000000,4.000000,4.000000,100.000000,,,,,,,,,,,,,,,,,,,,,,,,,,,,,,,,,,,,,,,,,,,,,,,,,,,,,,,,,,,,,,,
1656266113.859636,13.000000,0.000000,4481.025879,4443.589844,4280.000000,4281.025879,4397.436035,450.000000,4.000000,91.000000,,,,0.000000,4.000000,4.000000,4.000000,4.000000,4.000000,100.000000,,,,,,,,,,,,,,,,,,,,,,,,,,,,,,,,,,,,,,,,,,,,,,,,,,,,,,,,,,,,,,,
1656266113.867550,14.000000,0.000000,4487.692383,4444.615234,4285.641113,4272.307617,4410.256348,450.000000,4.000000,91.000000,,,,0.000000,4.000000,4.000000,4.000000,4.000000,4.000000,100.000000,,,,,,,,,,,,,,,,,,,,,,,,,,,,,,,,,,,,,,,,,,,,,,,,,,,,,,,,,,,,,,,
1656266113.875365,15.000000,0.000000,4472.307617,4431.794922,4280.512695,4251.794922,4401.025879,16137.000000,4.000000,91.000000,,,,0.000000,4.000000,4.000000,4.000000,4.000000,4.000000,100.000000,,,,,,,,,,,,,,,,,,,,,,,,,,,,,,,,,,,,,,,,,,,,,,,,,,,,,,,,,,,,,,,
1656266113.883279,16.000000,0.000000,4460.000000,4421.538574,4271.282227,4245.641113,4383.589844,0.000000,4.000000,91.000000,,,,0.000000,4.000000,4.000000,4.000000,4.000000,4.000000,100.000000,,,,,,,,,,,,,,,,,,,,,,,,,,,,,,,,,,,,,,,8.127653,3.972342,1.353237,1.475198,0.593942,4.630089,1.837315,0.853966,0.927718,0.500420,4.505674,2.525452,1.127681,1.154465,0.369614,5.074465,1.882597,0.993239,0.798103,0.534647,7.088900,3.565448,2.125000,2.175859,0.754483
1656266113.891093,17.000000,0.000000,4457.948730,4422.563965,4269.230957,4249.230957,4372.820313,0.000000,4.000000,91.000000,,,,0.000000,4.000000,4.000000,4.000000,4.000000,4.000000,100.000000,,,,,,,,,,,,,,,,,,,,,,,,,,,,,,,,,,,,,,,,,,,,,,,,,,,,,,,,,,,,,,,
1656266113.899008,18.000000,0.000000,4448.717773,4422.051270,4271.794922,4241.025879,4369.230957,0.000000,4.000000,91.000000,,,,0.000000,4.000000,4.000000,4.000000,4.000000,4.000000,100.000000,,,,,,,,,,,,,,,,,,,,,,,,,,,,,,,,,,,,,,,,,,,,,,,,,,,,,,,,,,,,,,,
1656266113.906822,19.000000,0.000000,4436.922852,4416.922852,4272.307617,4231.282227,4365.128418,0.000000,4.000000,91.000000,,,,0.000000,4.000000,4.000000,4.000000,4.000000,4.000000,100.000000,,,,,,,,,,,,,,,,,,,,,,,,,,,,,,,,,,,,,,,,,,,,,,,,,,,,,,,,,,,,,,,
1656266113.914736,20.000000,0.000000,4434.358887,4407.179688,4263.077148,4237.436035,4351.794922,0.000000,4.000000,91.000000,,,,0.000000,4.000000,4.000000,4.000000,4.000000,4.000000,100.000000,,,,,,,,,,,,,,,,,,,,,,,,,,,,,,,,,,,,,,,,,,,,,,,,,,,,,,,,,,,,,,,
1656266113.922551,21.000000,0.000000,4432.307617,4404.615234,4254.358887,4245.641113,4347.179688,0.000000,4.000000,91.000000,,,,0.000000,4.000000,4.000000,4.000000,4.000000,4.000000,100.000000,,,,,,,,,,,,,,,,,,,,,,,,,,,,,,,,,,,,,,,,,,,,,,,,,,,,,,,,,,,,,,,
1656266113.930465,22.000000,0.000000,4420.000000,4408.717773,4261.025879,4234.358887,4350.256348,0.000000,4.000000,91.000000,,,,0.000000,4.000000,4.000000,4.000000,4.000000,4.000000,100.000000,,,,,,,,,,,,,,,,,,,,,,,,,,,,,,,,,,,,,,,,,,,,,,,,,,,,,,,,,,,,,,,
1656266113.938279,23.000000,0.000000,4421.538574,4404.102539,4264.615234,4229.743652,4362.563965,0.000000,4.000000,91.000000,,,,0.000000,4.000000,4.000000,4.000000,4.000000,4.000000,100.000000,,,,,,,,,,,,,,,,,,,,,,,,,,,,,,,,,,,,,,,,,,,,,,,,,,,,,,,,,,,,,,,
1656266113.946194,24.000000,0.000000,4436.410156,4403.077148,4250.256348,4236.922852,4384.615234,0.000000,4.000000,91.000000,,,,0.000000,4.000000,4.000000,4.000000,4.000000,4.000000,100.000000,,,,,,,,,,,,,,,,,,,,,,,,,,,,,,,,,,,,,,,,,,,,,,,,,,,,,,,,,,,,,,,
1656266113.954008,25.000000,0.000000,4432.307617,4410.256348,4241.538574,4230.769043,4382.051270,0.000000,4.000000,91.000000,,,,0.000000,4.000000,4.000000,4.000000,4.000000,4.000000,100.000000,,,,,,,,,,,,,,,,,,,,,,,,,,,,,,,,,,,,,,,,,,,,,,,,,,,,,,,,,,,,,,,
1656266113.961723,26.000000,0.000000,4422.563965,4398.461426,4248.717773,4224.102539,4365.641113,0.000000,4.000000,91.000000,,,,0.000000,4.000000,4.000000,4.000000,4.000000,4.000000,100.000000,,,,,,,,,,,,,,,,,,,,,,,,,,,,,,,,,,,,,,,,,,,,,,,,,,,,,,,,,,,,,,,
1656266113.969537,27.000000,0.000000,4434.358887,4381.025879,4253.333496,4228.717773,4367.179688,0.000000,4.000000,91.000000,,,,0.000000,4.000000,4.000000,4.000000,4.000000,4.000000,100.000000,,,,,,,,,,,,,,,,,,,,,,,,,,,,,,,,,,,,,,,,,,,,,,,,,,,,,,,,,,,,,,,
1656266113.977252,28.000000,0.000000,4438.974121,4390.769043,4252.307617,4228.717773,4366.153809,0.000000,4.000000,91.000000,,,,0.000000,4.000000,4.000000,4.000000,4.000000,4.000000,100.000000,,,,,,,,,,,,,,,,,,,,,,,,,,,,,,,,,,,,,,,,,,,,,,,,,,,,,,,,,,,,,,,
