title:david_g_Forward, start timestamp:1649884569.424958, stop timestamp:1649884574.472288, headset type:INSIGHT, headset serial:A2D201AE, headset firmware:932, channels:84, sampling rate:eeg_128;pm_0.1;pow_8, samples:648       , version:2.1, 
Timestamp,EEG.Counter,EEG.Interpolated,EEG.AF3,EEG.T7,EEG.Pz,EEG.T8,EEG.AF4,EEG.RawCq,EEG.Battery,EEG.BatteryPercent,MarkerIndex,MarkerType,MarkerValueInt,EEG.MarkerHardware,CQ.AF3,CQ.T7,CQ.Pz,CQ.T8,CQ.AF4,CQ.Overall,EQ.SampleRateQuality,EQ.OVERALL,EQ.AF3,EQ.T7,EQ.Pz,EQ.T8,EQ.AF4,PM.Engagement.IsActive,PM.Engagement.Scaled,PM.Engagement.Raw,PM.Engagement.Min,PM.Engagement.Max,PM.Excitement.IsActive,PM.Excitement.Scaled,PM.Excitement.Raw,PM.Excitement.Min,PM.Excitement.Max,PM.LongTermExcitement,PM.Stress.IsActive,PM.Stress.Scaled,PM.Stress.Raw,PM.Stress.Min,PM.Stress.Max,PM.Relaxation.IsActive,PM.Relaxation.Scaled,PM.Relaxation.Raw,PM.Relaxation.Min,PM.Relaxation.Max,PM.Interest.IsActive,PM.Interest.Scaled,PM.Interest.Raw,PM.Interest.Min,PM.Interest.Max,PM.Focus.IsActive,PM.Focus.Scaled,PM.Focus.Raw,PM.Focus.Min,PM.Focus.Max,POW.AF3.Theta,POW.AF3.Alpha,POW.AF3.BetaL,POW.AF3.BetaH,POW.AF3.Gamma,POW.T7.Theta,POW.T7.Alpha,POW.T7.BetaL,POW.T7.BetaH,POW.T7.Gamma,POW.Pz.Theta,POW.Pz.Alpha,POW.Pz.BetaL,POW.Pz.BetaH,POW.Pz.Gamma,POW.T8.Theta,POW.T8.Alpha,POW.T8.BetaL,POW.T8.BetaH,POW.T8.Gamma,POW.AF4.Theta,POW.AF4.Alpha,POW.AF4.BetaL,POW.AF4.BetaH,POW.AF4.Gamma
1649884569.424958,126.000000,0.000000,4256.922852,4254.358887,4157.948730,4173.333496,4228.205078,450.000000,4.000000,95.000000,,,,0.000000,4.000000,4.000000,4.000000,4.000000,4.000000,100.000000,,,,,,,,,,,,,,,,,,,,,,,,,,,,,,,,,,,,,,,,,,,,,,,,,,,,,,,,,,,,,,,
1649884569.432672,127.000000,0.000000,4267.692383,4256.410156,4156.410156,4171.794922,4240.000000,243.000000,4.000000,95.000000,,,,0.000000,4.000000,4.000000,4.000000,4.000000,4.000000,100.000000,,,,,,,,,,,,,,,,,,,,,,,,,,,,,,,,,,,,,,,,,,,,,,,,,,,,,,,,,,,,,,,
1649884569.440587,0.000000,0.000000,4254.871582,4256.922852,4146.153809,4162.563965,4224.615234,450.000000,4.000000,95.000000,,,,0.000000,4.000000,4.000000,4.000000,4.000000,4.000000,100.000000,,,,,,,,,,,,,,,,,,,,,,,,,,,,,,,,,,,,,,,,,,,,,,,,,,,,,,,,,,,,,,,
1649884569.448401,1.000000,0.000000,4266.666504,4271.282227,4162.051270,4176.922852,4238.461426,450.000000,4.000000,95.000000,,,,0.000000,4.000000,4.000000,4.000000,4.000000,4.000000,100.000000,,,,,,,,,,,,,,,,,,,,,,,,,,,,,,,,,,,,,,,,,,,,,,,,,,,,,,,,,,,,,,,
1649884569.456315,2.000000,0.000000,4293.846191,4285.641113,4180.512695,4193.846191,4268.717773,16216.000000,4.000000,95.000000,,,,0.000000,4.000000,4.000000,4.000000,4.000000,4.000000,100.000000,,,,,,,,,,,,,,,,,,,,,,,,,,,,,,,,,,,,,,,,,,,,,,,,,,,,,,,,,,,,,,,
1649884569.464130,3.000000,0.000000,4287.692383,4285.641113,4177.948730,4185.641113,4254.871582,450.000000,4.000000,95.000000,,,,0.000000,4.000000,4.000000,4.000000,4.000000,4.000000,100.000000,,,,,,,,,,,,,,,,,,,,,,,,,,,,,,,,,,,,,,,5.844466,5.853241,0.779022,1.868819,1.300336,1.160057,0.906898,1.002280,0.724762,0.590945,2.487285,4.604623,0.666394,0.588402,0.363017,1.515031,2.028878,1.341187,0.470197,0.411683,8.059554,4.569062,1.243616,1.222303,0.719999
1649884569.472044,4.000000,0.000000,4264.615234,4265.641113,4160.000000,4164.102539,4224.615234,16197.000000,4.000000,95.000000,,,,0.000000,4.000000,4.000000,4.000000,4.000000,4.000000,100.000000,,,,,,,,,,,,,,,,,,,,,,,,,,,,,,,,,,,,,,,,,,,,,,,,,,,,,,,,,,,,,,,
1649884569.479858,5.000000,0.000000,4261.025879,4241.538574,4131.282227,4143.589844,4230.769043,450.000000,4.000000,95.000000,,,,0.000000,4.000000,4.000000,4.000000,4.000000,4.000000,100.000000,,,,,,,,,,,,,,,,,,,,,,,,,,,,,,,,,,,,,,,,,,,,,,,,,,,,,,,,,,,,,,,
1649884569.487773,6.000000,0.000000,4269.743652,4246.666504,4125.128418,4142.563965,4250.769043,16174.000000,4.000000,95.000000,,,,0.000000,4.000000,4.000000,4.000000,4.000000,4.000000,100.000000,,,,,,,,,,,,,,,,,,,,,,,,,,,,,,,,,,,,,,,,,,,,,,,,,,,,,,,,,,,,,,,
1649884569.495587,7.000000,0.000000,4284.102539,4269.743652,4158.461426,4166.666504,4260.000000,450.000000,4.000000,95.000000,,,,0.000000,4.000000,4.000000,4.000000,4.000000,4.000000,100.000000,,,,,,,,,,,,,,,,,,,,,,,,,,,,,,,,,,,,,,,,,,,,,,,,,,,,,,,,,,,,,,,
1649884569.503501,8.000000,0.000000,4297.436035,4269.230957,4180.512695,4181.025879,4261.025879,450.000000,4.000000,95.000000,,,,0.000000,4.000000,4.000000,4.000000,4.000000,4.000000,100.000000,,,,,,,,,,,,,,,,,,,,,,,,,,,,,,,,,,,,,,,,,,,,,,,,,,,,,,,,,,,,,,,
1649884569.511316,9.000000,0.000000,4284.102539,4253.846191,4166.666504,4176.410156,4251.282227,16187.000000,4.000000,95.000000,,,,0.000000,4.000000,4.000000,4.000000,4.000000,4.000000,100.000000,,,,,,,,,,,,,,,,,,,,,,,,,,,,,,,,,,,,,,,,,,,,,,,,,,,,,,,,,,,,,,,
1649884569.519130,10.000000,0.000000,4263.077148,4253.333496,4163.589844,4178.461426,4240.000000,450.000000,4.000000,95.000000,,,,0.000000,4.000000,4.000000,4.000000,4.000000,4.000000,100.000000,,,,,,,,,,,,,,,,,,,,,,,,,,,,,,,,,,,,,,,,,,,,,,,,,,,,,,,,,,,,,,,
1649884569.526945,11.000000,0.000000,4264.102539,4257.436035,4176.410156,4182.563965,4239.487305,16178.000000,4.000000,95.000000,,,,0.000000,4.000000,4.000000,4.000000,4.000000,4.000000,100.000000,,,,,,,,,,,,,,,,,,,,,,,,,,,,,,,,,,,,,,,,,,,,,,,,,,,,,,,,,,,,,,,
1649884569.534659,12.000000,0.000000,4277.436035,4260.512695,4173.333496,4181.538574,4246.153809,450.000000,4.000000,95.000000,,,,0.000000,4.000000,4.000000,4.000000,4.000000,4.000000,100.000000,,,,,,,,,,,,,,,,,,,,,,,,,,,,,,,,,,,,,,,,,,,,,,,,,,,,,,,,,,,,,,,
1649884569.542474,13.000000,0.000000,4265.641113,4260.512695,4157.436035,4175.897461,4243.077148,450.000000,4.000000,95.000000,,,,0.000000,4.000000,4.000000,4.000000,4.000000,4.000000,100.000000,,,,,,,,,,,,,,,,,,,,,,,,,,,,,,,,,,,,,,,,,,,,,,,,,,,,,,,,,,,,,,,
1649884569.550188,14.000000,0.000000,4243.589844,4261.025879,4153.846191,4169.743652,4227.692383,450.000000,4.000000,95.000000,,,,0.000000,4.000000,4.000000,4.000000,4.000000,4.000000,100.000000,,,,,,,,,,,,,,,,,,,,,,,,,,,,,,,,,,,,,,,,,,,,,,,,,,,,,,,,,,,,,,,
1649884569.558003,15.000000,0.000000,4251.794922,4271.794922,4163.077148,4172.820313,4223.077148,16178.000000,4.000000,95.000000,,,,0.000000,4.000000,4.000000,4.000000,4.000000,4.000000,100.000000,,,,,,,,,,,,,,,,,,,,,,,,,,,,,,,,,,,,,,,,,,,,,,,,,,,,,,,,,,,,,,,
1649884569.565717,16.000000,0.000000,4265.641113,4267.692383,4162.563965,4173.333496,4222.563965,0.000000,4.000000,95.000000,,,,0.000000,4.000000,4.000000,4.000000,4.000000,4.000000,100.000000,,,,,,,,,,,,,,,,,,,,,,,,,,,,,,,,,,,,,,,,,,,,,,,,,,,,,,,,,,,,,,,
1649884569.573531,17.000000,0.000000,4261.025879,4258.974121,4162.563965,4166.153809,4225.128418,0.000000,4.000000,95.000000,,,,0.000000,4.000000,4.000000,4.000000,4.000000,4.000000,100.000000,,,,,,,,,,,,,,,,,,,,,,,,,,,,,,,,,,,,,,,,,,,,,,,,,,,,,,,,,,,,,,,
1649884569.581246,18.000000,0.000000,4251.282227,4266.666504,4170.769043,4166.666504,4232.307617,0.000000,4.000000,95.000000,,,,0.000000,4.000000,4.000000,4.000000,4.000000,4.000000,100.000000,,,,,,,,,,,,,,,,,,,,,,,,,,,,,,,,,,,,,,,,,,,,,,,,,,,,,,,,,,,,,,,
1649884569.589060,19.000000,0.000000,4252.820313,4266.666504,4169.230957,4174.871582,4233.846191,0.000000,4.000000,95.000000,,,,0.000000,4.000000,4.000000,4.000000,4.000000,4.000000,100.000000,1.000000,100.000000,4.000000,4.000000,4.000000,4.000000,4.000000,,,,,,,,,,,,,,,,,,,,,,,,,,,,,,,,4.374471,5.688478,0.926316,1.828215,1.285084,1.282480,1.001183,0.917675,0.873740,0.535965,2.000571,4.246792,0.691294,0.663957,0.348375,1.389619,2.006398,1.350343,0.521052,0.391780,7.049886,4.240375,1.486775,1.346002,0.732389
1649884569.596775,20.000000,0.000000,4266.153809,4254.358887,4160.000000,4172.307617,4232.307617,0.000000,4.000000,95.000000,,,,0.000000,4.000000,4.000000,4.000000,4.000000,4.000000,100.000000,,,,,,,,,,,,,,,,,,,,,,,,,,,,,,,,,,,,,,,,,,,,,,,,,,,,,,,,,,,,,,,
1649884569.604589,21.000000,0.000000,4274.358887,4254.358887,4153.333496,4163.077148,4233.846191,0.000000,4.000000,95.000000,,,,0.000000,4.000000,4.000000,4.000000,4.000000,4.000000,100.000000,,,,,,,,,,,,,,,,,,,,,,,,,,,,,,,,,,,,,,,,,,,,,,,,,,,,,,,,,,,,,,,
1649884569.612304,22.000000,0.000000,4265.128418,4257.948730,4155.897461,4171.282227,4232.307617,0.000000,4.000000,95.000000,,,,0.000000,4.000000,4.000000,4.000000,4.000000,4.000000,100.000000,,,,,,,,,,,,,,,,,,,,,,,,,,,,,,,,,,,,,,,,,,,,,,,,,,,,,,,,,,,,,,,
1649884569.620218,23.000000,0.000000,4261.538574,4260.000000,4169.743652,4191.794922,4238.461426,0.000000,4.000000,95.000000,,,,0.000000,4.000000,4.000000,4.000000,4.000000,4.000000,100.000000,,,,,,,,,,,,,,,,,,,,,,,,,,,,,,,,,,,,,,,,,,,,,,,,,,,,,,,,,,,,,,,
1649884569.628032,24.000000,0.000000,4281.025879,4276.410156,4179.487305,4201.538574,4262.051270,0.000000,4.000000,95.000000,,,,0.000000,4.000000,4.000000,4.000000,4.000000,4.000000,100.000000,,,,,,,,,,,,,,,,,,,,,,,,,,,,,,,,,,,,,,,,,,,,,,,,,,,,,,,,,,,,,,,
1649884569.635947,25.000000,0.000000,4288.205078,4284.102539,4176.922852,4194.358887,4269.230957,0.000000,4.000000,95.000000,,,,0.000000,4.000000,4.000000,4.000000,4.000000,4.000000,100.000000,,,,,,,,,,,,,,,,,,,,,,,,,,,,,,,,,,,,,,,,,,,,,,,,,,,,,,,,,,,,,,,
1649884569.643761,26.000000,0.000000,4281.538574,4271.794922,4178.461426,4192.307617,4257.436035,0.000000,4.000000,95.000000,,,,0.000000,4.000000,4.000000,4.000000,4.000000,4.000000,100.000000,,,,,,,,,,,,,,,,,,,,,,,,,,,,,,,,,,,,,,,,,,,,,,,,,,,,,,,,,,,,,,,
1649884569.651676,27.000000,0.000000,4278.461426,4258.461426,4171.282227,4192.820313,4250.769043,0.000000,4.000000,95.000000,,,,0.000000,4.000000,4.000000,4.000000,4.000000,4.000000,100.000000,,,,,,,,,,,,,,,,,,,,,,,,,,,,,,,,,,,,,,,,,,,,,,,,,,,,,,,,,,,,,,,
1649884569.659590,28.000000,0.000000,4276.922852,4251.794922,4150.769043,4177.436035,4245.128418,0.000000,4.000000,95.000000,,,,0.000000,4.000000,4.000000,4.000000,4.000000,4.000000,100.000000,,,,,,,,,,,,,,,,,,,,,,,,,,,,,,,,,,,,,,,,,,,,,,,,,,,,,,,,,,,,,,,
1649884569.667404,29.000000,0.000000,4289.230957,4267.179688,4160.512695,4174.871582,4254.871582,0.000000,4.000000,95.000000,,,,0.000000,4.000000,4.000000,4.000000,4.000000,4.000000,100.000000,,,,,,,,,,,,,,,,,,,,,,,,,,,,,,,,,,,,,,,,,,,,,,,,,,,,,,,,,,,,,,,
1649884569.675319,30.000000,0.000000,4298.461426,4285.641113,4180.000000,4192.307617,4274.358887,0.000000,4.000000,95.000000,,,,0.000000,4.000000,4.000000,4.000000,4.000000,4.000000,100.000000,,,,,,,,,,,,,,,,,,,,,,,,,,,,,,,,,,,,,,,,,,,,,,,,,,,,,,,,,,,,,,,
1649884569.683133,31.000000,0.000000,4282.563965,4274.871582,4168.205078,4189.743652,4264.102539,0.000000,4.000000,95.000000,,,,0.000000,4.000000,4.000000,4.000000,4.000000,4.000000,100.000000,,,,,,,,,,,,,,,,,,,,,,,,,,,,,,,,,,,,,,,,,,,,,,,,,,,,,,,,,,,,,,,
1649884569.691047,32.000000,0.000000,4265.641113,4257.436035,4160.512695,4170.769043,4240.000000,0.000000,4.000000,95.000000,,,,0.000000,4.000000,4.000000,4.000000,4.000000,4.000000,100.000000,,,,,,,,,,,,,,,,,,,,,,,,,,,,,,,,,,,,,,,,,,,,,,,,,,,,,,,,,,,,,,,
1649884569.698862,33.000000,0.000000,4269.230957,4251.794922,4171.282227,4166.666504,4237.436035,0.000000,4.000000,95.000000,,,,0.000000,4.000000,4.000000,4.000000,4.000000,4.000000,100.000000,,,,,,,,,,,,,,,,,,,,,,,,,,,,,,,,,,,,,,,,,,,,,,,,,,,,,,,,,,,,,,,
1649884569.706776,34.000000,0.000000,4273.333496,4245.128418,4166.153809,4169.230957,4239.487305,0.000000,4.000000,95.000000,,,,0.000000,4.000000,4.000000,4.000000,4.000000,4.000000,100.000000,,,,,,,,,,,,,,,,,,,,,,,,,,,,,,,,,,,,,,,,,,,,,,,,,,,,,,,,,,,,,,,
1649884569.714590,35.000000,0.000000,4265.128418,4245.128418,4152.820313,4162.051270,4236.410156,0.000000,4.000000,95.000000,,,,0.000000,4.000000,4.000000,4.000000,4.000000,4.000000,100.000000,,,,,,,,,,,,,,,,,,,,,,,,,,,,,,,,,,,,,,,4.094403,5.281382,1.159310,1.719574,1.268214,1.503833,1.143478,0.796807,0.996186,0.482169,1.489166,3.652421,0.779210,0.790490,0.366308,1.282724,1.986371,1.342208,0.639349,0.405249,6.925053,3.788929,1.754152,1.475613,0.792024
1649884569.722505,36.000000,0.000000,4255.897461,4258.974121,4156.922852,4166.153809,4241.538574,0.000000,4.000000,95.000000,,,,0.000000,4.000000,4.000000,4.000000,4.000000,4.000000,100.000000,,,,,,,,,,,,,,,,,,,,,,,,,,,,,,,,,,,,,,,,,,,,,,,,,,,,,,,,,,,,,,,
1649884569.730319,37.000000,0.000000,4255.384766,4260.512695,4158.461426,4184.102539,4244.615234,0.000000,4.000000,95.000000,,,,0.000000,4.000000,4.000000,4.000000,4.000000,4.000000,100.000000,,,,,,,,,,,,,,,,,,,,,,,,,,,,,,,,,,,,,,,,,,,,,,,,,,,,,,,,,,,,,,,
1649884569.738233,38.000000,0.000000,4271.794922,4255.897461,4151.282227,4188.717773,4242.051270,0.000000,4.000000,95.000000,,,,0.000000,4.000000,4.000000,4.000000,4.000000,4.000000,100.000000,,,,,,,,,,,,,,,,,,,,,,,,,,,,,,,,,,,,,,,,,,,,,,,,,,,,,,,,,,,,,,,
1649884569.746048,39.000000,0.000000,4288.205078,4261.025879,4156.922852,4181.025879,4241.538574,0.000000,4.000000,95.000000,,,,0.000000,4.000000,4.000000,4.000000,4.000000,4.000000,100.000000,,,,,,,,,,,,,,,,,,,,,,,,,,,,,,,,,,,,,,,,,,,,,,,,,,,,,,,,,,,,,,,
1649884569.753962,40.000000,0.000000,4288.717773,4261.025879,4175.897461,4186.153809,4250.769043,0.000000,4.000000,95.000000,,,,0.000000,4.000000,4.000000,4.000000,4.000000,4.000000,100.000000,,,,,,,,,,,,,,,,,,,,,,,,,,,,,,,,,,,,,,,,,,,,,,,,,,,,,,,,,,,,,,,
1649884569.761776,41.000000,0.000000,4287.179688,4258.974121,4181.025879,4196.410156,4266.153809,0.000000,4.000000,95.000000,,,,0.000000,4.000000,4.000000,4.000000,4.000000,4.000000,100.000000,,,,,,,,,,,,,,,,,,,,,,,,,,,,,,,,,,,,,,,,,,,,,,,,,,,,,,,,,,,,,,,
1649884569.769691,42.000000,0.000000,4291.282227,4264.615234,4168.205078,4189.230957,4270.769043,0.000000,4.000000,95.000000,,,,0.000000,4.000000,4.000000,4.000000,4.000000,4.000000,100.000000,,,,,,,,,,,,,,,,,,,,,,,,,,,,,,,,,,,,,,,,,,,,,,,,,,,,,,,,,,,,,,,
1649884569.777605,43.000000,0.000000,4297.948730,4270.256348,4170.769043,4182.051270,4268.205078,0.000000,4.000000,95.000000,,,,0.000000,4.000000,4.000000,4.000000,4.000000,4.000000,100.000000,,,,,,,,,,,,,,,,,,,,,,,,,,,,,,,,,,,,,,,,,,,,,,,,,,,,,,,,,,,,,,,
1649884569.785420,44.000000,0.000000,4297.436035,4268.205078,4187.179688,4187.692383,4267.179688,0.000000,4.000000,95.000000,,,,0.000000,4.000000,4.000000,4.000000,4.000000,4.000000,100.000000,,,,,,,,,,,,,,,,,,,,,,,,,,,,,,,,,,,,,,,,,,,,,,,,,,,,,,,,,,,,,,,
1649884569.793334,45.000000,0.000000,4283.589844,4261.025879,4187.179688,4182.051270,4257.436035,0.000000,4.000000,95.000000,,,,0.000000,4.000000,4.000000,4.000000,4.000000,4.000000,100.000000,,,,,,,,,,,,,,,,,,,,,,,,,,,,,,,,,,,,,,,,,,,,,,,,,,,,,,,,,,,,,,,
1649884569.801148,46.000000,0.000000,4272.820313,4257.436035,4175.897461,4174.871582,4248.205078,0.000000,4.000000,95.000000,,,,0.000000,4.000000,4.000000,4.000000,4.000000,4.000000,100.000000,,,,,,,,,,,,,,,,,,,,,,,,,,,,,,,,,,,,,,,,,,,,,,,,,,,,,,,,,,,,,,,
1649884569.809063,47.000000,0.000000,4284.615234,4266.666504,4180.000000,4187.692383,4260.512695,0.000000,4.000000,95.000000,,,,0.000000,4.000000,4.000000,4.000000,4.000000,4.000000,100.000000,,,,,,,,,,,,,,,,,,,,,,,,,,,,,,,,,,,,,,,,,,,,,,,,,,,,,,,,,,,,,,,
1649884569.816877,48.000000,0.000000,4282.051270,4269.230957,4183.077148,4191.794922,4262.051270,0.000000,4.000000,95.000000,,,,0.000000,4.000000,4.000000,4.000000,4.000000,4.000000,100.000000,,,,,,,,,,,,,,,,,,,,,,,,,,,,,,,,,,,,,,,,,,,,,,,,,,,,,,,,,,,,,,,
1649884569.824791,49.000000,0.000000,4250.769043,4250.769043,4166.153809,4172.820313,4232.307617,0.000000,4.000000,95.000000,,,,0.000000,4.000000,4.000000,4.000000,4.000000,4.000000,100.000000,,,,,,,,,,,,,,,,,,,,,,,,,,,,,,,,,,,,,,,,,,,,,,,,,,,,,,,,,,,,,,,
1649884569.832606,50.000000,0.000000,4247.179688,4243.077148,4154.358887,4162.563965,4214.871582,0.000000,4.000000,95.000000,,,,0.000000,4.000000,4.000000,4.000000,4.000000,4.000000,100.000000,,,,,,,,,,,,,,,,,,,,,,,,,,,,,,,,,,,,,,,,,,,,,,,,,,,,,,,,,,,,,,,
1649884569.840520,51.000000,0.000000,4272.307617,4258.461426,4160.000000,4176.410156,4226.666504,0.000000,4.000000,95.000000,,,,0.000000,4.000000,4.000000,4.000000,4.000000,4.000000,100.000000,,,,,,,,,,,,,,,,,,,,,,,,,,,,,,,,,,,,,,,3.985846,4.866624,1.423478,1.592843,1.266997,1.677033,1.356313,0.702729,1.083178,0.439182,1.102873,2.880507,0.915701,0.963238,0.416881,1.177731,2.057835,1.333007,0.827986,0.447123,6.640417,3.414612,2.003856,1.596815,0.885664
1649884569.848334,52.000000,0.000000,4280.000000,4264.615234,4172.307617,4187.692383,4236.410156,0.000000,4.000000,95.000000,,,,0.000000,4.000000,4.000000,4.000000,4.000000,4.000000,100.000000,,,,,,,,,,,,,,,,,,,,,,,,,,,,,,,,,,,,,,,,,,,,,,,,,,,,,,,,,,,,,,,
1649884569.856249,53.000000,0.000000,4272.307617,4255.897461,4171.794922,4182.051270,4234.358887,0.000000,4.000000,95.000000,,,,0.000000,4.000000,4.000000,4.000000,4.000000,4.000000,100.000000,,,,,,,,,,,,,,,,,,,,,,,,,,,,,,,,,,,,,,,,,,,,,,,,,,,,,,,,,,,,,,,
1649884569.864063,54.000000,0.000000,4264.102539,4254.358887,4169.230957,4177.948730,4233.333496,0.000000,4.000000,95.000000,,,,0.000000,4.000000,4.000000,4.000000,4.000000,4.000000,100.000000,,,,,,,,,,,,,,,,,,,,,,,,,,,,,,,,,,,,,,,,,,,,,,,,,,,,,,,,,,,,,,,
1649884569.871977,55.000000,0.000000,4262.563965,4251.282227,4175.897461,4177.436035,4238.461426,0.000000,4.000000,95.000000,,,,0.000000,4.000000,4.000000,4.000000,4.000000,4.000000,100.000000,,,,,,,,,,,,,,,,,,,,,,,,,,,,,,,,,,,,,,,,,,,,,,,,,,,,,,,,,,,,,,,
1649884569.879792,56.000000,0.000000,4276.410156,4250.256348,4185.128418,4182.563965,4251.282227,0.000000,4.000000,95.000000,,,,0.000000,4.000000,4.000000,4.000000,4.000000,4.000000,100.000000,,,,,,,,,,,,,,,,,,,,,,,,,,,,,,,,,,,,,,,,,,,,,,,,,,,,,,,,,,,,,,,
1649884569.887706,57.000000,0.000000,4288.205078,4263.589844,4187.692383,4193.333496,4254.871582,0.000000,4.000000,95.000000,,,,0.000000,4.000000,4.000000,4.000000,4.000000,4.000000,100.000000,,,,,,,,,,,,,,,,,,,,,,,,,,,,,,,,,,,,,,,,,,,,,,,,,,,,,,,,,,,,,,,
1649884569.895620,58.000000,0.000000,4268.205078,4263.589844,4182.051270,4186.666504,4236.922852,0.000000,4.000000,95.000000,,,,0.000000,4.000000,4.000000,4.000000,4.000000,4.000000,100.000000,,,,,,,,,,,,,,,,,,,,,,,,,,,,,,,,,,,,,,,,,,,,,,,,,,,,,,,,,,,,,,,
1649884569.903435,59.000000,0.000000,4255.897461,4253.333496,4189.230957,4173.846191,4235.897461,0.000000,4.000000,95.000000,,,,0.000000,4.000000,4.000000,4.000000,4.000000,4.000000,100.000000,,,,,,,,,,,,,,,,,,,,,,,,,,,,,,,,,,,,,,,,,,,,,,,,,,,,,,,,,,,,,,,
1649884569.911249,60.000000,0.000000,4282.051270,4268.205078,4210.256348,4188.717773,4263.589844,0.000000,4.000000,95.000000,,,,0.000000,4.000000,4.000000,4.000000,4.000000,4.000000,100.000000,,,,,,,,,,,,,,,,,,,,,,,,,,,,,,,,,,,,,,,,,,,,,,,,,,,,,,,,,,,,,,,
1649884569.919164,61.000000,0.000000,4300.000000,4285.128418,4214.871582,4207.179688,4276.410156,0.000000,4.000000,95.000000,,,,0.000000,4.000000,4.000000,4.000000,4.000000,4.000000,100.000000,,,,,,,,,,,,,,,,,,,,,,,,,,,,,,,,,,,,,,,,,,,,,,,,,,,,,,,,,,,,,,,
1649884569.927078,62.000000,0.000000,4290.256348,4272.307617,4198.461426,4193.333496,4260.000000,0.000000,4.000000,95.000000,,,,0.000000,4.000000,4.000000,4.000000,4.000000,4.000000,100.000000,,,,,,,,,,,,,,,,,,,,,,,,,,,,,,,,,,,,,,,,,,,,,,,,,,,,,,,,,,,,,,,
1649884569.934892,63.000000,0.000000,4292.307617,4270.256348,4193.333496,4182.563965,4256.410156,0.000000,4.000000,95.000000,,,,0.000000,4.000000,4.000000,4.000000,4.000000,4.000000,100.000000,,,,,,,,,,,,,,,,,,,,,,,,,,,,,,,,,,,,,,,,,,,,,,,,,,,,,,,,,,,,,,,
1649884569.942807,64.000000,0.000000,4305.128418,4286.666504,4202.051270,4197.948730,4269.743652,450.000000,4.000000,95.000000,,,,0.000000,4.000000,4.000000,4.000000,4.000000,4.000000,100.000000,,,,,,,,,,,,,,,,,,,,,,,,,,,,,,,,,,,,,,,,,,,,,,,,,,,,,,,,,,,,,,,
1649884569.950621,65.000000,0.000000,4297.948730,4284.615234,4198.461426,4202.563965,4265.641113,450.000000,4.000000,95.000000,,,,0.000000,4.000000,4.000000,4.000000,4.000000,4.000000,100.000000,,,,,,,,,,,,,,,,,,,,,,,,,,,,,,,,,,,,,,,,,,,,,,,,,,,,,,,,,,,,,,,
1649884569.958535,66.000000,0.000000,4293.333496,4274.871582,4196.922852,4193.333496,4256.922852,16187.000000,4.000000,95.000000,,,,0.000000,4.000000,4.000000,4.000000,4.000000,4.000000,100.000000,,,,,,,,,,,,,,,,,,,,,,,,,,,,,,,,,,,,,,,,,,,,,,,,,,,,,,,,,,,,,,,
1649884569.966350,67.000000,0.000000,4297.436035,4276.410156,4207.179688,4191.794922,4264.102539,450.000000,4.000000,95.000000,,,,0.000000,4.000000,4.000000,4.000000,4.000000,4.000000,100.000000,,,,,,,,,,,,,,,,,,,,,,,,,,,,,,,,,,,,,,,3.777777,4.634778,1.663319,1.478175,1.283228,1.717316,1.639998,0.669770,1.141521,0.413180,0.937506,2.071141,1.091075,1.165370,0.491538,1.111517,2.270349,1.331617,1.065174,0.501042,6.040410,3.298609,2.207668,1.692031,0.977329
1649884569.974264,68.000000,0.000000,4290.769043,4276.922852,4210.769043,4192.820313,4265.641113,16195.000000,4.000000,95.000000,,,,0.000000,4.000000,4.000000,4.000000,4.000000,4.000000,100.000000,,,,,,,,,,,,,,,,,,,,,,,,,,,,,,,,,,,,,,,,,,,,,,,,,,,,,,,,,,,,,,,
1649884569.982078,69.000000,0.000000,4280.512695,4269.230957,4199.487305,4184.102539,4253.846191,450.000000,4.000000,95.000000,,,,0.000000,4.000000,4.000000,4.000000,4.000000,4.000000,100.000000,,,,,,,,,,,,,,,,,,,,,,,,,,,,,,,,,,,,,,,,,,,,,,,,,,,,,,,,,,,,,,,
1649884569.989993,70.000000,0.000000,4282.563965,4267.692383,4191.794922,4178.461426,4251.282227,16134.000000,4.000000,95.000000,,,,0.000000,4.000000,4.000000,4.000000,4.000000,4.000000,100.000000,,,,,,,,,,,,,,,,,,,,,,,,,,,,,,,,,,,,,,,,,,,,,,,,,,,,,,,,,,,,,,,
1649884569.997807,71.000000,0.000000,4298.461426,4287.692383,4201.025879,4190.256348,4262.051270,450.000000,4.000000,95.000000,,,,0.000000,4.000000,4.000000,4.000000,4.000000,4.000000,100.000000,,,,,,,,,,,,,,,,,,,,,,,,,,,,,,,,,,,,,,,,,,,,,,,,,,,,,,,,,,,,,,,
1649884570.005721,72.000000,0.000000,4299.487305,4297.948730,4203.077148,4195.897461,4265.641113,450.000000,4.000000,95.000000,,,,0.000000,4.000000,4.000000,4.000000,4.000000,4.000000,100.000000,,,,,,,,,,,,,,,,,,,,,,,,,,,,,,,,,,,,,,,,,,,,,,,,,,,,,,,,,,,,,,,
1649884570.013536,73.000000,0.000000,4284.615234,4276.922852,4185.641113,4177.948730,4257.436035,16180.000000,4.000000,95.000000,,,,0.000000,4.000000,4.000000,4.000000,4.000000,4.000000,100.000000,,,,,,,,,,,,,,,,,,,,,,,,,,,,,,,,,,,,,,,,,,,,,,,,,,,,,,,,,,,,,,,
1649884570.021450,74.000000,0.000000,4281.538574,4261.538574,4177.948730,4164.615234,4253.333496,450.000000,4.000000,95.000000,,,,0.000000,4.000000,4.000000,4.000000,4.000000,4.000000,100.000000,,,,,,,,,,,,,,,,,,,,,,,,,,,,,,,,,,,,,,,,,,,,,,,,,,,,,,,,,,,,,,,
1649884570.029264,75.000000,0.000000,4282.051270,4271.794922,4185.641113,4171.282227,4252.307617,16190.000000,4.000000,95.000000,,,,0.000000,4.000000,4.000000,4.000000,4.000000,4.000000,100.000000,,,,,,,,,,,,,,,,,,,,,,,,,,,,,,,,,,,,,,,,,,,,,,,,,,,,,,,,,,,,,,,
1649884570.037179,76.000000,0.000000,4264.615234,4278.974121,4184.102539,4173.333496,4234.871582,450.000000,4.000000,95.000000,,,,0.000000,4.000000,4.000000,4.000000,4.000000,4.000000,100.000000,,,,,,,,,,,,,,,,,,,,,,,,,,,,,,,,,,,,,,,,,,,,,,,,,,,,,,,,,,,,,,,
1649884570.044993,77.000000,0.000000,4249.743652,4272.820313,4181.025879,4168.717773,4219.487305,450.000000,4.000000,95.000000,,,,0.000000,4.000000,4.000000,4.000000,4.000000,4.000000,100.000000,,,,,,,,,,,,,,,,,,,,,,,,,,,,,,,,,,,,,,,,,,,,,,,,,,,,,,,,,,,,,,,
1649884570.052908,78.000000,0.000000,4236.922852,4261.025879,4182.563965,4170.769043,4220.512695,450.000000,4.000000,95.000000,,,,0.000000,4.000000,4.000000,4.000000,4.000000,4.000000,100.000000,,,,,,,,,,,,,,,,,,,,,,,,,,,,,,,,,,,,,,,,,,,,,,,,,,,,,,,,,,,,,,,
1649884570.060722,79.000000,0.000000,4217.948730,4245.128418,4169.743652,4165.128418,4210.256348,16190.000000,4.000000,95.000000,,,,0.000000,4.000000,4.000000,4.000000,4.000000,4.000000,100.000000,,,,,,,,,,,,,,,,,,,,,,,,,,,,,,,,,,,,,,,,,,,,,,,,,,,,,,,,,,,,,,,
1649884570.068636,80.000000,0.000000,4233.333496,4249.230957,4167.692383,4160.000000,4205.128418,450.000000,4.000000,95.000000,,,,0.000000,4.000000,4.000000,4.000000,4.000000,4.000000,100.000000,,,,,,,,,,,,,,,,,,,,,,,,,,,,,,,,,,,,,,,,,,,,,,,,,,,,,,,,,,,,,,,
1649884570.076551,81.000000,0.000000,4277.436035,4271.794922,4195.384766,4179.487305,4236.410156,450.000000,4.000000,95.000000,,,,0.000000,4.000000,4.000000,4.000000,4.000000,4.000000,100.000000,,,,,,,,,,,,,,,,,,,,,,,,,,,,,,,,,,,,,,,,,,,,,,,,,,,,,,,,,,,,,,,
1649884570.084365,82.000000,0.000000,4288.205078,4270.256348,4205.128418,4190.769043,4248.717773,450.000000,4.000000,95.000000,,,,0.000000,4.000000,4.000000,4.000000,4.000000,4.000000,100.000000,,,,,,,,,,,,,,,,,,,,,,,,,,,,,,,,,,,,,,,,,,,,,,,,,,,,,,,,,,,,,,,
1649884570.092279,83.000000,0.000000,4275.384766,4262.563965,4190.256348,4181.025879,4226.153809,16190.000000,4.000000,95.000000,,,,0.000000,4.000000,4.000000,4.000000,4.000000,4.000000,100.000000,1.000000,100.000000,4.000000,4.000000,4.000000,4.000000,4.000000,,,,,,,,,,,,,,,,,,,,,,,,,,,,,,,,3.631251,4.499529,1.832836,1.376100,1.305678,1.605742,1.938893,0.691072,1.189472,0.405892,1.010220,1.402259,1.276528,1.370560,0.575088,1.120506,2.602342,1.320647,1.304647,0.550065,5.508245,3.351492,2.327121,1.745185,1.029092
1649884570.100194,84.000000,0.000000,4272.820313,4278.974121,4193.333496,4179.487305,4234.358887,450.000000,4.000000,95.000000,,,,0.000000,4.000000,4.000000,4.000000,4.000000,4.000000,100.000000,,,,,,,,,,,,,,,,,,,,,,,,,,,,,,,,,,,,,,,,,,,,,,,,,,,,,,,,,,,,,,,
1649884570.108008,85.000000,0.000000,4281.025879,4285.641113,4202.051270,4179.487305,4263.077148,450.000000,4.000000,95.000000,,,,0.000000,4.000000,4.000000,4.000000,4.000000,4.000000,100.000000,,,,,,,,,,,,,,,,,,,,,,,,,,,,,,,,,,,,,,,,,,,,,,,,,,,,,,,,,,,,,,,
1649884570.115922,86.000000,0.000000,4296.922852,4272.307617,4194.871582,4171.282227,4267.692383,450.000000,4.000000,95.000000,,,,0.000000,4.000000,4.000000,4.000000,4.000000,4.000000,100.000000,,,,,,,,,,,,,,,,,,,,,,,,,,,,,,,,,,,,,,,,,,,,,,,,,,,,,,,,,,,,,,,
1649884570.123737,87.000000,0.000000,4305.641113,4275.897461,4193.846191,4175.897461,4266.666504,16190.000000,4.000000,95.000000,,,,0.000000,4.000000,4.000000,4.000000,4.000000,4.000000,100.000000,,,,,,,,,,,,,,,,,,,,,,,,,,,,,,,,,,,,,,,,,,,,,,,,,,,,,,,,,,,,,,,
1649884570.131551,88.000000,0.000000,4289.230957,4278.974121,4208.205078,4189.743652,4265.128418,450.000000,4.000000,95.000000,,,,0.000000,4.000000,4.000000,4.000000,4.000000,4.000000,100.000000,,,,,,,,,,,,,,,,,,,,,,,,,,,,,,,,,,,,,,,,,,,,,,,,,,,,,,,,,,,,,,,
1649884570.139465,89.000000,0.000000,4267.179688,4262.051270,4212.307617,4189.743652,4248.205078,450.000000,4.000000,95.000000,,,,0.000000,4.000000,4.000000,4.000000,4.000000,4.000000,100.000000,,,,,,,,,,,,,,,,,,,,,,,,,,,,,,,,,,,,,,,,,,,,,,,,,,,,,,,,,,,,,,,
1649884570.147280,90.000000,0.000000,4267.179688,4261.025879,4200.000000,4182.051270,4232.820313,450.000000,4.000000,95.000000,,,,0.000000,4.000000,4.000000,4.000000,4.000000,4.000000,100.000000,,,,,,,,,,,,,,,,,,,,,,,,,,,,,,,,,,,,,,,,,,,,,,,,,,,,,,,,,,,,,,,
1649884570.155194,91.000000,0.000000,4270.256348,4263.589844,4188.717773,4172.307617,4225.641113,16190.000000,4.000000,95.000000,,,,0.000000,4.000000,4.000000,4.000000,4.000000,4.000000,100.000000,,,,,,,,,,,,,,,,,,,,,,,,,,,,,,,,,,,,,,,,,,,,,,,,,,,,,,,,,,,,,,,
1649884570.163108,92.000000,0.000000,4256.410156,4253.846191,4186.666504,4167.179688,4218.461426,450.000000,4.000000,95.000000,,,,0.000000,4.000000,4.000000,4.000000,4.000000,4.000000,100.000000,,,,,,,,,,,,,,,,,,,,,,,,,,,,,,,,,,,,,,,,,,,,,,,,,,,,,,,,,,,,,,,
1649884570.170923,93.000000,0.000000,4250.769043,4261.538574,4192.307617,4182.563965,4228.205078,450.000000,4.000000,95.000000,,,,0.000000,4.000000,4.000000,4.000000,4.000000,4.000000,100.000000,,,,,,,,,,,,,,,,,,,,,,,,,,,,,,,,,,,,,,,,,,,,,,,,,,,,,,,,,,,,,,,
1649884570.178737,94.000000,0.000000,4267.692383,4275.384766,4195.897461,4196.410156,4248.205078,450.000000,4.000000,95.000000,,,,0.000000,4.000000,4.000000,4.000000,4.000000,4.000000,100.000000,,,,,,,,,,,,,,,,,,,,,,,,,,,,,,,,,,,,,,,,,,,,,,,,,,,,,,,,,,,,,,,
1649884570.186652,95.000000,0.000000,4282.051270,4265.641113,4194.358887,4185.128418,4246.666504,16190.000000,4.000000,95.000000,,,,0.000000,4.000000,4.000000,4.000000,4.000000,4.000000,100.000000,,,,,,,,,,,,,,,,,,,,,,,,,,,,,,,,,,,,,,,,,,,,,,,,,,,,,,,,,,,,,,,
1649884570.194566,96.000000,0.000000,4276.410156,4251.794922,4186.666504,4173.333496,4240.000000,450.000000,4.000000,95.000000,,,,0.000000,4.000000,4.000000,4.000000,4.000000,4.000000,100.000000,,,,,,,,,,,,,,,,,,,,,,,,,,,,,,,,,,,,,,,,,,,,,,,,,,,,,,,,,,,,,,,
1649884570.202380,97.000000,0.000000,4277.436035,4258.461426,4181.025879,4181.538574,4259.487305,450.000000,4.000000,95.000000,,,,0.000000,4.000000,4.000000,4.000000,4.000000,4.000000,100.000000,,,,,,,,,,,,,,,,,,,,,,,,,,,,,,,,,,,,,,,,,,,,,,,,,,,,,,,,,,,,,,,
1649884570.210295,98.000000,0.000000,4283.589844,4263.077148,4179.487305,4181.538574,4268.205078,450.000000,4.000000,95.000000,,,,0.000000,4.000000,4.000000,4.000000,4.000000,4.000000,100.000000,,,,,,,,,,,,,,,,,,,,,,,,,,,,,,,,,,,,,,,,,,,,,,,,,,,,,,,,,,,,,,,
1649884570.218109,99.000000,0.000000,4283.589844,4260.512695,4180.512695,4171.794922,4249.230957,16190.000000,4.000000,95.000000,,,,0.000000,4.000000,4.000000,4.000000,4.000000,4.000000,100.000000,,,,,,,,,,,,,,,,,,,,,,,,,,,,,,,,,,,,,,,3.743340,4.370275,1.922508,1.266611,1.320454,1.406958,2.179699,0.727301,1.238650,0.415703,1.241185,0.997298,1.422217,1.540629,0.649540,1.226632,2.948279,1.271359,1.487404,0.585742,5.377286,3.459890,2.333196,1.742612,1.024671
1649884570.226023,100.000000,0.000000,4283.077148,4262.051270,4183.589844,4171.282227,4241.538574,450.000000,4.000000,95.000000,,,,0.000000,4.000000,4.000000,4.000000,4.000000,4.000000,100.000000,,,,,,,,,,,,,,,,,,,,,,,,,,,,,,,,,,,,,,,,,,,,,,,,,,,,,,,,,,,,,,,
1649884570.233838,101.000000,0.000000,4260.000000,4257.948730,4180.000000,4167.692383,4233.333496,450.000000,4.000000,95.000000,,,,0.000000,4.000000,4.000000,4.000000,4.000000,4.000000,100.000000,,,,,,,,,,,,,,,,,,,,,,,,,,,,,,,,,,,,,,,,,,,,,,,,,,,,,,,,,,,,,,,
1649884570.241752,102.000000,0.000000,4234.358887,4252.307617,4185.641113,4165.128418,4218.974121,450.000000,4.000000,95.000000,,,,0.000000,4.000000,4.000000,4.000000,4.000000,4.000000,100.000000,,,,,,,,,,,,,,,,,,,,,,,,,,,,,,,,,,,,,,,,,,,,,,,,,,,,,,,,,,,,,,,
1649884570.249666,103.000000,0.000000,4255.897461,4256.922852,4207.179688,4176.922852,4230.769043,16190.000000,4.000000,95.000000,,,,0.000000,4.000000,4.000000,4.000000,4.000000,4.000000,100.000000,,,,,,,,,,,,,,,,,,,,,,,,,,,,,,,,,,,,,,,,,,,,,,,,,,,,,,,,,,,,,,,
1649884570.257481,104.000000,0.000000,4280.512695,4267.179688,4208.717773,4181.025879,4244.102539,450.000000,4.000000,95.000000,,,,0.000000,4.000000,4.000000,4.000000,4.000000,4.000000,100.000000,,,,,,,,,,,,,,,,,,,,,,,,,,,,,,,,,,,,,,,,,,,,,,,,,,,,,,,,,,,,,,,
1649884570.265295,105.000000,0.000000,4256.922852,4263.077148,4178.974121,4165.641113,4227.179688,450.000000,4.000000,95.000000,,,,0.000000,4.000000,4.000000,4.000000,4.000000,4.000000,100.000000,,,,,,,,,,,,,,,,,,,,,,,,,,,,,,,,,,,,,,,,,,,,,,,,,,,,,,,,,,,,,,,
1649884570.273209,106.000000,0.000000,4233.846191,4248.717773,4163.589844,4151.794922,4211.794922,450.000000,4.000000,95.000000,,,,0.000000,4.000000,4.000000,4.000000,4.000000,4.000000,100.000000,,,,,,,,,,,,,,,,,,,,,,,,,,,,,,,,,,,,,,,,,,,,,,,,,,,,,,,,,,,,,,,
1649884570.281024,107.000000,0.000000,4246.666504,4251.794922,4183.589844,4162.051270,4221.025879,16190.000000,4.000000,95.000000,,,,0.000000,4.000000,4.000000,4.000000,4.000000,4.000000,100.000000,,,,,,,,,,,,,,,,,,,,,,,,,,,,,,,,,,,,,,,,,,,,,,,,,,,,,,,,,,,,,,,
1649884570.288938,108.000000,0.000000,4260.512695,4271.282227,4199.487305,4184.615234,4237.436035,450.000000,4.000000,95.000000,,,,0.000000,4.000000,4.000000,4.000000,4.000000,4.000000,100.000000,,,,,,,,,,,,,,,,,,,,,,,,,,,,,,,,,,,,,,,,,,,,,,,,,,,,,,,,,,,,,,,
1649884570.296753,109.000000,0.000000,4271.282227,4274.358887,4194.358887,4187.179688,4249.230957,450.000000,4.000000,95.000000,,,,0.000000,4.000000,4.000000,4.000000,4.000000,4.000000,100.000000,,,,,,,,,,,,,,,,,,,,,,,,,,,,,,,,,,,,,,,,,,,,,,,,,,,,,,,,,,,,,,,
1649884570.304667,110.000000,0.000000,4282.051270,4260.000000,4191.794922,4173.846191,4251.282227,450.000000,4.000000,95.000000,,,,0.000000,4.000000,4.000000,4.000000,4.000000,4.000000,100.000000,,,,,,,,,,,,,,,,,,,,,,,,,,,,,,,,,,,,,,,,,,,,,,,,,,,,,,,,,,,,,,,
1649884570.312481,111.000000,0.000000,4281.025879,4265.641113,4202.563965,4175.897461,4257.436035,16190.000000,4.000000,95.000000,,,,0.000000,4.000000,4.000000,4.000000,4.000000,4.000000,100.000000,,,,,,,,,,,,,,,,,,,,,,,,,,,,,,,,,,,,,,,,,,,,,,,,,,,,,,,,,,,,,,,
1649884570.320396,112.000000,0.000000,4287.692383,4282.563965,4208.717773,4183.589844,4268.205078,450.000000,4.000000,95.000000,,,,0.000000,4.000000,4.000000,4.000000,4.000000,4.000000,100.000000,,,,,,,,,,,,,,,,,,,,,,,,,,,,,,,,,,,,,,,,,,,,,,,,,,,,,,,,,,,,,,,
1649884570.328210,113.000000,0.000000,4290.769043,4276.922852,4200.512695,4176.410156,4257.436035,450.000000,4.000000,95.000000,,,,0.000000,4.000000,4.000000,4.000000,4.000000,4.000000,100.000000,,,,,,,,,,,,,,,,,,,,,,,,,,,,,,,,,,,,,,,,,,,,,,,,,,,,,,,,,,,,,,,
1649884570.336124,114.000000,0.000000,4279.487305,4264.615234,4198.974121,4174.871582,4245.128418,450.000000,4.000000,95.000000,,,,0.000000,4.000000,4.000000,4.000000,4.000000,4.000000,100.000000,,,,,,,,,,,,,,,,,,,,,,,,,,,,,,,,,,,,,,,,,,,,,,,,,,,,,,,,,,,,,,,
1649884570.343939,115.000000,0.000000,4289.230957,4270.256348,4206.153809,4190.256348,4255.897461,16190.000000,4.000000,95.000000,,,,0.000000,4.000000,4.000000,4.000000,4.000000,4.000000,100.000000,,,,,,,,,,,,,,,,,,,,,,,,,,,,,,,,,,,,,,,4.216760,4.219331,1.975809,1.136868,1.317958,1.232392,2.291553,0.740681,1.280941,0.439124,1.590657,0.855157,1.471187,1.635179,0.699279,1.431277,3.149000,1.170157,1.564121,0.606172,5.699086,3.545307,2.242901,1.681854,0.974489
1649884570.351853,116.000000,0.000000,4290.256348,4270.256348,4196.410156,4191.794922,4251.282227,450.000000,4.000000,95.000000,,,,0.000000,4.000000,4.000000,4.000000,4.000000,4.000000,100.000000,,,,,,,,,,,,,,,,,,,,,,,,,,,,,,,,,,,,,,,,,,,,,,,,,,,,,,,,,,,,,,,
1649884570.359767,117.000000,0.000000,4255.384766,4250.769043,4176.410156,4177.948730,4227.179688,450.000000,4.000000,95.000000,,,,0.000000,4.000000,4.000000,4.000000,4.000000,4.000000,100.000000,,,,,,,,,,,,,,,,,,,,,,,,,,,,,,,,,,,,,,,,,,,,,,,,,,,,,,,,,,,,,,,
1649884570.367582,118.000000,0.000000,4253.846191,4249.230957,4174.358887,4180.512695,4231.794922,450.000000,4.000000,95.000000,,,,0.000000,4.000000,4.000000,4.000000,4.000000,4.000000,100.000000,,,,,,,,,,,,,,,,,,,,,,,,,,,,,,,,,,,,,,,,,,,,,,,,,,,,,,,,,,,,,,,
1649884570.375396,119.000000,0.000000,4288.717773,4270.769043,4185.641113,4194.871582,4254.871582,16190.000000,4.000000,95.000000,,,,0.000000,4.000000,4.000000,4.000000,4.000000,4.000000,100.000000,,,,,,,,,,,,,,,,,,,,,,,,,,,,,,,,,,,,,,,,,,,,,,,,,,,,,,,,,,,,,,,
1649884570.383310,120.000000,0.000000,4302.563965,4276.922852,4197.948730,4194.871582,4270.256348,450.000000,4.000000,95.000000,,,,0.000000,4.000000,4.000000,4.000000,4.000000,4.000000,100.000000,,,,,,,,,,,,,,,,,,,,,,,,,,,,,,,,,,,,,,,,,,,,,,,,,,,,,,,,,,,,,,,
1649884570.391225,121.000000,0.000000,4320.000000,4271.282227,4218.461426,4198.461426,4292.820313,450.000000,4.000000,95.000000,,,,0.000000,4.000000,4.000000,4.000000,4.000000,4.000000,100.000000,,,,,,,,,,,,,,,,,,,,,,,,,,,,,,,,,,,,,,,,,,,,,,,,,,,,,,,,,,,,,,,
1649884570.399039,122.000000,0.000000,4334.871582,4283.589844,4225.641113,4211.794922,4304.615234,450.000000,4.000000,95.000000,,,,0.000000,4.000000,4.000000,4.000000,4.000000,4.000000,100.000000,,,,,,,,,,,,,,,,,,,,,,,,,,,,,,,,,,,,,,,,,,,,,,,,,,,,,,,,,,,,,,,
1649884570.406953,123.000000,0.000000,4310.769043,4290.769043,4205.641113,4206.666504,4288.205078,16190.000000,4.000000,95.000000,,,,0.000000,4.000000,4.000000,4.000000,4.000000,4.000000,100.000000,,,,,,,,,,,,,,,,,,,,,,,,,,,,,,,,,,,,,,,,,,,,,,,,,,,,,,,,,,,,,,,
1649884570.414768,124.000000,0.000000,4292.307617,4271.282227,4195.897461,4192.820313,4271.282227,450.000000,4.000000,95.000000,,,,0.000000,4.000000,4.000000,4.000000,4.000000,4.000000,100.000000,,,,,,,,,,,,,,,,,,,,,,,,,,,,,,,,,,,,,,,,,,,,,,,,,,,,,,,,,,,,,,,
1649884570.422682,125.000000,0.000000,4285.641113,4254.358887,4203.077148,4185.128418,4260.000000,450.000000,4.000000,95.000000,,,,0.000000,4.000000,4.000000,4.000000,4.000000,4.000000,100.000000,,,,,,,,,,,,,,,,,,,,,,,,,,,,,,,,,,,,,,,,,,,,,,,,,,,,,,,,,,,,,,,
1649884570.430497,126.000000,0.000000,4269.230957,4253.846191,4193.333496,4175.384766,4247.692383,450.000000,4.000000,95.000000,,,,0.000000,4.000000,4.000000,4.000000,4.000000,4.000000,100.000000,,,,,,,,,,,,,,,,,,,,,,,,,,,,,,,,,,,,,,,,,,,,,,,,,,,,,,,,,,,,,,,
1649884570.438411,127.000000,0.000000,4264.615234,4253.333496,4178.974121,4170.769043,4249.230957,243.000000,4.000000,95.000000,,,,0.000000,4.000000,4.000000,4.000000,4.000000,4.000000,100.000000,,,,,,,,,,,,,,,,,,,,,,,,,,,,,,,,,,,,,,,,,,,,,,,,,,,,,,,,,,,,,,,
1649884570.446225,0.000000,0.000000,4275.384766,4253.333496,4180.000000,4175.384766,4255.897461,450.000000,4.000000,95.000000,,,,0.000000,4.000000,4.000000,4.000000,4.000000,4.000000,100.000000,,,,,,,,,,,,,,,,,,,,,,,,,,,,,,,,,,,,,,,,,,,,,,,,,,,,,,,,,,,,,,,
1649884570.454140,1.000000,0.000000,4285.641113,4257.948730,4181.538574,4176.410156,4254.871582,450.000000,4.000000,95.000000,,,,0.000000,4.000000,4.000000,4.000000,4.000000,4.000000,100.000000,,,,,,,,,,,,,,,,,,,,,,,,,,,,,,,,,,,,,,,,,,,,,,,,,,,,,,,,,,,,,,,
1649884570.461954,2.000000,0.000000,4283.077148,4255.897461,4178.974121,4173.333496,4252.307617,16198.000000,4.000000,95.000000,,,,0.000000,4.000000,4.000000,4.000000,4.000000,4.000000,100.000000,,,,,,,,,,,,,,,,,,,,,,,,,,,,,,,,,,,,,,,,,,,,,,,,,,,,,,,,,,,,,,,
1649884570.469868,3.000000,0.000000,4267.692383,4253.333496,4182.051270,4171.794922,4244.615234,450.000000,4.000000,95.000000,,,,0.000000,4.000000,4.000000,4.000000,4.000000,4.000000,100.000000,,,,,,,,,,,,,,,,,,,,,,,,,,,,,,,,,,,,,,,5.020783,4.139541,2.007456,1.005383,1.297342,1.168635,2.237641,0.708526,1.294825,0.472551,2.050033,0.883524,1.383632,1.633114,0.716228,1.713613,3.078256,1.016547,1.522513,0.613660,6.369246,3.647485,2.075486,1.578514,0.903566
1649884570.477683,4.000000,0.000000,4266.153809,4254.358887,4193.333496,4171.794922,4234.871582,16201.000000,4.000000,95.000000,,,,0.000000,4.000000,4.000000,4.000000,4.000000,4.000000,100.000000,,,,,,,,,,,,,,,,,,,,,,,,,,,,,,,,,,,,,,,,,,,,,,,,,,,,,,,,,,,,,,,
1649884570.485597,5.000000,0.000000,4276.410156,4251.794922,4200.000000,4172.307617,4243.077148,450.000000,4.000000,95.000000,,,,0.000000,4.000000,4.000000,4.000000,4.000000,4.000000,100.000000,,,,,,,,,,,,,,,,,,,,,,,,,,,,,,,,,,,,,,,,,,,,,,,,,,,,,,,,,,,,,,,
1649884570.493411,6.000000,0.000000,4271.794922,4252.820313,4191.282227,4166.666504,4259.487305,16157.000000,4.000000,95.000000,,,,0.000000,4.000000,4.000000,4.000000,4.000000,4.000000,100.000000,,,,,,,,,,,,,,,,,,,,,,,,,,,,,,,,,,,,,,,,,,,,,,,,,,,,,,,,,,,,,,,
1649884570.501326,7.000000,0.000000,4276.410156,4262.563965,4181.025879,4164.615234,4255.384766,450.000000,4.000000,95.000000,,,,0.000000,4.000000,4.000000,4.000000,4.000000,4.000000,100.000000,,,,,,,,,,,,,,,,,,,,,,,,,,,,,,,,,,,,,,,,,,,,,,,,,,,,,,,,,,,,,,,
1649884570.509140,8.000000,0.000000,4291.282227,4263.077148,4175.897461,4174.871582,4245.128418,450.000000,4.000000,95.000000,,,,0.000000,4.000000,4.000000,4.000000,4.000000,4.000000,100.000000,,,,,,,,,,,,,,,,,,,,,,,,,,,,,,,,,,,,,,,,,,,,,,,,,,,,,,,,,,,,,,,
1649884570.517054,9.000000,0.000000,4289.743652,4259.487305,4174.358887,4184.102539,4260.512695,16191.000000,4.000000,95.000000,,,,0.000000,4.000000,4.000000,4.000000,4.000000,4.000000,100.000000,,,,,,,,,,,,,,,,,,,,,,,,,,,,,,,,,,,,,,,,,,,,,,,,,,,,,,,,,,,,,,,
1649884570.524869,10.000000,0.000000,4286.153809,4264.102539,4177.436035,4186.153809,4269.743652,450.000000,4.000000,95.000000,,,,0.000000,4.000000,4.000000,4.000000,4.000000,4.000000,100.000000,,,,,,,,,,,,,,,,,,,,,,,,,,,,,,,,,,,,,,,,,,,,,,,,,,,,,,,,,,,,,,,
1649884570.532783,11.000000,0.000000,4289.230957,4258.974121,4180.512695,4184.102539,4260.000000,16191.000000,4.000000,95.000000,,,,0.000000,4.000000,4.000000,4.000000,4.000000,4.000000,100.000000,,,,,,,,,,,,,,,,,,,,,,,,,,,,,,,,,,,,,,,,,,,,,,,,,,,,,,,,,,,,,,,
1649884570.540697,12.000000,0.000000,4291.282227,4248.205078,4181.538574,4180.512695,4268.205078,450.000000,4.000000,95.000000,,,,0.000000,4.000000,4.000000,4.000000,4.000000,4.000000,100.000000,,,,,,,,,,,,,,,,,,,,,,,,,,,,,,,,,,,,,,,,,,,,,,,,,,,,,,,,,,,,,,,
1649884570.548512,13.000000,0.000000,4280.000000,4251.282227,4177.948730,4177.948730,4266.666504,450.000000,4.000000,95.000000,,,,0.000000,4.000000,4.000000,4.000000,4.000000,4.000000,100.000000,,,,,,,,,,,,,,,,,,,,,,,,,,,,,,,,,,,,,,,,,,,,,,,,,,,,,,,,,,,,,,,
1649884570.556426,14.000000,0.000000,4264.102539,4260.512695,4175.897461,4179.487305,4240.512695,450.000000,4.000000,95.000000,,,,0.000000,4.000000,4.000000,4.000000,4.000000,4.000000,100.000000,,,,,,,,,,,,,,,,,,,,,,,,,,,,,,,,,,,,,,,,,,,,,,,,,,,,,,,,,,,,,,,
1649884570.564241,15.000000,0.000000,4269.743652,4270.256348,4184.102539,4183.589844,4241.538574,16191.000000,4.000000,95.000000,,,,0.000000,4.000000,4.000000,4.000000,4.000000,4.000000,100.000000,,,,,,,,,,,,,,,,,,,,,,,,,,,,,,,,,,,,,,,,,,,,,,,,,,,,,,,,,,,,,,,
1649884570.572155,16.000000,0.000000,4282.563965,4277.948730,4188.717773,4183.077148,4254.358887,0.000000,4.000000,95.000000,,,,0.000000,4.000000,4.000000,4.000000,4.000000,4.000000,100.000000,,,,,,,,,,,,,,,,,,,,,,,,,,,,,,,,,,,,,,,,,,,,,,,,,,,,,,,,,,,,,,,
1649884570.579969,17.000000,0.000000,4271.282227,4273.333496,4177.948730,4173.846191,4243.589844,0.000000,4.000000,95.000000,,,,0.000000,4.000000,4.000000,4.000000,4.000000,4.000000,100.000000,,,,,,,,,,,,,,,,,,,,,,,,,,,,,,,,,,,,,,,,,,,,,,,,,,,,,,,,,,,,,,,
1649884570.587884,18.000000,0.000000,4259.487305,4268.205078,4173.846191,4172.307617,4242.051270,0.000000,4.000000,95.000000,,,,0.000000,4.000000,4.000000,4.000000,4.000000,4.000000,100.000000,,,,,,,,,,,,,,,,,,,,,,,,,,,,,,,,,,,,,,,,,,,,,,,,,,,,,,,,,,,,,,,
1649884570.595698,19.000000,0.000000,4278.974121,4272.820313,4180.512695,4181.025879,4255.384766,0.000000,4.000000,95.000000,,,,0.000000,4.000000,4.000000,4.000000,4.000000,4.000000,100.000000,1.000000,100.000000,4.000000,4.000000,4.000000,4.000000,4.000000,,,,,,,,,,,,,,,,,,,,,,,,,,,,,,,,6.033019,4.332076,2.010993,0.917647,1.267383,1.239289,2.040559,0.638152,1.258262,0.513376,2.607896,0.976868,1.191571,1.544178,0.704770,2.057489,2.728999,0.826707,1.392179,0.613395,7.129014,3.957650,1.846227,1.459966,0.838041
1649884570.603612,20.000000,0.000000,4282.051270,4266.666504,4172.820313,4172.820313,4243.077148,0.000000,4.000000,95.000000,,,,0.000000,4.000000,4.000000,4.000000,4.000000,4.000000,100.000000,,,,,,,,,,,,,,,,,,,,,,,,,,,,,,,,,,,,,,,,,,,,,,,,,,,,,,,,,,,,,,,
1649884570.611427,21.000000,0.000000,4256.922852,4261.538574,4165.641113,4166.153809,4231.282227,0.000000,4.000000,95.000000,,,,0.000000,4.000000,4.000000,4.000000,4.000000,4.000000,100.000000,,,,,,,,,,,,,,,,,,,,,,,,,,,,,,,,,,,,,,,,,,,,,,,,,,,,,,,,,,,,,,,
1649884570.619341,22.000000,0.000000,4259.487305,4272.307617,4175.897461,4184.615234,4241.538574,0.000000,4.000000,95.000000,,,,0.000000,4.000000,4.000000,4.000000,4.000000,4.000000,100.000000,,,,,,,,,,,,,,,,,,,,,,,,,,,,,,,,,,,,,,,,,,,,,,,,,,,,,,,,,,,,,,,
1649884570.627155,23.000000,0.000000,4281.025879,4267.692383,4183.589844,4189.230957,4244.102539,0.000000,4.000000,95.000000,,,,0.000000,4.000000,4.000000,4.000000,4.000000,4.000000,100.000000,,,,,,,,,,,,,,,,,,,,,,,,,,,,,,,,,,,,,,,,,,,,,,,,,,,,,,,,,,,,,,,
1649884570.635070,24.000000,0.000000,4275.384766,4246.666504,4172.820313,4172.820313,4241.538574,0.000000,4.000000,95.000000,,,,0.000000,4.000000,4.000000,4.000000,4.000000,4.000000,100.000000,,,,,,,,,,,,,,,,,,,,,,,,,,,,,,,,,,,,,,,,,,,,,,,,,,,,,,,,,,,,,,,
1649884570.642884,25.000000,0.000000,4274.358887,4253.333496,4166.153809,4177.948730,4254.871582,0.000000,4.000000,95.000000,,,,0.000000,4.000000,4.000000,4.000000,4.000000,4.000000,100.000000,,,,,,,,,,,,,,,,,,,,,,,,,,,,,,,,,,,,,,,,,,,,,,,,,,,,,,,,,,,,,,,
1649884570.650798,26.000000,0.000000,4298.461426,4269.743652,4176.922852,4188.717773,4271.794922,0.000000,4.000000,95.000000,,,,0.000000,4.000000,4.000000,4.000000,4.000000,4.000000,100.000000,,,,,,,,,,,,,,,,,,,,,,,,,,,,,,,,,,,,,,,,,,,,,,,,,,,,,,,,,,,,,,,
1649884570.658613,27.000000,0.000000,4293.846191,4256.410156,4174.358887,4172.820313,4263.589844,0.000000,4.000000,95.000000,,,,0.000000,4.000000,4.000000,4.000000,4.000000,4.000000,100.000000,,,,,,,,,,,,,,,,,,,,,,,,,,,,,,,,,,,,,,,,,,,,,,,,,,,,,,,,,,,,,,,
1649884570.666527,28.000000,0.000000,4273.333496,4249.230957,4161.538574,4160.512695,4248.205078,0.000000,4.000000,95.000000,,,,0.000000,4.000000,4.000000,4.000000,4.000000,4.000000,100.000000,,,,,,,,,,,,,,,,,,,,,,,,,,,,,,,,,,,,,,,,,,,,,,,,,,,,,,,,,,,,,,,
1649884570.674341,29.000000,0.000000,4282.563965,4268.717773,4167.692383,4167.692383,4254.358887,0.000000,4.000000,95.000000,,,,0.000000,4.000000,4.000000,4.000000,4.000000,4.000000,100.000000,,,,,,,,,,,,,,,,,,,,,,,,,,,,,,,,,,,,,,,,,,,,,,,,,,,,,,,,,,,,,,,
1649884570.682256,30.000000,0.000000,4281.025879,4267.179688,4169.743652,4162.563965,4258.974121,0.000000,4.000000,95.000000,,,,0.000000,4.000000,4.000000,4.000000,4.000000,4.000000,100.000000,,,,,,,,,,,,,,,,,,,,,,,,,,,,,,,,,,,,,,,,,,,,,,,,,,,,,,,,,,,,,,,
1649884570.690070,31.000000,0.000000,4264.102539,4243.589844,4160.512695,4152.820313,4248.205078,0.000000,4.000000,95.000000,,,,0.000000,4.000000,4.000000,4.000000,4.000000,4.000000,100.000000,,,,,,,,,,,,,,,,,,,,,,,,,,,,,,,,,,,,,,,,,,,,,,,,,,,,,,,,,,,,,,,
1649884570.697985,32.000000,0.000000,4267.179688,4242.563965,4162.051270,4158.461426,4234.358887,0.000000,4.000000,95.000000,,,,0.000000,4.000000,4.000000,4.000000,4.000000,4.000000,100.000000,,,,,,,,,,,,,,,,,,,,,,,,,,,,,,,,,,,,,,,,,,,,,,,,,,,,,,,,,,,,,,,
1649884570.705799,33.000000,0.000000,4273.846191,4262.051270,4169.743652,4175.384766,4236.410156,0.000000,4.000000,95.000000,,,,0.000000,4.000000,4.000000,4.000000,4.000000,4.000000,100.000000,,,,,,,,,,,,,,,,,,,,,,,,,,,,,,,,,,,,,,,,,,,,,,,,,,,,,,,,,,,,,,,
1649884570.713713,34.000000,0.000000,4260.512695,4267.179688,4167.692383,4186.153809,4244.102539,0.000000,4.000000,95.000000,,,,0.000000,4.000000,4.000000,4.000000,4.000000,4.000000,100.000000,,,,,,,,,,,,,,,,,,,,,,,,,,,,,,,,,,,,,,,,,,,,,,,,,,,,,,,,,,,,,,,
1649884570.721528,35.000000,0.000000,4251.794922,4254.871582,4161.538574,4179.487305,4238.974121,0.000000,4.000000,95.000000,,,,0.000000,4.000000,4.000000,4.000000,4.000000,4.000000,100.000000,,,,,,,,,,,,,,,,,,,,,,,,,,,,,,,,,,,,,,,7.088831,4.915791,2.040971,0.921262,1.237891,1.395365,1.776154,0.569370,1.163407,0.559021,3.159090,1.092103,1.004109,1.402759,0.676835,2.425944,2.210612,0.637159,1.227245,0.609382,7.763039,4.647532,1.644763,1.354667,0.792645
1649884570.729442,36.000000,0.000000,4276.922852,4252.820313,4173.333496,4179.487305,4245.128418,0.000000,4.000000,95.000000,,,,0.000000,4.000000,4.000000,4.000000,4.000000,4.000000,100.000000,,,,,,,,,,,,,,,,,,,,,,,,,,,,,,,,,,,,,,,,,,,,,,,,,,,,,,,,,,,,,,,
1649884570.737256,37.000000,0.000000,4298.974121,4268.205078,4190.256348,4195.897461,4269.743652,0.000000,4.000000,95.000000,,,,0.000000,4.000000,4.000000,4.000000,4.000000,4.000000,100.000000,,,,,,,,,,,,,,,,,,,,,,,,,,,,,,,,,,,,,,,,,,,,,,,,,,,,,,,,,,,,,,,
1649884570.745171,38.000000,0.000000,4287.692383,4271.282227,4192.307617,4196.922852,4276.922852,0.000000,4.000000,95.000000,,,,0.000000,4.000000,4.000000,4.000000,4.000000,4.000000,100.000000,,,,,,,,,,,,,,,,,,,,,,,,,,,,,,,,,,,,,,,,,,,,,,,,,,,,,,,,,,,,,,,
1649884570.753085,39.000000,0.000000,4283.589844,4258.974121,4188.205078,4183.077148,4263.077148,0.000000,4.000000,95.000000,,,,0.000000,4.000000,4.000000,4.000000,4.000000,4.000000,100.000000,,,,,,,,,,,,,,,,,,,,,,,,,,,,,,,,,,,,,,,,,,,,,,,,,,,,,,,,,,,,,,,
1649884570.760899,40.000000,0.000000,4285.128418,4261.538574,4189.230957,4181.538574,4249.230957,0.000000,4.000000,95.000000,,,,0.000000,4.000000,4.000000,4.000000,4.000000,4.000000,100.000000,,,,,,,,,,,,,,,,,,,,,,,,,,,,,,,,,,,,,,,,,,,,,,,,,,,,,,,,,,,,,,,
1649884570.768814,41.000000,0.000000,4266.666504,4270.769043,4187.692383,4183.077148,4247.179688,0.000000,4.000000,95.000000,,,,0.000000,4.000000,4.000000,4.000000,4.000000,4.000000,100.000000,,,,,,,,,,,,,,,,,,,,,,,,,,,,,,,,,,,,,,,,,,,,,,,,,,,,,,,,,,,,,,,
1649884570.776628,42.000000,0.000000,4271.794922,4266.666504,4186.153809,4171.794922,4260.000000,0.000000,4.000000,95.000000,,,,0.000000,4.000000,4.000000,4.000000,4.000000,4.000000,100.000000,,,,,,,,,,,,,,,,,,,,,,,,,,,,,,,,,,,,,,,,,,,,,,,,,,,,,,,,,,,,,,,
1649884570.784542,43.000000,0.000000,4296.922852,4265.641113,4192.307617,4164.615234,4265.128418,0.000000,4.000000,95.000000,,,,0.000000,4.000000,4.000000,4.000000,4.000000,4.000000,100.000000,,,,,,,,,,,,,,,,,,,,,,,,,,,,,,,,,,,,,,,,,,,,,,,,,,,,,,,,,,,,,,,
1649884570.792357,44.000000,0.000000,4289.743652,4269.743652,4196.922852,4164.102539,4256.410156,0.000000,4.000000,95.000000,,,,0.000000,4.000000,4.000000,4.000000,4.000000,4.000000,100.000000,,,,,,,,,,,,,,,,,,,,,,,,,,,,,,,,,,,,,,,,,,,,,,,,,,,,,,,,,,,,,,,
1649884570.800271,45.000000,0.000000,4289.743652,4270.256348,4197.436035,4164.102539,4265.128418,0.000000,4.000000,95.000000,,,,0.000000,4.000000,4.000000,4.000000,4.000000,4.000000,100.000000,,,,,,,,,,,,,,,,,,,,,,,,,,,,,,,,,,,,,,,,,,,,,,,,,,,,,,,,,,,,,,,
1649884570.808085,46.000000,0.000000,4325.128418,4272.820313,4192.820313,4170.769043,4287.692383,0.000000,4.000000,95.000000,,,,0.000000,4.000000,4.000000,4.000000,4.000000,4.000000,100.000000,,,,,,,,,,,,,,,,,,,,,,,,,,,,,,,,,,,,,,,,,,,,,,,,,,,,,,,,,,,,,,,
1649884570.816000,47.000000,0.000000,4341.025879,4276.410156,4188.717773,4180.000000,4297.436035,0.000000,4.000000,95.000000,,,,0.000000,4.000000,4.000000,4.000000,4.000000,4.000000,100.000000,,,,,,,,,,,,,,,,,,,,,,,,,,,,,,,,,,,,,,,,,,,,,,,,,,,,,,,,,,,,,,,
1649884570.823814,48.000000,0.000000,4342.563965,4278.461426,4195.384766,4183.589844,4307.179688,0.000000,4.000000,95.000000,,,,0.000000,4.000000,4.000000,4.000000,4.000000,4.000000,100.000000,,,,,,,,,,,,,,,,,,,,,,,,,,,,,,,,,,,,,,,,,,,,,,,,,,,,,,,,,,,,,,,
1649884570.831729,49.000000,0.000000,4362.563965,4284.102539,4205.641113,4187.692383,4324.615234,0.000000,4.000000,95.000000,,,,0.000000,4.000000,4.000000,4.000000,4.000000,4.000000,100.000000,,,,,,,,,,,,,,,,,,,,,,,,,,,,,,,,,,,,,,,,,,,,,,,,,,,,,,,,,,,,,,,
1649884570.839543,50.000000,0.000000,4372.820313,4282.563965,4208.717773,4194.871582,4338.461426,0.000000,4.000000,95.000000,,,,0.000000,4.000000,4.000000,4.000000,4.000000,4.000000,100.000000,,,,,,,,,,,,,,,,,,,,,,,,,,,,,,,,,,,,,,,,,,,,,,,,,,,,,,,,,,,,,,,
1649884570.847457,51.000000,0.000000,4371.282227,4273.333496,4204.102539,4190.769043,4346.153809,0.000000,4.000000,95.000000,,,,0.000000,4.000000,4.000000,4.000000,4.000000,4.000000,100.000000,,,,,,,,,,,,,,,,,,,,,,,,,,,,,,,,,,,,,,,7.911480,5.798368,2.152401,1.035037,1.213440,1.546396,1.545938,0.550052,1.022107,0.603728,3.582725,1.220095,0.955914,1.250666,0.644819,2.791304,1.668222,0.485743,1.077423,0.601270,8.034912,5.711908,1.568985,1.280481,0.768054
1649884570.855272,52.000000,0.000000,4376.410156,4276.410156,4192.307617,4176.922852,4345.641113,0.000000,4.000000,95.000000,,,,0.000000,4.000000,4.000000,4.000000,4.000000,4.000000,100.000000,,,,,,,,,,,,,,,,,,,,,,,,,,,,,,,,,,,,,,,,,,,,,,,,,,,,,,,,,,,,,,,
1649884570.863186,53.000000,0.000000,4385.128418,4283.077148,4192.820313,4178.461426,4349.230957,0.000000,4.000000,95.000000,,,,0.000000,4.000000,4.000000,4.000000,4.000000,4.000000,100.000000,,,,,,,,,,,,,,,,,,,,,,,,,,,,,,,,,,,,,,,,,,,,,,,,,,,,,,,,,,,,,,,
1649884570.871000,54.000000,0.000000,4394.871582,4276.922852,4205.128418,4190.769043,4354.358887,0.000000,4.000000,95.000000,,,,0.000000,4.000000,4.000000,4.000000,4.000000,4.000000,100.000000,,,,,,,,,,,,,,,,,,,,,,,,,,,,,,,,,,,,,,,,,,,,,,,,,,,,,,,,,,,,,,,
1649884570.878915,55.000000,0.000000,4389.743652,4273.333496,4196.922852,4188.205078,4347.179688,0.000000,4.000000,95.000000,,,,0.000000,4.000000,4.000000,4.000000,4.000000,4.000000,100.000000,,,,,,,,,,,,,,,,,,,,,,,,,,,,,,,,,,,,,,,,,,,,,,,,,,,,,,,,,,,,,,,
1649884570.886829,56.000000,0.000000,4373.333496,4274.358887,4182.563965,4186.153809,4344.102539,0.000000,4.000000,95.000000,,,,0.000000,4.000000,4.000000,4.000000,4.000000,4.000000,100.000000,,,,,,,,,,,,,,,,,,,,,,,,,,,,,,,,,,,,,,,,,,,,,,,,,,,,,,,,,,,,,,,
1649884570.894643,57.000000,0.000000,4360.512695,4266.153809,4188.717773,4193.846191,4336.922852,0.000000,4.000000,95.000000,,,,0.000000,4.000000,4.000000,4.000000,4.000000,4.000000,100.000000,,,,,,,,,,,,,,,,,,,,,,,,,,,,,,,,,,,,,,,,,,,,,,,,,,,,,,,,,,,,,,,
1649884570.902558,58.000000,0.000000,4347.179688,4254.871582,4188.717773,4183.077148,4302.051270,0.000000,4.000000,95.000000,,,,0.000000,4.000000,4.000000,4.000000,4.000000,4.000000,100.000000,,,,,,,,,,,,,,,,,,,,,,,,,,,,,,,,,,,,,,,,,,,,,,,,,,,,,,,,,,,,,,,
1649884570.910372,59.000000,0.000000,4342.051270,4254.871582,4180.512695,4173.333496,4290.256348,0.000000,4.000000,95.000000,,,,0.000000,4.000000,4.000000,4.000000,4.000000,4.000000,100.000000,,,,,,,,,,,,,,,,,,,,,,,,,,,,,,,,,,,,,,,,,,,,,,,,,,,,,,,,,,,,,,,
1649884570.918286,60.000000,0.000000,4346.153809,4264.102539,4189.230957,4188.717773,4314.871582,0.000000,4.000000,95.000000,,,,0.000000,4.000000,4.000000,4.000000,4.000000,4.000000,100.000000,,,,,,,,,,,,,,,,,,,,,,,,,,,,,,,,,,,,,,,,,,,,,,,,,,,,,,,,,,,,,,,
1649884570.926101,61.000000,0.000000,4340.000000,4275.384766,4196.410156,4196.922852,4314.871582,0.000000,4.000000,95.000000,,,,0.000000,4.000000,4.000000,4.000000,4.000000,4.000000,100.000000,,,,,,,,,,,,,,,,,,,,,,,,,,,,,,,,,,,,,,,,,,,,,,,,,,,,,,,,,,,,,,,
1649884570.934015,62.000000,0.000000,4326.666504,4279.487305,4194.871582,4188.717773,4297.948730,0.000000,4.000000,95.000000,,,,0.000000,4.000000,4.000000,4.000000,4.000000,4.000000,100.000000,,,,,,,,,,,,,,,,,,,,,,,,,,,,,,,,,,,,,,,,,,,,,,,,,,,,,,,,,,,,,,,
1649884570.941829,63.000000,0.000000,4326.153809,4271.794922,4200.512695,4187.692383,4291.282227,0.000000,4.000000,95.000000,,,,0.000000,4.000000,4.000000,4.000000,4.000000,4.000000,100.000000,,,,,,,,,,,,,,,,,,,,,,,,,,,,,,,,,,,,,,,,,,,,,,,,,,,,,,,,,,,,,,,
1649884570.949744,64.000000,0.000000,4327.179688,4273.846191,4204.102539,4191.282227,4282.563965,450.000000,4.000000,95.000000,,,,0.000000,4.000000,4.000000,4.000000,4.000000,4.000000,100.000000,,,,,,,,,,,,,,,,,,,,,,,,,,,,,,,,,,,,,,,,,,,,,,,,,,,,,,,,,,,,,,,
1649884570.957558,65.000000,0.000000,4314.358887,4277.948730,4192.307617,4184.102539,4272.820313,450.000000,4.000000,95.000000,,,,0.000000,4.000000,4.000000,4.000000,4.000000,4.000000,100.000000,,,,,,,,,,,,,,,,,,,,,,,,,,,,,,,,,,,,,,,,,,,,,,,,,,,,,,,,,,,,,,,
1649884570.965373,66.000000,0.000000,4296.922852,4258.461426,4174.358887,4167.692383,4274.358887,16226.000000,4.000000,95.000000,,,,0.000000,4.000000,4.000000,4.000000,4.000000,4.000000,100.000000,,,,,,,,,,,,,,,,,,,,,,,,,,,,,,,,,,,,,,,,,,,,,,,,,,,,,,,,,,,,,,,
1649884570.973287,67.000000,0.000000,4289.743652,4250.769043,4170.769043,4161.538574,4277.436035,450.000000,4.000000,95.000000,,,,0.000000,4.000000,4.000000,4.000000,4.000000,4.000000,100.000000,,,,,,,,,,,,,,,,,,,,,,,,,,,,,,,,,,,,,,,8.249827,6.686928,2.356737,1.230329,1.191280,1.634355,1.420165,0.597502,0.860962,0.640001,3.719159,1.346676,1.112643,1.118323,0.615108,3.080418,1.253888,0.397769,0.967705,0.586867,7.800842,6.882505,1.661831,1.237917,0.754512
1649884570.981201,68.000000,0.000000,4295.384766,4274.358887,4180.000000,4174.358887,4271.282227,16229.000000,4.000000,95.000000,,,,0.000000,4.000000,4.000000,4.000000,4.000000,4.000000,100.000000,,,,,,,,,,,,,,,,,,,,,,,,,,,,,,,,,,,,,,,,,,,,,,,,,,,,,,,,,,,,,,,
1649884570.989016,69.000000,0.000000,4294.358887,4284.102539,4174.358887,4180.512695,4254.871582,450.000000,4.000000,95.000000,,,,0.000000,4.000000,4.000000,4.000000,4.000000,4.000000,100.000000,,,,,,,,,,,,,,,,,,,,,,,,,,,,,,,,,,,,,,,,,,,,,,,,,,,,,,,,,,,,,,,
1649884570.996930,70.000000,0.000000,4291.282227,4270.769043,4166.666504,4175.897461,4249.230957,16185.000000,4.000000,95.000000,,,,0.000000,4.000000,4.000000,4.000000,4.000000,4.000000,100.000000,,,,,,,,,,,,,,,,,,,,,,,,,,,,,,,,,,,,,,,,,,,,,,,,,,,,,,,,,,,,,,,
1649884571.004744,71.000000,0.000000,4298.974121,4269.230957,4186.153809,4184.615234,4269.743652,450.000000,4.000000,95.000000,,,,0.000000,4.000000,4.000000,4.000000,4.000000,4.000000,100.000000,,,,,,,,,,,,,,,,,,,,,,,,,,,,,,,,,,,,,,,,,,,,,,,,,,,,,,,,,,,,,,,
1649884571.012659,72.000000,0.000000,4290.769043,4272.307617,4191.794922,4187.179688,4269.743652,450.000000,4.000000,95.000000,,,,0.000000,4.000000,4.000000,4.000000,4.000000,4.000000,100.000000,,,,,,,,,,,,,,,,,,,,,,,,,,,,,,,,,,,,,,,,,,,,,,,,,,,,,,,,,,,,,,,
1649884571.020473,73.000000,0.000000,4282.051270,4263.077148,4177.948730,4181.538574,4254.358887,16221.000000,4.000000,95.000000,,,,0.000000,4.000000,4.000000,4.000000,4.000000,4.000000,100.000000,,,,,,,,,,,,,,,,,,,,,,,,,,,,,,,,,,,,,,,,,,,,,,,,,,,,,,,,,,,,,,,
1649884571.028387,74.000000,0.000000,4294.871582,4264.102539,4188.717773,4186.666504,4259.487305,450.000000,4.000000,95.000000,,,,0.000000,4.000000,4.000000,4.000000,4.000000,4.000000,100.000000,,,,,,,,,,,,,,,,,,,,,,,,,,,,,,,,,,,,,,,,,,,,,,,,,,,,,,,,,,,,,,,
1649884571.036202,75.000000,0.000000,4292.307617,4275.897461,4202.563965,4186.666504,4256.922852,16141.000000,4.000000,95.000000,,,,0.000000,4.000000,4.000000,4.000000,4.000000,4.000000,100.000000,,,,,,,,,,,,,,,,,,,,,,,,,,,,,,,,,,,,,,,,,,,,,,,,,,,,,,,,,,,,,,,
1649884571.044116,76.000000,0.000000,4283.077148,4279.487305,4190.769043,4179.487305,4246.666504,450.000000,4.000000,95.000000,,,,0.000000,4.000000,4.000000,4.000000,4.000000,4.000000,100.000000,,,,,,,,,,,,,,,,,,,,,,,,,,,,,,,,,,,,,,,,,,,,,,,,,,,,,,,,,,,,,,,
1649884571.052030,77.000000,0.000000,4289.743652,4272.820313,4187.692383,4181.025879,4255.897461,450.000000,4.000000,95.000000,,,,0.000000,4.000000,4.000000,4.000000,4.000000,4.000000,100.000000,,,,,,,,,,,,,,,,,,,,,,,,,,,,,,,,,,,,,,,,,,,,,,,,,,,,,,,,,,,,,,,
1649884571.059845,78.000000,0.000000,4292.820313,4271.794922,4199.487305,4189.743652,4261.538574,450.000000,4.000000,95.000000,,,,0.000000,4.000000,4.000000,4.000000,4.000000,4.000000,100.000000,,,,,,,,,,,,,,,,,,,,,,,,,,,,,,,,,,,,,,,,,,,,,,,,,,,,,,,,,,,,,,,
1649884571.067759,79.000000,0.000000,4285.128418,4271.282227,4191.794922,4188.205078,4243.589844,16141.000000,4.000000,95.000000,,,,0.000000,4.000000,4.000000,4.000000,4.000000,4.000000,100.000000,,,,,,,,,,,,,,,,,,,,,,,,,,,,,,,,,,,,,,,,,,,,,,,,,,,,,,,,,,,,,,,
1649884571.075573,80.000000,0.000000,4273.333496,4258.974121,4169.230957,4170.769043,4221.538574,450.000000,4.000000,95.000000,,,,0.000000,4.000000,4.000000,4.000000,4.000000,4.000000,100.000000,,,,,,,,,,,,,,,,,,,,,,,,,,,,,,,,,,,,,,,,,,,,,,,,,,,,,,,,,,,,,,,
1649884571.083488,81.000000,0.000000,4266.666504,4253.333496,4167.692383,4162.563965,4223.589844,450.000000,4.000000,95.000000,,,,0.000000,4.000000,4.000000,4.000000,4.000000,4.000000,100.000000,,,,,,,,,,,,,,,,,,,,,,,,,,,,,,,,,,,,,,,,,,,,,,,,,,,,,,,,,,,,,,,
1649884571.091302,82.000000,0.000000,4277.948730,4260.000000,4187.179688,4172.820313,4243.589844,450.000000,4.000000,95.000000,,,,0.000000,4.000000,4.000000,4.000000,4.000000,4.000000,100.000000,,,,,,,,,,,,,,,,,,,,,,,,,,,,,,,,,,,,,,,,,,,,,,,,,,,,,,,,,,,,,,,
1649884571.099217,83.000000,0.000000,4283.077148,4268.205078,4188.205078,4175.384766,4245.128418,16141.000000,4.000000,95.000000,,,,0.000000,4.000000,4.000000,4.000000,4.000000,4.000000,100.000000,1.000000,100.000000,4.000000,4.000000,4.000000,4.000000,4.000000,,,,,,,,,,,,,,,,,,,,,,,,,,,,,,,,8.273943,7.315689,2.623948,1.433323,1.162856,1.670419,1.403393,0.681867,0.711455,0.660691,3.542558,1.462909,1.421550,1.015612,0.585081,3.266490,1.107159,0.377427,0.891833,0.563517,7.274599,7.844519,1.898228,1.208488,0.739900
1649884571.107031,84.000000,0.000000,4267.692383,4271.794922,4174.358887,4166.666504,4223.589844,450.000000,4.000000,95.000000,,,,0.000000,4.000000,4.000000,4.000000,4.000000,4.000000,100.000000,,,,,,,,,,,,,,,,,,,,,,,,,,,,,,,,,,,,,,,,,,,,,,,,,,,,,,,,,,,,,,,
1649884571.114845,85.000000,0.000000,4265.128418,4264.102539,4178.461426,4163.077148,4217.948730,450.000000,4.000000,95.000000,,,,0.000000,4.000000,4.000000,4.000000,4.000000,4.000000,100.000000,,,,,,,,,,,,,,,,,,,,,,,,,,,,,,,,,,,,,,,,,,,,,,,,,,,,,,,,,,,,,,,
1649884571.122760,86.000000,0.000000,4269.743652,4258.974121,4191.282227,4160.512695,4229.230957,450.000000,4.000000,95.000000,,,,0.000000,4.000000,4.000000,4.000000,4.000000,4.000000,100.000000,,,,,,,,,,,,,,,,,,,,,,,,,,,,,,,,,,,,,,,,,,,,,,,,,,,,,,,,,,,,,,,
1649884571.130674,87.000000,0.000000,4258.974121,4261.025879,4185.128418,4158.974121,4231.794922,16141.000000,4.000000,95.000000,,,,0.000000,4.000000,4.000000,4.000000,4.000000,4.000000,100.000000,,,,,,,,,,,,,,,,,,,,,,,,,,,,,,,,,,,,,,,,,,,,,,,,,,,,,,,,,,,,,,,
1649884571.138488,88.000000,0.000000,4265.128418,4260.512695,4174.358887,4164.102539,4235.897461,450.000000,4.000000,95.000000,,,,0.000000,4.000000,4.000000,4.000000,4.000000,4.000000,100.000000,,,,,,,,,,,,,,,,,,,,,,,,,,,,,,,,,,,,,,,,,,,,,,,,,,,,,,,,,,,,,,,
1649884571.146303,89.000000,0.000000,4295.897461,4266.666504,4181.025879,4168.717773,4253.846191,450.000000,4.000000,95.000000,,,,0.000000,4.000000,4.000000,4.000000,4.000000,4.000000,100.000000,,,,,,,,,,,,,,,,,,,,,,,,,,,,,,,,,,,,,,,,,,,,,,,,,,,,,,,,,,,,,,,
1649884571.154117,90.000000,0.000000,4314.358887,4278.974121,4197.436035,4177.948730,4271.282227,450.000000,4.000000,95.000000,,,,0.000000,4.000000,4.000000,4.000000,4.000000,4.000000,100.000000,,,,,,,,,,,,,,,,,,,,,,,,,,,,,,,,,,,,,,,,,,,,,,,,,,,,,,,,,,,,,,,
1649884571.162031,91.000000,0.000000,4309.743652,4278.974121,4204.615234,4189.230957,4274.358887,16141.000000,4.000000,95.000000,,,,0.000000,4.000000,4.000000,4.000000,4.000000,4.000000,100.000000,,,,,,,,,,,,,,,,,,,,,,,,,,,,,,,,,,,,,,,,,,,,,,,,,,,,,,,,,,,,,,,
1649884571.169846,92.000000,0.000000,4293.333496,4266.153809,4192.820313,4183.077148,4255.384766,450.000000,4.000000,95.000000,,,,0.000000,4.000000,4.000000,4.000000,4.000000,4.000000,100.000000,,,,,,,,,,,,,,,,,,,,,,,,,,,,,,,,,,,,,,,,,,,,,,,,,,,,,,,,,,,,,,,
1649884571.177660,93.000000,0.000000,4282.563965,4261.538574,4181.538574,4175.897461,4241.538574,450.000000,4.000000,95.000000,,,,0.000000,4.000000,4.000000,4.000000,4.000000,4.000000,100.000000,,,,,,,,,,,,,,,,,,,,,,,,,,,,,,,,,,,,,,,,,,,,,,,,,,,,,,,,,,,,,,,
1649884571.185375,94.000000,0.000000,4291.282227,4268.717773,4190.769043,4187.692383,4255.384766,450.000000,4.000000,95.000000,,,,0.000000,4.000000,4.000000,4.000000,4.000000,4.000000,100.000000,,,,,,,,,,,,,,,,,,,,,,,,,,,,,,,,,,,,,,,,,,,,,,,,,,,,,,,,,,,,,,,
1649884571.193289,95.000000,0.000000,4294.358887,4270.256348,4198.461426,4194.871582,4265.128418,16141.000000,4.000000,95.000000,,,,0.000000,4.000000,4.000000,4.000000,4.000000,4.000000,100.000000,,,,,,,,,,,,,,,,,,,,,,,,,,,,,,,,,,,,,,,,,,,,,,,,,,,,,,,,,,,,,,,
1649884571.201103,96.000000,0.000000,4275.897461,4265.128418,4191.794922,4187.179688,4254.358887,450.000000,4.000000,95.000000,,,,0.000000,4.000000,4.000000,4.000000,4.000000,4.000000,100.000000,,,,,,,,,,,,,,,,,,,,,,,,,,,,,,,,,,,,,,,,,,,,,,,,,,,,,,,,,,,,,,,
1649884571.209018,97.000000,0.000000,4277.436035,4270.256348,4195.384766,4193.333496,4257.436035,450.000000,4.000000,95.000000,,,,0.000000,4.000000,4.000000,4.000000,4.000000,4.000000,100.000000,,,,,,,,,,,,,,,,,,,,,,,,,,,,,,,,,,,,,,,,,,,,,,,,,,,,,,,,,,,,,,,
1649884571.216932,98.000000,0.000000,4298.974121,4274.358887,4196.410156,4202.563965,4267.692383,450.000000,4.000000,95.000000,,,,0.000000,4.000000,4.000000,4.000000,4.000000,4.000000,100.000000,,,,,,,,,,,,,,,,,,,,,,,,,,,,,,,,,,,,,,,,,,,,,,,,,,,,,,,,,,,,,,,
1649884571.224747,99.000000,0.000000,4298.974121,4257.948730,4181.025879,4185.641113,4263.077148,16141.000000,4.000000,95.000000,,,,0.000000,4.000000,4.000000,4.000000,4.000000,4.000000,100.000000,,,,,,,,,,,,,,,,,,,,,,,,,,,,,,,,,,,,,,,8.519633,7.453457,2.861565,1.561079,1.120089,1.699407,1.428960,0.751885,0.600395,0.662167,3.108400,1.564143,1.738416,0.931607,0.549737,3.310763,1.260144,0.397066,0.826231,0.531578,7.011645,8.312735,2.167089,1.175979,0.719590
1649884571.232561,100.000000,0.000000,4291.794922,4260.000000,4175.897461,4173.333496,4257.948730,450.000000,4.000000,95.000000,,,,0.000000,4.000000,4.000000,4.000000,4.000000,4.000000,100.000000,,,,,,,,,,,,,,,,,,,,,,,,,,,,,,,,,,,,,,,,,,,,,,,,,,,,,,,,,,,,,,,
1649884571.240475,101.000000,0.000000,4279.487305,4277.436035,4175.897461,4180.512695,4251.794922,450.000000,4.000000,95.000000,,,,0.000000,4.000000,4.000000,4.000000,4.000000,4.000000,100.000000,,,,,,,,,,,,,,,,,,,,,,,,,,,,,,,,,,,,,,,,,,,,,,,,,,,,,,,,,,,,,,,
1649884571.248390,102.000000,0.000000,4255.897461,4261.025879,4154.358887,4177.436035,4238.461426,450.000000,4.000000,95.000000,,,,0.000000,4.000000,4.000000,4.000000,4.000000,4.000000,100.000000,,,,,,,,,,,,,,,,,,,,,,,,,,,,,,,,,,,,,,,,,,,,,,,,,,,,,,,,,,,,,,,
1649884571.256304,103.000000,0.000000,4259.487305,4242.051270,4143.589844,4165.641113,4235.384766,16141.000000,4.000000,95.000000,,,,0.000000,4.000000,4.000000,4.000000,4.000000,4.000000,100.000000,,,,,,,,,,,,,,,,,,,,,,,,,,,,,,,,,,,,,,,,,,,,,,,,,,,,,,,,,,,,,,,
1649884571.264118,104.000000,0.000000,4281.025879,4258.461426,4164.615234,4168.717773,4237.948730,450.000000,4.000000,95.000000,,,,0.000000,4.000000,4.000000,4.000000,4.000000,4.000000,100.000000,,,,,,,,,,,,,,,,,,,,,,,,,,,,,,,,,,,,,,,,,,,,,,,,,,,,,,,,,,,,,,,
1649884571.272033,105.000000,0.000000,4275.897461,4269.743652,4180.000000,4176.410156,4234.358887,450.000000,4.000000,95.000000,,,,0.000000,4.000000,4.000000,4.000000,4.000000,4.000000,100.000000,,,,,,,,,,,,,,,,,,,,,,,,,,,,,,,,,,,,,,,,,,,,,,,,,,,,,,,,,,,,,,,
1649884571.279847,106.000000,0.000000,4262.563965,4254.358887,4174.871582,4172.820313,4227.692383,450.000000,4.000000,95.000000,,,,0.000000,4.000000,4.000000,4.000000,4.000000,4.000000,100.000000,,,,,,,,,,,,,,,,,,,,,,,,,,,,,,,,,,,,,,,,,,,,,,,,,,,,,,,,,,,,,,,
1649884571.287761,107.000000,0.000000,4267.692383,4250.256348,4170.256348,4169.230957,4228.205078,16141.000000,4.000000,95.000000,,,,0.000000,4.000000,4.000000,4.000000,4.000000,4.000000,100.000000,,,,,,,,,,,,,,,,,,,,,,,,,,,,,,,,,,,,,,,,,,,,,,,,,,,,,,,,,,,,,,,
1649884571.295576,108.000000,0.000000,4273.846191,4266.153809,4170.256348,4165.641113,4240.000000,450.000000,4.000000,95.000000,,,,0.000000,4.000000,4.000000,4.000000,4.000000,4.000000,100.000000,,,,,,,,,,,,,,,,,,,,,,,,,,,,,,,,,,,,,,,,,,,,,,,,,,,,,,,,,,,,,,,
1649884571.303490,109.000000,0.000000,4270.256348,4274.358887,4167.179688,4160.000000,4245.641113,450.000000,4.000000,95.000000,,,,0.000000,4.000000,4.000000,4.000000,4.000000,4.000000,100.000000,,,,,,,,,,,,,,,,,,,,,,,,,,,,,,,,,,,,,,,,,,,,,,,,,,,,,,,,,,,,,,,
1649884571.311404,110.000000,0.000000,4266.153809,4264.102539,4163.589844,4156.922852,4235.384766,450.000000,4.000000,95.000000,,,,0.000000,4.000000,4.000000,4.000000,4.000000,4.000000,100.000000,,,,,,,,,,,,,,,,,,,,,,,,,,,,,,,,,,,,,,,,,,,,,,,,,,,,,,,,,,,,,,,
1649884571.319219,111.000000,0.000000,4260.512695,4245.128418,4155.897461,4147.692383,4222.051270,16141.000000,4.000000,95.000000,,,,0.000000,4.000000,4.000000,4.000000,4.000000,4.000000,100.000000,,,,,,,,,,,,,,,,,,,,,,,,,,,,,,,,,,,,,,,,,,,,,,,,,,,,,,,,,,,,,,,
1649884571.327033,112.000000,0.000000,4267.179688,4246.153809,4150.769043,4141.025879,4225.641113,450.000000,4.000000,95.000000,,,,0.000000,4.000000,4.000000,4.000000,4.000000,4.000000,100.000000,,,,,,,,,,,,,,,,,,,,,,,,,,,,,,,,,,,,,,,,,,,,,,,,,,,,,,,,,,,,,,,
1649884571.334947,113.000000,0.000000,4290.256348,4265.128418,4164.615234,4155.384766,4247.692383,450.000000,4.000000,95.000000,,,,0.000000,4.000000,4.000000,4.000000,4.000000,4.000000,100.000000,,,,,,,,,,,,,,,,,,,,,,,,,,,,,,,,,,,,,,,,,,,,,,,,,,,,,,,,,,,,,,,
1649884571.342762,114.000000,0.000000,4298.974121,4262.563965,4178.461426,4170.256348,4263.589844,450.000000,4.000000,95.000000,,,,0.000000,4.000000,4.000000,4.000000,4.000000,4.000000,100.000000,,,,,,,,,,,,,,,,,,,,,,,,,,,,,,,,,,,,,,,,,,,,,,,,,,,,,,,,,,,,,,,
1649884571.350676,115.000000,0.000000,4280.000000,4246.153809,4177.948730,4163.077148,4255.384766,16141.000000,4.000000,95.000000,,,,0.000000,4.000000,4.000000,4.000000,4.000000,4.000000,100.000000,,,,,,,,,,,,,,,,,,,,,,,,,,,,,,,,,,,,,,,9.414272,7.026243,2.963800,1.570235,1.059367,1.732697,1.414369,0.759568,0.541358,0.645030,2.555686,1.648245,1.896389,0.846592,0.509728,3.208523,1.620206,0.411895,0.750993,0.495982,7.394705,8.144426,2.329196,1.142393,0.696229
1649884571.358491,116.000000,0.000000,4268.717773,4257.948730,4182.051270,4160.000000,4242.051270,450.000000,4.000000,95.000000,,,,0.000000,4.000000,4.000000,4.000000,4.000000,4.000000,100.000000,,,,,,,,,,,,,,,,,,,,,,,,,,,,,,,,,,,,,,,,,,,,,,,,,,,,,,,,,,,,,,,
1649884571.366405,117.000000,0.000000,4276.922852,4270.769043,4179.487305,4171.794922,4232.307617,450.000000,4.000000,95.000000,,,,0.000000,4.000000,4.000000,4.000000,4.000000,4.000000,100.000000,,,,,,,,,,,,,,,,,,,,,,,,,,,,,,,,,,,,,,,,,,,,,,,,,,,,,,,,,,,,,,,
1649884571.374319,118.000000,0.000000,4272.820313,4249.743652,4155.384766,4162.051270,4214.871582,450.000000,4.000000,95.000000,,,,0.000000,4.000000,4.000000,4.000000,4.000000,4.000000,100.000000,,,,,,,,,,,,,,,,,,,,,,,,,,,,,,,,,,,,,,,,,,,,,,,,,,,,,,,,,,,,,,,
1649884571.382134,119.000000,0.000000,4263.589844,4240.000000,4150.769043,4146.666504,4216.410156,16141.000000,4.000000,95.000000,,,,0.000000,4.000000,4.000000,4.000000,4.000000,4.000000,100.000000,,,,,,,,,,,,,,,,,,,,,,,,,,,,,,,,,,,,,,,,,,,,,,,,,,,,,,,,,,,,,,,
1649884571.390048,120.000000,1.000000,4265.754883,4242.563965,4153.959961,4150.541504,4219.259277,14397.555664,4.000000,95.000000,,,,0.000000,4.000000,4.000000,4.000000,4.000000,4.000000,100.000000,,,,,,,,,,,,,,,,,,,,,,,,,,,,,,,,,,,,,,,,,,,,,,,,,,,,,,,,,,,,,,,
1649884571.397862,121.000000,1.000000,4267.920410,4245.128418,4157.150879,4154.416016,4222.108398,12654.111328,4.000000,95.000000,,,,0.000000,4.000000,4.000000,4.000000,4.000000,4.000000,100.000000,,,,,,,,,,,,,,,,,,,,,,,,,,,,,,,,,,,,,,,,,,,,,,,,,,,,,,,,,,,,,,,
1649884571.405677,122.000000,1.000000,4270.085449,4247.692383,4160.341797,4158.290527,4224.957031,10910.666992,4.000000,95.000000,,,,0.000000,4.000000,4.000000,4.000000,4.000000,4.000000,100.000000,,,,,,,,,,,,,,,,,,,,,,,,,,,,,,,,,,,,,,,,,,,,,,,,,,,,,,,,,,,,,,,
1649884571.413491,123.000000,1.000000,4272.250488,4250.256348,4163.532715,4162.165039,4227.806152,9167.222656,4.000000,95.000000,,,,0.000000,4.000000,4.000000,4.000000,4.000000,4.000000,100.000000,,,,,,,,,,,,,,,,,,,,,,,,,,,,,,,,,,,,,,,,,,,,,,,,,,,,,,,,,,,,,,,
1649884571.421305,124.000000,1.000000,4274.416016,4252.820313,4166.723633,4166.040039,4230.655273,7423.777832,4.000000,95.000000,,,,0.000000,4.000000,4.000000,4.000000,4.000000,4.000000,100.000000,,,,,,,,,,,,,,,,,,,,,,,,,,,,,,,,,,,,,,,,,,,,,,,,,,,,,,,,,,,,,,,
1649884571.429120,125.000000,1.000000,4276.581055,4255.384766,4169.914551,4169.914551,4233.504395,5680.333496,4.000000,95.000000,,,,0.000000,4.000000,4.000000,4.000000,4.000000,4.000000,100.000000,,,,,,,,,,,,,,,,,,,,,,,,,,,,,,,,,,,,,,,,,,,,,,,,,,,,,,,,,,,,,,,
1649884571.436934,126.000000,1.000000,4278.746582,4257.948730,4173.105469,4173.789063,4236.353516,3936.888916,4.000000,95.000000,,,,0.000000,4.000000,4.000000,4.000000,4.000000,4.000000,100.000000,,,,,,,,,,,,,,,,,,,,,,,,,,,,,,,,,,,,,,,,,,,,,,,,,,,,,,,,,,,,,,,
1649884571.444749,127.000000,1.000000,4280.911621,4260.512695,4176.296387,4177.663574,4239.202148,2193.444336,4.000000,95.000000,,,,0.000000,4.000000,4.000000,4.000000,4.000000,4.000000,100.000000,,,,,,,,,,,,,,,,,,,,,,,,,,,,,,,,,,,,,,,,,,,,,,,,,,,,,,,,,,,,,,,
1649884571.452563,0.000000,0.000000,4283.077148,4263.077148,4179.487305,4181.538574,4242.051270,450.000000,4.000000,95.000000,,,,0.000000,4.000000,4.000000,4.000000,4.000000,4.000000,100.000000,,,,,,,,,,,,,,,,,,,,,,,,,,,,,,,,,,,,,,,,,,,,,,,,,,,,,,,,,,,,,,,
1649884571.460378,1.000000,0.000000,4281.025879,4266.153809,4189.743652,4188.717773,4247.179688,450.000000,4.000000,95.000000,,,,0.000000,4.000000,4.000000,4.000000,4.000000,4.000000,100.000000,,,,,,,,,,,,,,,,,,,,,,,,,,,,,,,,,,,,,,,,,,,,,,,,,,,,,,,,,,,,,,,
1649884571.468092,2.000000,0.000000,4289.743652,4260.000000,4187.692383,4192.307617,4248.717773,16240.000000,4.000000,95.000000,,,,0.000000,4.000000,4.000000,4.000000,4.000000,4.000000,100.000000,,,,,,,,,,,,,,,,,,,,,,,,,,,,,,,,,,,,,,,,,,,,,,,,,,,,,,,,,,,,,,,
1649884571.475906,3.000000,0.000000,4293.333496,4248.717773,4172.307617,4188.717773,4247.179688,450.000000,4.000000,95.000000,,,,0.000000,4.000000,4.000000,4.000000,4.000000,4.000000,100.000000,,,,,,,,,,,,,,,,,,,,,,,,,,,,,,,,,,,,,,,10.936687,6.158071,2.888107,1.472770,0.986202,1.746147,1.320563,0.689968,0.531006,0.615979,2.028661,1.705803,1.796454,0.746161,0.474947,2.993749,2.032490,0.397923,0.662073,0.463773,8.423590,7.395532,2.302187,1.116143,0.677212
1649884571.483621,4.000000,0.000000,4290.769043,4261.025879,4173.846191,4189.230957,4258.461426,16219.000000,4.000000,95.000000,,,,0.000000,4.000000,4.000000,4.000000,4.000000,4.000000,100.000000,,,,,,,,,,,,,,,,,,,,,,,,,,,,,,,,,,,,,,,,,,,,,,,,,,,,,,,,,,,,,,,
1649884571.491435,5.000000,0.000000,4289.743652,4281.538574,4177.948730,4186.153809,4264.615234,450.000000,4.000000,95.000000,,,,0.000000,4.000000,4.000000,4.000000,4.000000,4.000000,100.000000,,,,,,,,,,,,,,,,,,,,,,,,,,,,,,,,,,,,,,,,,,,,,,,,,,,,,,,,,,,,,,,
1649884571.499150,6.000000,0.000000,4282.051270,4271.794922,4170.256348,4176.410156,4251.282227,16197.000000,4.000000,95.000000,,,,0.000000,4.000000,4.000000,4.000000,4.000000,4.000000,100.000000,,,,,,,,,,,,,,,,,,,,,,,,,,,,,,,,,,,,,,,,,,,,,,,,,,,,,,,,,,,,,,,
1649884571.506864,7.000000,0.000000,4278.461426,4256.410156,4175.897461,4176.410156,4239.487305,450.000000,4.000000,95.000000,,,,0.000000,4.000000,4.000000,4.000000,4.000000,4.000000,100.000000,,,,,,,,,,,,,,,,,,,,,,,,,,,,,,,,,,,,,,,,,,,,,,,,,,,,,,,,,,,,,,,
1649884571.514679,8.000000,0.000000,4284.615234,4261.025879,4180.512695,4176.922852,4238.461426,450.000000,4.000000,95.000000,,,,0.000000,4.000000,4.000000,4.000000,4.000000,4.000000,100.000000,,,,,,,,,,,,,,,,,,,,,,,,,,,,,,,,,,,,,,,,,,,,,,,,,,,,,,,,,,,,,,,
1649884571.522493,9.000000,0.000000,4270.769043,4261.025879,4163.077148,4164.102539,4227.179688,16206.000000,4.000000,95.000000,,,,0.000000,4.000000,4.000000,4.000000,4.000000,4.000000,100.000000,,,,,,,,,,,,,,,,,,,,,,,,,,,,,,,,,,,,,,,,,,,,,,,,,,,,,,,,,,,,,,,
1649884571.530208,10.000000,0.000000,4256.922852,4252.820313,4166.153809,4167.179688,4222.051270,450.000000,4.000000,95.000000,,,,0.000000,4.000000,4.000000,4.000000,4.000000,4.000000,100.000000,,,,,,,,,,,,,,,,,,,,,,,,,,,,,,,,,,,,,,,,,,,,,,,,,,,,,,,,,,,,,,,
1649884571.537922,11.000000,0.000000,4262.563965,4258.974121,4189.230957,4185.128418,4235.897461,16170.000000,4.000000,95.000000,,,,0.000000,4.000000,4.000000,4.000000,4.000000,4.000000,100.000000,,,,,,,,,,,,,,,,,,,,,,,,,,,,,,,,,,,,,,,,,,,,,,,,,,,,,,,,,,,,,,,
1649884571.545737,12.000000,0.000000,4268.717773,4276.410156,4188.205078,4188.205078,4235.384766,450.000000,4.000000,95.000000,,,,0.000000,4.000000,4.000000,4.000000,4.000000,4.000000,100.000000,,,,,,,,,,,,,,,,,,,,,,,,,,,,,,,,,,,,,,,,,,,,,,,,,,,,,,,,,,,,,,,
1649884571.553451,13.000000,0.000000,4274.358887,4285.128418,4184.615234,4187.692383,4221.538574,450.000000,4.000000,95.000000,,,,0.000000,4.000000,4.000000,4.000000,4.000000,4.000000,100.000000,,,,,,,,,,,,,,,,,,,,,,,,,,,,,,,,,,,,,,,,,,,,,,,,,,,,,,,,,,,,,,,
1649884571.561266,14.000000,0.000000,4284.615234,4281.025879,4198.461426,4194.358887,4232.820313,450.000000,4.000000,95.000000,,,,0.000000,4.000000,4.000000,4.000000,4.000000,4.000000,100.000000,,,,,,,,,,,,,,,,,,,,,,,,,,,,,,,,,,,,,,,,,,,,,,,,,,,,,,,,,,,,,,,
1649884571.568980,15.000000,0.000000,4286.153809,4271.282227,4197.948730,4193.333496,4252.820313,16170.000000,4.000000,95.000000,,,,0.000000,4.000000,4.000000,4.000000,4.000000,4.000000,100.000000,,,,,,,,,,,,,,,,,,,,,,,,,,,,,,,,,,,,,,,,,,,,,,,,,,,,,,,,,,,,,,,
1649884571.576794,16.000000,0.000000,4282.051270,4271.282227,4186.153809,4191.794922,4253.846191,0.000000,4.000000,95.000000,,,,0.000000,4.000000,4.000000,4.000000,4.000000,4.000000,100.000000,,,,,,,,,,,,,,,,,,,,,,,,,,,,,,,,,,,,,,,,,,,,,,,,,,,,,,,,,,,,,,,
1649884571.584509,17.000000,0.000000,4283.077148,4281.025879,4191.282227,4197.436035,4249.230957,0.000000,4.000000,95.000000,,,,0.000000,4.000000,4.000000,4.000000,4.000000,4.000000,100.000000,,,,,,,,,,,,,,,,,,,,,,,,,,,,,,,,,,,,,,,,,,,,,,,,,,,,,,,,,,,,,,,
1649884571.592323,18.000000,0.000000,4284.102539,4270.769043,4197.436035,4192.307617,4245.641113,0.000000,4.000000,95.000000,,,,0.000000,4.000000,4.000000,4.000000,4.000000,4.000000,100.000000,,,,,,,,,,,,,,,,,,,,,,,,,,,,,,,,,,,,,,,,,,,,,,,,,,,,,,,,,,,,,,,
1649884571.600038,19.000000,0.000000,4287.692383,4255.897461,4202.051270,4188.205078,4245.128418,0.000000,4.000000,95.000000,,,,0.000000,4.000000,4.000000,4.000000,4.000000,4.000000,100.000000,0.968750,100.000000,4.000000,4.000000,4.000000,4.000000,4.000000,,,,,,,,,,,,,,,,,,,,,,,,,,,,,,,,12.646674,5.078425,2.658079,1.320718,0.912792,1.708876,1.160349,0.568827,0.555671,0.587897,1.661454,1.730221,1.500021,0.639793,0.459767,2.766818,2.330867,0.366193,0.571757,0.439432,9.713781,6.280906,2.099099,1.109142,0.668156
1649884571.607852,20.000000,0.000000,4280.000000,4264.615234,4204.615234,4193.333496,4246.153809,0.000000,4.000000,95.000000,,,,0.000000,4.000000,4.000000,4.000000,4.000000,4.000000,100.000000,,,,,,,,,,,,,,,,,,,,,,,,,,,,,,,,,,,,,,,,,,,,,,,,,,,,,,,,,,,,,,,
1649884571.615567,21.000000,0.000000,4261.025879,4271.794922,4193.846191,4188.717773,4237.948730,0.000000,4.000000,95.000000,,,,0.000000,4.000000,4.000000,4.000000,4.000000,4.000000,100.000000,,,,,,,,,,,,,,,,,,,,,,,,,,,,,,,,,,,,,,,,,,,,,,,,,,,,,,,,,,,,,,,
1649884571.623381,22.000000,0.000000,4274.871582,4270.256348,4191.282227,4187.692383,4234.871582,0.000000,4.000000,95.000000,,,,0.000000,4.000000,4.000000,4.000000,4.000000,4.000000,100.000000,,,,,,,,,,,,,,,,,,,,,,,,,,,,,,,,,,,,,,,,,,,,,,,,,,,,,,,,,,,,,,,
1649884571.631096,23.000000,0.000000,4294.871582,4273.333496,4195.897461,4195.897461,4241.025879,0.000000,4.000000,95.000000,,,,0.000000,4.000000,4.000000,4.000000,4.000000,4.000000,100.000000,,,,,,,,,,,,,,,,,,,,,,,,,,,,,,,,,,,,,,,,,,,,,,,,,,,,,,,,,,,,,,,
1649884571.638810,24.000000,0.000000,4278.461426,4272.307617,4184.102539,4189.743652,4230.769043,0.000000,4.000000,95.000000,,,,0.000000,4.000000,4.000000,4.000000,4.000000,4.000000,100.000000,,,,,,,,,,,,,,,,,,,,,,,,,,,,,,,,,,,,,,,,,,,,,,,,,,,,,,,,,,,,,,,
1649884571.646625,25.000000,0.000000,4270.256348,4263.589844,4175.897461,4181.025879,4221.538574,0.000000,4.000000,95.000000,,,,0.000000,4.000000,4.000000,4.000000,4.000000,4.000000,100.000000,,,,,,,,,,,,,,,,,,,,,,,,,,,,,,,,,,,,,,,,,,,,,,,,,,,,,,,,,,,,,,,
1649884571.654339,26.000000,0.000000,4291.794922,4263.077148,4190.256348,4190.769043,4245.128418,0.000000,4.000000,95.000000,,,,0.000000,4.000000,4.000000,4.000000,4.000000,4.000000,100.000000,,,,,,,,,,,,,,,,,,,,,,,,,,,,,,,,,,,,,,,,,,,,,,,,,,,,,,,,,,,,,,,
1649884571.662154,27.000000,0.000000,4293.846191,4271.282227,4200.512695,4197.948730,4263.077148,0.000000,4.000000,95.000000,,,,0.000000,4.000000,4.000000,4.000000,4.000000,4.000000,100.000000,,,,,,,,,,,,,,,,,,,,,,,,,,,,,,,,,,,,,,,,,,,,,,,,,,,,,,,,,,,,,,,
1649884571.669868,28.000000,0.000000,4281.538574,4278.974121,4192.820313,4191.282227,4245.128418,0.000000,4.000000,95.000000,,,,0.000000,4.000000,4.000000,4.000000,4.000000,4.000000,100.000000,,,,,,,,,,,,,,,,,,,,,,,,,,,,,,,,,,,,,,,,,,,,,,,,,,,,,,,,,,,,,,,
1649884571.677682,29.000000,0.000000,4290.769043,4286.153809,4190.769043,4189.743652,4245.128418,0.000000,4.000000,95.000000,,,,0.000000,4.000000,4.000000,4.000000,4.000000,4.000000,100.000000,,,,,,,,,,,,,,,,,,,,,,,,,,,,,,,,,,,,,,,,,,,,,,,,,,,,,,,,,,,,,,,
1649884571.685397,30.000000,0.000000,4305.641113,4285.641113,4198.461426,4191.794922,4271.282227,0.000000,4.000000,95.000000,,,,0.000000,4.000000,4.000000,4.000000,4.000000,4.000000,100.000000,,,,,,,,,,,,,,,,,,,,,,,,,,,,,,,,,,,,,,,,,,,,,,,,,,,,,,,,,,,,,,,
1649884571.693111,31.000000,0.000000,4305.128418,4277.948730,4193.846191,4183.589844,4260.000000,0.000000,4.000000,95.000000,,,,0.000000,4.000000,4.000000,4.000000,4.000000,4.000000,100.000000,,,,,,,,,,,,,,,,,,,,,,,,,,,,,,,,,,,,,,,,,,,,,,,,,,,,,,,,,,,,,,,
1649884571.700926,32.000000,0.000000,4289.743652,4274.358887,4187.692383,4177.436035,4237.436035,0.000000,4.000000,95.000000,,,,0.000000,4.000000,4.000000,4.000000,4.000000,4.000000,100.000000,,,,,,,,,,,,,,,,,,,,,,,,,,,,,,,,,,,,,,,,,,,,,,,,,,,,,,,,,,,,,,,
1649884571.708640,33.000000,0.000000,4283.077148,4281.538574,4198.461426,4185.641113,4260.000000,0.000000,4.000000,95.000000,,,,0.000000,4.000000,4.000000,4.000000,4.000000,4.000000,100.000000,,,,,,,,,,,,,,,,,,,,,,,,,,,,,,,,,,,,,,,,,,,,,,,,,,,,,,,,,,,,,,,
1649884571.716455,34.000000,0.000000,4288.205078,4281.025879,4203.077148,4187.692383,4267.692383,0.000000,4.000000,95.000000,,,,0.000000,4.000000,4.000000,4.000000,4.000000,4.000000,100.000000,,,,,,,,,,,,,,,,,,,,,,,,,,,,,,,,,,,,,,,,,,,,,,,,,,,,,,,,,,,,,,,
1649884571.724169,35.000000,0.000000,4283.589844,4273.333496,4192.820313,4187.179688,4237.948730,0.000000,4.000000,95.000000,,,,0.000000,4.000000,4.000000,4.000000,4.000000,4.000000,100.000000,,,,,,,,,,,,,,,,,,,,,,,,,,,,,,,,,,,,,,,13.824913,4.000661,2.352967,1.172705,0.848611,1.596215,0.964884,0.448055,0.597221,0.572863,1.517213,1.733488,1.181965,0.555304,0.471160,2.648643,2.412790,0.348350,0.495085,0.422090,10.708745,5.060649,1.826223,1.132073,0.666602
1649884571.731984,36.000000,0.000000,4274.358887,4282.051270,4188.717773,4197.948730,4235.897461,0.000000,4.000000,95.000000,,,,0.000000,4.000000,4.000000,4.000000,4.000000,4.000000,100.000000,,,,,,,,,,,,,,,,,,,,,,,,,,,,,,,,,,,,,,,,,,,,,,,,,,,,,,,,,,,,,,,
1649884571.739698,37.000000,0.000000,4273.846191,4278.974121,4186.153809,4195.897461,4244.615234,0.000000,4.000000,95.000000,,,,0.000000,4.000000,4.000000,4.000000,4.000000,4.000000,100.000000,,,,,,,,,,,,,,,,,,,,,,,,,,,,,,,,,,,,,,,,,,,,,,,,,,,,,,,,,,,,,,,
1649884571.747513,38.000000,0.000000,4273.333496,4266.153809,4178.974121,4186.153809,4225.641113,0.000000,4.000000,95.000000,,,,0.000000,4.000000,4.000000,4.000000,4.000000,4.000000,100.000000,,,,,,,,,,,,,,,,,,,,,,,,,,,,,,,,,,,,,,,,,,,,,,,,,,,,,,,,,,,,,,,
1649884571.755227,39.000000,0.000000,4266.666504,4275.897461,4177.436035,4195.897461,4225.128418,0.000000,4.000000,95.000000,,,,0.000000,4.000000,4.000000,4.000000,4.000000,4.000000,100.000000,,,,,,,,,,,,,,,,,,,,,,,,,,,,,,,,,,,,,,,,,,,,,,,,,,,,,,,,,,,,,,,
1649884571.763042,40.000000,0.000000,4268.205078,4279.487305,4172.820313,4198.461426,4247.179688,0.000000,4.000000,95.000000,,,,0.000000,4.000000,4.000000,4.000000,4.000000,4.000000,100.000000,,,,,,,,,,,,,,,,,,,,,,,,,,,,,,,,,,,,,,,,,,,,,,,,,,,,,,,,,,,,,,,
1649884571.770756,41.000000,0.000000,4282.051270,4263.589844,4166.666504,4180.512695,4247.179688,0.000000,4.000000,95.000000,,,,0.000000,4.000000,4.000000,4.000000,4.000000,4.000000,100.000000,,,,,,,,,,,,,,,,,,,,,,,,,,,,,,,,,,,,,,,,,,,,,,,,,,,,,,,,,,,,,,,
1649884571.778570,42.000000,0.000000,4294.871582,4266.153809,4177.436035,4177.436035,4241.538574,0.000000,4.000000,95.000000,,,,0.000000,4.000000,4.000000,4.000000,4.000000,4.000000,100.000000,,,,,,,,,,,,,,,,,,,,,,,,,,,,,,,,,,,,,,,,,,,,,,,,,,,,,,,,,,,,,,,
1649884571.786285,43.000000,0.000000,4290.769043,4276.410156,4188.205078,4182.051270,4246.153809,0.000000,4.000000,95.000000,,,,0.000000,4.000000,4.000000,4.000000,4.000000,4.000000,100.000000,,,,,,,,,,,,,,,,,,,,,,,,,,,,,,,,,,,,,,,,,,,,,,,,,,,,,,,,,,,,,,,
1649884571.794099,44.000000,0.000000,4280.000000,4268.205078,4186.153809,4175.897461,4245.641113,0.000000,4.000000,95.000000,,,,0.000000,4.000000,4.000000,4.000000,4.000000,4.000000,100.000000,,,,,,,,,,,,,,,,,,,,,,,,,,,,,,,,,,,,,,,,,,,,,,,,,,,,,,,,,,,,,,,
1649884571.801814,45.000000,0.000000,4276.410156,4259.487305,4191.794922,4175.897461,4241.025879,0.000000,4.000000,95.000000,,,,0.000000,4.000000,4.000000,4.000000,4.000000,4.000000,100.000000,,,,,,,,,,,,,,,,,,,,,,,,,,,,,,,,,,,,,,,,,,,,,,,,,,,,,,,,,,,,,,,
1649884571.809628,46.000000,0.000000,4274.358887,4258.974121,4198.461426,4173.846191,4238.974121,0.000000,4.000000,95.000000,,,,0.000000,4.000000,4.000000,4.000000,4.000000,4.000000,100.000000,,,,,,,,,,,,,,,,,,,,,,,,,,,,,,,,,,,,,,,,,,,,,,,,,,,,,,,,,,,,,,,
1649884571.817343,47.000000,0.000000,4275.897461,4265.128418,4188.205078,4174.358887,4238.461426,0.000000,4.000000,95.000000,,,,0.000000,4.000000,4.000000,4.000000,4.000000,4.000000,100.000000,,,,,,,,,,,,,,,,,,,,,,,,,,,,,,,,,,,,,,,,,,,,,,,,,,,,,,,,,,,,,,,
1649884571.825157,48.000000,0.000000,4284.102539,4271.282227,4181.538574,4195.384766,4251.282227,0.000000,4.000000,95.000000,,,,0.000000,4.000000,4.000000,4.000000,4.000000,4.000000,100.000000,,,,,,,,,,,,,,,,,,,,,,,,,,,,,,,,,,,,,,,,,,,,,,,,,,,,,,,,,,,,,,,
1649884571.832872,49.000000,0.000000,4291.282227,4256.410156,4188.205078,4201.025879,4261.538574,0.000000,4.000000,95.000000,,,,0.000000,4.000000,4.000000,4.000000,4.000000,4.000000,100.000000,,,,,,,,,,,,,,,,,,,,,,,,,,,,,,,,,,,,,,,,,,,,,,,,,,,,,,,,,,,,,,,
1649884571.840586,50.000000,0.000000,4296.410156,4250.256348,4190.769043,4185.641113,4252.307617,0.000000,4.000000,95.000000,,,,0.000000,4.000000,4.000000,4.000000,4.000000,4.000000,100.000000,,,,,,,,,,,,,,,,,,,,,,,,,,,,,,,,,,,,,,,,,,,,,,,,,,,,,,,,,,,,,,,
1649884571.848401,51.000000,0.000000,4300.000000,4278.461426,4193.333496,4197.436035,4255.384766,0.000000,4.000000,95.000000,,,,0.000000,4.000000,4.000000,4.000000,4.000000,4.000000,100.000000,,,,,,,,,,,,,,,,,,,,,,,,,,,,,,,,,,,,,,,13.867894,3.084781,2.047451,1.067892,0.797662,1.406108,0.776921,0.383911,0.640565,0.576215,1.586461,1.735004,1.013044,0.511574,0.503407,2.713341,2.277889,0.371711,0.437560,0.406711,10.920871,3.978476,1.590143,1.181611,0.662749
1649884571.856215,52.000000,0.000000,4293.846191,4289.230957,4195.897461,4210.256348,4267.179688,0.000000,4.000000,95.000000,,,,0.000000,4.000000,4.000000,4.000000,4.000000,4.000000,100.000000,,,,,,,,,,,,,,,,,,,,,,,,,,,,,,,,,,,,,,,,,,,,,,,,,,,,,,,,,,,,,,,
1649884571.863930,53.000000,0.000000,4290.256348,4269.230957,4185.128418,4191.794922,4258.461426,0.000000,4.000000,95.000000,,,,0.000000,4.000000,4.000000,4.000000,4.000000,4.000000,100.000000,,,,,,,,,,,,,,,,,,,,,,,,,,,,,,,,,,,,,,,,,,,,,,,,,,,,,,,,,,,,,,,
1649884571.871644,54.000000,0.000000,4295.897461,4268.205078,4173.333496,4183.077148,4252.820313,0.000000,4.000000,95.000000,,,,0.000000,4.000000,4.000000,4.000000,4.000000,4.000000,100.000000,,,,,,,,,,,,,,,,,,,,,,,,,,,,,,,,,,,,,,,,,,,,,,,,,,,,,,,,,,,,,,,
1649884571.879458,55.000000,0.000000,4298.974121,4278.974121,4176.922852,4191.282227,4262.051270,0.000000,4.000000,95.000000,,,,0.000000,4.000000,4.000000,4.000000,4.000000,4.000000,100.000000,,,,,,,,,,,,,,,,,,,,,,,,,,,,,,,,,,,,,,,,,,,,,,,,,,,,,,,,,,,,,,,
1649884571.887173,56.000000,0.000000,4295.897461,4276.410156,4184.102539,4188.717773,4257.948730,0.000000,4.000000,95.000000,,,,0.000000,4.000000,4.000000,4.000000,4.000000,4.000000,100.000000,,,,,,,,,,,,,,,,,,,,,,,,,,,,,,,,,,,,,,,,,,,,,,,,,,,,,,,,,,,,,,,
1649884571.894987,57.000000,0.000000,4296.410156,4273.333496,4185.641113,4185.128418,4247.179688,0.000000,4.000000,95.000000,,,,0.000000,4.000000,4.000000,4.000000,4.000000,4.000000,100.000000,,,,,,,,,,,,,,,,,,,,,,,,,,,,,,,,,,,,,,,,,,,,,,,,,,,,,,,,,,,,,,,
1649884571.902702,58.000000,0.000000,4296.922852,4273.846191,4191.794922,4190.769043,4254.871582,0.000000,4.000000,95.000000,,,,0.000000,4.000000,4.000000,4.000000,4.000000,4.000000,100.000000,,,,,,,,,,,,,,,,,,,,,,,,,,,,,,,,,,,,,,,,,,,,,,,,,,,,,,,,,,,,,,,
1649884571.910516,59.000000,0.000000,4287.179688,4272.820313,4193.846191,4191.794922,4259.487305,0.000000,4.000000,95.000000,,,,0.000000,4.000000,4.000000,4.000000,4.000000,4.000000,100.000000,,,,,,,,,,,,,,,,,,,,,,,,,,,,,,,,,,,,,,,,,,,,,,,,,,,,,,,,,,,,,,,
1649884571.918231,60.000000,0.000000,4275.384766,4268.205078,4182.563965,4185.128418,4240.000000,0.000000,4.000000,95.000000,,,,0.000000,4.000000,4.000000,4.000000,4.000000,4.000000,100.000000,,,,,,,,,,,,,,,,,,,,,,,,,,,,,,,,,,,,,,,,,,,,,,,,,,,,,,,,,,,,,,,
1649884571.926045,61.000000,0.000000,4278.974121,4262.563965,4173.846191,4182.051270,4224.102539,0.000000,4.000000,95.000000,,,,0.000000,4.000000,4.000000,4.000000,4.000000,4.000000,100.000000,,,,,,,,,,,,,,,,,,,,,,,,,,,,,,,,,,,,,,,,,,,,,,,,,,,,,,,,,,,,,,,
1649884571.933760,62.000000,0.000000,4289.743652,4267.692383,4180.512695,4187.692383,4232.307617,0.000000,4.000000,95.000000,,,,0.000000,4.000000,4.000000,4.000000,4.000000,4.000000,100.000000,,,,,,,,,,,,,,,,,,,,,,,,,,,,,,,,,,,,,,,,,,,,,,,,,,,,,,,,,,,,,,,
1649884571.941574,63.000000,0.000000,4287.692383,4266.153809,4185.128418,4186.666504,4240.000000,0.000000,4.000000,95.000000,,,,0.000000,4.000000,4.000000,4.000000,4.000000,4.000000,100.000000,,,,,,,,,,,,,,,,,,,,,,,,,,,,,,,,,,,,,,,,,,,,,,,,,,,,,,,,,,,,,,,
1649884571.949289,64.000000,0.000000,4271.282227,4251.282227,4174.358887,4177.948730,4231.794922,450.000000,4.000000,95.000000,,,,0.000000,4.000000,4.000000,4.000000,4.000000,4.000000,100.000000,,,,,,,,,,,,,,,,,,,,,,,,,,,,,,,,,,,,,,,,,,,,,,,,,,,,,,,,,,,,,,,
1649884571.957103,65.000000,0.000000,4254.871582,4258.974121,4162.563965,4183.589844,4233.846191,450.000000,4.000000,95.000000,,,,0.000000,4.000000,4.000000,4.000000,4.000000,4.000000,100.000000,,,,,,,,,,,,,,,,,,,,,,,,,,,,,,,,,,,,,,,,,,,,,,,,,,,,,,,,,,,,,,,
1649884571.964818,66.000000,0.000000,4260.512695,4283.589844,4163.077148,4195.384766,4250.769043,16210.000000,4.000000,95.000000,,,,0.000000,4.000000,4.000000,4.000000,4.000000,4.000000,100.000000,,,,,,,,,,,,,,,,,,,,,,,,,,,,,,,,,,,,,,,,,,,,,,,,,,,,,,,,,,,,,,,
1649884571.972632,67.000000,0.000000,4285.128418,4281.538574,4167.692383,4188.205078,4252.307617,450.000000,4.000000,95.000000,,,,0.000000,4.000000,4.000000,4.000000,4.000000,4.000000,100.000000,,,,,,,,,,,,,,,,,,,,,,,,,,,,,,,,,,,,,,,12.594880,2.416926,1.788609,1.006251,0.758355,1.181987,0.630690,0.408534,0.672340,0.593912,1.780591,1.755923,1.066400,0.508127,0.539834,2.951766,2.010718,0.446755,0.393284,0.388717,10.250917,3.208857,1.453351,1.230294,0.651540
1649884571.980346,68.000000,0.000000,4302.051270,4265.641113,4170.256348,4179.487305,4245.128418,16202.000000,4.000000,95.000000,,,,0.000000,4.000000,4.000000,4.000000,4.000000,4.000000,100.000000,,,,,,,,,,,,,,,,,,,,,,,,,,,,,,,,,,,,,,,,,,,,,,,,,,,,,,,,,,,,,,,
1649884571.988161,69.000000,0.000000,4298.974121,4266.666504,4180.000000,4190.769043,4249.230957,450.000000,4.000000,95.000000,,,,0.000000,4.000000,4.000000,4.000000,4.000000,4.000000,100.000000,,,,,,,,,,,,,,,,,,,,,,,,,,,,,,,,,,,,,,,,,,,,,,,,,,,,,,,,,,,,,,,
1649884571.995875,70.000000,0.000000,4288.205078,4274.358887,4193.846191,4202.563965,4256.410156,16171.000000,4.000000,95.000000,,,,0.000000,4.000000,4.000000,4.000000,4.000000,4.000000,100.000000,,,,,,,,,,,,,,,,,,,,,,,,,,,,,,,,,,,,,,,,,,,,,,,,,,,,,,,,,,,,,,,
1649884572.003690,71.000000,0.000000,4287.692383,4264.615234,4191.282227,4200.000000,4261.538574,450.000000,4.000000,95.000000,,,,0.000000,4.000000,4.000000,4.000000,4.000000,4.000000,100.000000,,,,,,,,,,,,,,,,,,,,,,,,,,,,,,,,,,,,,,,,,,,,,,,,,,,,,,,,,,,,,,,
1649884572.011404,72.000000,0.000000,4291.794922,4254.358887,4188.205078,4203.589844,4264.102539,450.000000,4.000000,95.000000,,,,0.000000,4.000000,4.000000,4.000000,4.000000,4.000000,100.000000,,,,,,,,,,,,,,,,,,,,,,,,,,,,,,,,,,,,,,,,,,,,,,,,,,,,,,,,,,,,,,,
1649884572.019119,73.000000,0.000000,4288.205078,4261.538574,4189.743652,4202.051270,4260.000000,16189.000000,4.000000,95.000000,,,,0.000000,4.000000,4.000000,4.000000,4.000000,4.000000,100.000000,,,,,,,,,,,,,,,,,,,,,,,,,,,,,,,,,,,,,,,,,,,,,,,,,,,,,,,,,,,,,,,
1649884572.026933,74.000000,0.000000,4285.128418,4270.256348,4175.384766,4186.153809,4254.871582,450.000000,4.000000,95.000000,,,,0.000000,4.000000,4.000000,4.000000,4.000000,4.000000,100.000000,,,,,,,,,,,,,,,,,,,,,,,,,,,,,,,,,,,,,,,,,,,,,,,,,,,,,,,,,,,,,,,
1649884572.034648,75.000000,0.000000,4290.256348,4269.743652,4171.282227,4187.692383,4260.512695,16205.000000,4.000000,95.000000,,,,0.000000,4.000000,4.000000,4.000000,4.000000,4.000000,100.000000,,,,,,,,,,,,,,,,,,,,,,,,,,,,,,,,,,,,,,,,,,,,,,,,,,,,,,,,,,,,,,,
1649884572.042462,76.000000,0.000000,4286.666504,4270.769043,4189.743652,4197.436035,4268.205078,450.000000,4.000000,95.000000,,,,0.000000,4.000000,4.000000,4.000000,4.000000,4.000000,100.000000,,,,,,,,,,,,,,,,,,,,,,,,,,,,,,,,,,,,,,,,,,,,,,,,,,,,,,,,,,,,,,,
1649884572.050177,77.000000,0.000000,4266.666504,4277.436035,4196.410156,4185.128418,4258.461426,450.000000,4.000000,95.000000,,,,0.000000,4.000000,4.000000,4.000000,4.000000,4.000000,100.000000,,,,,,,,,,,,,,,,,,,,,,,,,,,,,,,,,,,,,,,,,,,,,,,,,,,,,,,,,,,,,,,
1649884572.057991,78.000000,0.000000,4269.230957,4279.487305,4197.948730,4177.436035,4249.230957,450.000000,4.000000,95.000000,,,,0.000000,4.000000,4.000000,4.000000,4.000000,4.000000,100.000000,,,,,,,,,,,,,,,,,,,,,,,,,,,,,,,,,,,,,,,,,,,,,,,,,,,,,,,,,,,,,,,
1649884572.065706,79.000000,0.000000,4290.769043,4273.846191,4211.282227,4186.153809,4252.307617,16205.000000,4.000000,95.000000,,,,0.000000,4.000000,4.000000,4.000000,4.000000,4.000000,100.000000,,,,,,,,,,,,,,,,,,,,,,,,,,,,,,,,,,,,,,,,,,,,,,,,,,,,,,,,,,,,,,,
1649884572.073520,80.000000,0.000000,4289.230957,4269.743652,4213.846191,4185.641113,4251.794922,450.000000,4.000000,95.000000,,,,0.000000,4.000000,4.000000,4.000000,4.000000,4.000000,100.000000,,,,,,,,,,,,,,,,,,,,,,,,,,,,,,,,,,,,,,,,,,,,,,,,,,,,,,,,,,,,,,,
1649884572.081334,81.000000,0.000000,4271.282227,4273.846191,4205.641113,4184.615234,4237.948730,450.000000,4.000000,95.000000,,,,0.000000,4.000000,4.000000,4.000000,4.000000,4.000000,100.000000,,,,,,,,,,,,,,,,,,,,,,,,,,,,,,,,,,,,,,,,,,,,,,,,,,,,,,,,,,,,,,,
1649884572.089049,82.000000,0.000000,4265.641113,4272.307617,4198.461426,4191.794922,4232.307617,450.000000,4.000000,95.000000,,,,0.000000,4.000000,4.000000,4.000000,4.000000,4.000000,100.000000,,,,,,,,,,,,,,,,,,,,,,,,,,,,,,,,,,,,,,,,,,,,,,,,,,,,,,,,,,,,,,,
1649884572.096763,83.000000,0.000000,4281.025879,4257.436035,4182.051270,4194.358887,4249.743652,16205.000000,4.000000,95.000000,,,,0.000000,4.000000,4.000000,4.000000,4.000000,4.000000,100.000000,0.968750,100.000000,4.000000,4.000000,4.000000,4.000000,4.000000,,,,,,,,,,,,,,,,,,,,,,,,,,,,,,,,10.383698,1.999603,1.591568,0.960477,0.725657,1.001780,0.536660,0.508325,0.681228,0.617410,2.011151,1.790462,1.279346,0.528921,0.560346,3.235075,1.735493,0.551190,0.350836,0.368312,8.938462,2.786464,1.404926,1.238857,0.639010
1649884572.104578,84.000000,0.000000,4300.512695,4260.000000,4173.333496,4202.051270,4264.615234,450.000000,4.000000,95.000000,,,,0.000000,4.000000,4.000000,4.000000,4.000000,4.000000,100.000000,,,,,,,,,,,,,,,,,,,,,,,,,,,,,,,,,,,,,,,,,,,,,,,,,,,,,,,,,,,,,,,
1649884572.112292,85.000000,0.000000,4308.205078,4275.384766,4184.102539,4215.384766,4266.153809,450.000000,4.000000,95.000000,,,,0.000000,4.000000,4.000000,4.000000,4.000000,4.000000,100.000000,,,,,,,,,,,,,,,,,,,,,,,,,,,,,,,,,,,,,,,,,,,,,,,,,,,,,,,,,,,,,,,
1649884572.120107,86.000000,0.000000,4300.000000,4266.666504,4190.256348,4208.205078,4263.589844,450.000000,4.000000,95.000000,,,,0.000000,4.000000,4.000000,4.000000,4.000000,4.000000,100.000000,,,,,,,,,,,,,,,,,,,,,,,,,,,,,,,,,,,,,,,,,,,,,,,,,,,,,,,,,,,,,,,
1649884572.127821,87.000000,0.000000,4282.563965,4253.846191,4193.333496,4185.128418,4251.282227,16205.000000,4.000000,95.000000,,,,0.000000,4.000000,4.000000,4.000000,4.000000,4.000000,100.000000,,,,,,,,,,,,,,,,,,,,,,,,,,,,,,,,,,,,,,,,,,,,,,,,,,,,,,,,,,,,,,,
1649884572.135636,88.000000,0.000000,4270.256348,4264.615234,4206.666504,4184.102539,4243.589844,450.000000,4.000000,95.000000,,,,0.000000,4.000000,4.000000,4.000000,4.000000,4.000000,100.000000,,,,,,,,,,,,,,,,,,,,,,,,,,,,,,,,,,,,,,,,,,,,,,,,,,,,,,,,,,,,,,,
1649884572.143350,89.000000,0.000000,4265.128418,4275.897461,4209.230957,4194.358887,4249.743652,450.000000,4.000000,95.000000,,,,0.000000,4.000000,4.000000,4.000000,4.000000,4.000000,100.000000,,,,,,,,,,,,,,,,,,,,,,,,,,,,,,,,,,,,,,,,,,,,,,,,,,,,,,,,,,,,,,,
1649884572.151065,90.000000,0.000000,4255.384766,4267.179688,4192.820313,4187.179688,4238.974121,450.000000,4.000000,95.000000,,,,0.000000,4.000000,4.000000,4.000000,4.000000,4.000000,100.000000,,,,,,,,,,,,,,,,,,,,,,,,,,,,,,,,,,,,,,,,,,,,,,,,,,,,,,,,,,,,,,,
1649884572.158879,91.000000,0.000000,4238.461426,4261.025879,4181.538574,4177.948730,4212.307617,16205.000000,4.000000,95.000000,,,,0.000000,4.000000,4.000000,4.000000,4.000000,4.000000,100.000000,,,,,,,,,,,,,,,,,,,,,,,,,,,,,,,,,,,,,,,,,,,,,,,,,,,,,,,,,,,,,,,
1649884572.166693,92.000000,0.000000,4233.846191,4265.128418,4184.615234,4182.563965,4217.948730,450.000000,4.000000,95.000000,,,,0.000000,4.000000,4.000000,4.000000,4.000000,4.000000,100.000000,,,,,,,,,,,,,,,,,,,,,,,,,,,,,,,,,,,,,,,,,,,,,,,,,,,,,,,,,,,,,,,
1649884572.174408,93.000000,0.000000,4237.436035,4253.846191,4183.077148,4183.077148,4231.282227,450.000000,4.000000,95.000000,,,,0.000000,4.000000,4.000000,4.000000,4.000000,4.000000,100.000000,,,,,,,,,,,,,,,,,,,,,,,,,,,,,,,,,,,,,,,,,,,,,,,,,,,,,,,,,,,,,,,
1649884572.182123,94.000000,0.000000,4231.794922,4238.974121,4179.487305,4177.948730,4214.871582,450.000000,4.000000,95.000000,,,,0.000000,4.000000,4.000000,4.000000,4.000000,4.000000,100.000000,,,,,,,,,,,,,,,,,,,,,,,,,,,,,,,,,,,,,,,,,,,,,,,,,,,,,,,,,,,,,,,
1649884572.189837,95.000000,0.000000,4227.179688,4241.025879,4171.794922,4170.769043,4196.922852,16205.000000,4.000000,95.000000,,,,0.000000,4.000000,4.000000,4.000000,4.000000,4.000000,100.000000,,,,,,,,,,,,,,,,,,,,,,,,,,,,,,,,,,,,,,,,,,,,,,,,,,,,,,,,,,,,,,,
1649884572.197651,96.000000,0.000000,4227.179688,4245.641113,4161.025879,4164.615234,4196.922852,450.000000,4.000000,95.000000,,,,0.000000,4.000000,4.000000,4.000000,4.000000,4.000000,100.000000,,,,,,,,,,,,,,,,,,,,,,,,,,,,,,,,,,,,,,,,,,,,,,,,,,,,,,,,,,,,,,,
1649884572.205366,97.000000,0.000000,4237.948730,4252.820313,4178.974121,4182.563965,4215.897461,450.000000,4.000000,95.000000,,,,0.000000,4.000000,4.000000,4.000000,4.000000,4.000000,100.000000,,,,,,,,,,,,,,,,,,,,,,,,,,,,,,,,,,,,,,,,,,,,,,,,,,,,,,,,,,,,,,,
1649884572.213180,98.000000,0.000000,4264.102539,4267.692383,4211.282227,4204.102539,4240.000000,450.000000,4.000000,95.000000,,,,0.000000,4.000000,4.000000,4.000000,4.000000,4.000000,100.000000,,,,,,,,,,,,,,,,,,,,,,,,,,,,,,,,,,,,,,,,,,,,,,,,,,,,,,,,,,,,,,,
1649884572.220995,99.000000,0.000000,4276.410156,4274.871582,4211.794922,4192.307617,4239.487305,16205.000000,4.000000,95.000000,,,,0.000000,4.000000,4.000000,4.000000,4.000000,4.000000,100.000000,,,,,,,,,,,,,,,,,,,,,,,,,,,,,,,,,,,,,,,7.857203,1.802394,1.431464,0.909678,0.693242,0.916950,0.498578,0.635587,0.664191,0.638617,2.203808,1.832180,1.484836,0.550488,0.551132,3.384639,1.552232,0.640059,0.303926,0.349602,7.378713,2.644744,1.374483,1.175856,0.636000
1649884572.228709,100.000000,0.000000,4261.025879,4273.333496,4197.436035,4181.538574,4222.563965,450.000000,4.000000,95.000000,,,,0.000000,4.000000,4.000000,4.000000,4.000000,4.000000,100.000000,,,,,,,,,,,,,,,,,,,,,,,,,,,,,,,,,,,,,,,,,,,,,,,,,,,,,,,,,,,,,,,
1649884572.236524,101.000000,0.000000,4249.743652,4273.846191,4202.051270,4192.307617,4225.128418,450.000000,4.000000,95.000000,,,,0.000000,4.000000,4.000000,4.000000,4.000000,4.000000,100.000000,,,,,,,,,,,,,,,,,,,,,,,,,,,,,,,,,,,,,,,,,,,,,,,,,,,,,,,,,,,,,,,
1649884572.244238,102.000000,0.000000,4263.077148,4270.256348,4202.563965,4189.230957,4243.077148,450.000000,4.000000,95.000000,,,,0.000000,4.000000,4.000000,4.000000,4.000000,4.000000,100.000000,,,,,,,,,,,,,,,,,,,,,,,,,,,,,,,,,,,,,,,,,,,,,,,,,,,,,,,,,,,,,,,
1649884572.252053,103.000000,0.000000,4274.358887,4261.025879,4186.153809,4172.307617,4242.563965,16205.000000,4.000000,95.000000,,,,0.000000,4.000000,4.000000,4.000000,4.000000,4.000000,100.000000,,,,,,,,,,,,,,,,,,,,,,,,,,,,,,,,,,,,,,,,,,,,,,,,,,,,,,,,,,,,,,,
1649884572.259767,104.000000,0.000000,4266.153809,4255.897461,4172.307617,4168.205078,4226.666504,450.000000,4.000000,95.000000,,,,0.000000,4.000000,4.000000,4.000000,4.000000,4.000000,100.000000,,,,,,,,,,,,,,,,,,,,,,,,,,,,,,,,,,,,,,,,,,,,,,,,,,,,,,,,,,,,,,,
1649884572.267482,105.000000,0.000000,4261.538574,4252.820313,4178.461426,4180.512695,4234.358887,450.000000,4.000000,95.000000,,,,0.000000,4.000000,4.000000,4.000000,4.000000,4.000000,100.000000,,,,,,,,,,,,,,,,,,,,,,,,,,,,,,,,,,,,,,,,,,,,,,,,,,,,,,,,,,,,,,,
1649884572.275296,106.000000,0.000000,4276.922852,4260.000000,4201.025879,4201.025879,4261.538574,450.000000,4.000000,95.000000,,,,0.000000,4.000000,4.000000,4.000000,4.000000,4.000000,100.000000,,,,,,,,,,,,,,,,,,,,,,,,,,,,,,,,,,,,,,,,,,,,,,,,,,,,,,,,,,,,,,,
1649884572.283011,107.000000,0.000000,4273.846191,4264.615234,4199.487305,4203.589844,4252.307617,16205.000000,4.000000,95.000000,,,,0.000000,4.000000,4.000000,4.000000,4.000000,4.000000,100.000000,,,,,,,,,,,,,,,,,,,,,,,,,,,,,,,,,,,,,,,,,,,,,,,,,,,,,,,,,,,,,,,
1649884572.290825,108.000000,0.000000,4250.256348,4251.794922,4172.820313,4180.000000,4221.025879,450.000000,4.000000,95.000000,,,,0.000000,4.000000,4.000000,4.000000,4.000000,4.000000,100.000000,,,,,,,,,,,,,,,,,,,,,,,,,,,,,,,,,,,,,,,,,,,,,,,,,,,,,,,,,,,,,,,
1649884572.298639,109.000000,0.000000,4255.897461,4258.974121,4175.897461,4175.384766,4224.615234,450.000000,4.000000,95.000000,,,,0.000000,4.000000,4.000000,4.000000,4.000000,4.000000,100.000000,,,,,,,,,,,,,,,,,,,,,,,,,,,,,,,,,,,,,,,,,,,,,,,,,,,,,,,,,,,,,,,
1649884572.306354,110.000000,0.000000,4269.743652,4283.077148,4204.102539,4187.179688,4240.000000,450.000000,4.000000,95.000000,,,,0.000000,4.000000,4.000000,4.000000,4.000000,4.000000,100.000000,,,,,,,,,,,,,,,,,,,,,,,,,,,,,,,,,,,,,,,,,,,,,,,,,,,,,,,,,,,,,,,
1649884572.314068,111.000000,0.000000,4268.717773,4283.077148,4216.922852,4186.153809,4245.128418,16205.000000,4.000000,95.000000,,,,0.000000,4.000000,4.000000,4.000000,4.000000,4.000000,100.000000,,,,,,,,,,,,,,,,,,,,,,,,,,,,,,,,,,,,,,,,,,,,,,,,,,,,,,,,,,,,,,,
1649884572.321883,112.000000,0.000000,4272.307617,4276.922852,4208.717773,4187.179688,4251.794922,450.000000,4.000000,95.000000,,,,0.000000,4.000000,4.000000,4.000000,4.000000,4.000000,100.000000,,,,,,,,,,,,,,,,,,,,,,,,,,,,,,,,,,,,,,,,,,,,,,,,,,,,,,,,,,,,,,,
1649884572.329597,113.000000,0.000000,4272.307617,4280.512695,4195.384766,4193.846191,4246.153809,450.000000,4.000000,95.000000,,,,0.000000,4.000000,4.000000,4.000000,4.000000,4.000000,100.000000,,,,,,,,,,,,,,,,,,,,,,,,,,,,,,,,,,,,,,,,,,,,,,,,,,,,,,,,,,,,,,,
1649884572.337312,114.000000,0.000000,4258.461426,4263.589844,4183.589844,4182.051270,4226.153809,450.000000,4.000000,95.000000,,,,0.000000,4.000000,4.000000,4.000000,4.000000,4.000000,100.000000,,,,,,,,,,,,,,,,,,,,,,,,,,,,,,,,,,,,,,,,,,,,,,,,,,,,,,,,,,,,,,,
1649884572.345126,115.000000,0.000000,4260.512695,4249.743652,4171.794922,4160.512695,4214.358887,16205.000000,4.000000,95.000000,,,,0.000000,4.000000,4.000000,4.000000,4.000000,4.000000,100.000000,,,,,,,,,,,,,,,,,,,,,,,,,,,,,,,,,,,,,,,5.652073,1.788828,1.278450,0.863594,0.655335,0.923812,0.508516,0.729818,0.622789,0.651402,2.300183,1.846550,1.570317,0.560831,0.511081,3.282096,1.495569,0.672789,0.257759,0.339279,5.971817,2.658948,1.307938,1.043761,0.650050
1649884572.352941,116.000000,0.000000,4284.615234,4269.743652,4171.794922,4162.051270,4231.794922,450.000000,4.000000,95.000000,,,,0.000000,4.000000,4.000000,4.000000,4.000000,4.000000,100.000000,,,,,,,,,,,,,,,,,,,,,,,,,,,,,,,,,,,,,,,,,,,,,,,,,,,,,,,,,,,,,,,
1649884572.360655,117.000000,0.000000,4285.128418,4274.871582,4180.000000,4173.846191,4251.794922,450.000000,4.000000,95.000000,,,,0.000000,4.000000,4.000000,4.000000,4.000000,4.000000,100.000000,,,,,,,,,,,,,,,,,,,,,,,,,,,,,,,,,,,,,,,,,,,,,,,,,,,,,,,,,,,,,,,
1649884572.368470,118.000000,0.000000,4267.692383,4264.102539,4180.512695,4172.820313,4244.102539,450.000000,4.000000,95.000000,,,,0.000000,4.000000,4.000000,4.000000,4.000000,4.000000,100.000000,,,,,,,,,,,,,,,,,,,,,,,,,,,,,,,,,,,,,,,,,,,,,,,,,,,,,,,,,,,,,,,
1649884572.376184,119.000000,0.000000,4271.282227,4274.358887,4182.051270,4171.282227,4229.743652,16205.000000,4.000000,95.000000,,,,0.000000,4.000000,4.000000,4.000000,4.000000,4.000000,100.000000,,,,,,,,,,,,,,,,,,,,,,,,,,,,,,,,,,,,,,,,,,,,,,,,,,,,,,,,,,,,,,,
1649884572.383998,120.000000,0.000000,4273.846191,4278.461426,4189.743652,4176.922852,4223.589844,450.000000,4.000000,95.000000,,,,0.000000,4.000000,4.000000,4.000000,4.000000,4.000000,100.000000,,,,,,,,,,,,,,,,,,,,,,,,,,,,,,,,,,,,,,,,,,,,,,,,,,,,,,,,,,,,,,,
1649884572.391713,121.000000,0.000000,4258.461426,4268.205078,4191.794922,4182.563965,4213.846191,450.000000,4.000000,95.000000,,,,0.000000,4.000000,4.000000,4.000000,4.000000,4.000000,100.000000,,,,,,,,,,,,,,,,,,,,,,,,,,,,,,,,,,,,,,,,,,,,,,,,,,,,,,,,,,,,,,,
1649884572.399527,122.000000,0.000000,4257.948730,4265.641113,4190.769043,4185.128418,4217.948730,450.000000,4.000000,95.000000,,,,0.000000,4.000000,4.000000,4.000000,4.000000,4.000000,100.000000,,,,,,,,,,,,,,,,,,,,,,,,,,,,,,,,,,,,,,,,,,,,,,,,,,,,,,,,,,,,,,,
1649884572.407242,123.000000,0.000000,4271.282227,4266.666504,4192.307617,4189.743652,4238.974121,16205.000000,4.000000,95.000000,,,,0.000000,4.000000,4.000000,4.000000,4.000000,4.000000,100.000000,,,,,,,,,,,,,,,,,,,,,,,,,,,,,,,,,,,,,,,,,,,,,,,,,,,,,,,,,,,,,,,
1649884572.415056,124.000000,0.000000,4269.743652,4272.307617,4182.051270,4189.743652,4239.487305,450.000000,4.000000,95.000000,,,,0.000000,4.000000,4.000000,4.000000,4.000000,4.000000,100.000000,,,,,,,,,,,,,,,,,,,,,,,,,,,,,,,,,,,,,,,,,,,,,,,,,,,,,,,,,,,,,,,
1649884572.422771,125.000000,0.000000,4271.282227,4285.641113,4174.871582,4187.692383,4232.307617,450.000000,4.000000,95.000000,,,,0.000000,4.000000,4.000000,4.000000,4.000000,4.000000,100.000000,,,,,,,,,,,,,,,,,,,,,,,,,,,,,,,,,,,,,,,,,,,,,,,,,,,,,,,,,,,,,,,
1649884572.430585,126.000000,0.000000,4286.153809,4284.615234,4181.538574,4189.743652,4244.615234,450.000000,4.000000,95.000000,,,,0.000000,4.000000,4.000000,4.000000,4.000000,4.000000,100.000000,,,,,,,,,,,,,,,,,,,,,,,,,,,,,,,,,,,,,,,,,,,,,,,,,,,,,,,,,,,,,,,
1649884572.438300,127.000000,0.000000,4282.563965,4265.128418,4182.051270,4183.589844,4246.153809,243.000000,4.000000,95.000000,,,,0.000000,4.000000,4.000000,4.000000,4.000000,4.000000,100.000000,,,,,,,,,,,,,,,,,,,,,,,,,,,,,,,,,,,,,,,,,,,,,,,,,,,,,,,,,,,,,,,
1649884572.446014,0.000000,0.000000,4257.436035,4250.769043,4169.230957,4167.692383,4228.205078,450.000000,4.000000,95.000000,,,,0.000000,4.000000,4.000000,4.000000,4.000000,4.000000,100.000000,,,,,,,,,,,,,,,,,,,,,,,,,,,,,,,,,,,,,,,,,,,,,,,,,,,,,,,,,,,,,,,
1649884572.453829,1.000000,0.000000,4258.974121,4261.025879,4166.153809,4168.205078,4227.179688,450.000000,4.000000,95.000000,,,,0.000000,4.000000,4.000000,4.000000,4.000000,4.000000,100.000000,,,,,,,,,,,,,,,,,,,,,,,,,,,,,,,,,,,,,,,,,,,,,,,,,,,,,,,,,,,,,,,
1649884572.461543,2.000000,0.000000,4290.256348,4276.410156,4183.077148,4191.794922,4242.563965,16194.000000,4.000000,95.000000,,,,0.000000,4.000000,4.000000,4.000000,4.000000,4.000000,100.000000,,,,,,,,,,,,,,,,,,,,,,,,,,,,,,,,,,,,,,,,,,,,,,,,,,,,,,,,,,,,,,,
1649884572.469358,3.000000,0.000000,4291.794922,4274.358887,4192.820313,4198.974121,4241.025879,450.000000,4.000000,95.000000,,,,0.000000,4.000000,4.000000,4.000000,4.000000,4.000000,100.000000,,,,,,,,,,,,,,,,,,,,,,,,,,,,,,,,,,,,,,,4.236859,1.930431,1.123459,0.848997,0.611569,0.982649,0.573864,0.767988,0.565434,0.653448,2.289593,1.829847,1.587922,0.563853,0.454846,2.948416,1.537255,0.636136,0.227222,0.344889,5.000977,2.685061,1.178611,0.874133,0.682586
1649884572.477072,4.000000,0.000000,4265.641113,4272.307617,4186.153809,4177.436035,4228.717773,16174.000000,4.000000,95.000000,,,,0.000000,4.000000,4.000000,4.000000,4.000000,4.000000,100.000000,,,,,,,,,,,,,,,,,,,,,,,,,,,,,,,,,,,,,,,,,,,,,,,,,,,,,,,,,,,,,,,
1649884572.484886,5.000000,0.000000,4272.307617,4284.615234,4195.384766,4173.333496,4232.307617,450.000000,4.000000,95.000000,,,,0.000000,4.000000,4.000000,4.000000,4.000000,4.000000,100.000000,,,,,,,,,,,,,,,,,,,,,,,,,,,,,,,,,,,,,,,,,,,,,,,,,,,,,,,,,,,,,,,
1649884572.492701,6.000000,0.000000,4290.256348,4280.512695,4212.307617,4191.282227,4244.615234,16158.000000,4.000000,95.000000,,,,0.000000,4.000000,4.000000,4.000000,4.000000,4.000000,100.000000,,,,,,,,,,,,,,,,,,,,,,,,,,,,,,,,,,,,,,,,,,,,,,,,,,,,,,,,,,,,,,,
1649884572.500415,7.000000,0.000000,4278.461426,4263.589844,4205.128418,4189.230957,4243.589844,450.000000,4.000000,95.000000,,,,0.000000,4.000000,4.000000,4.000000,4.000000,4.000000,100.000000,,,,,,,,,,,,,,,,,,,,,,,,,,,,,,,,,,,,,,,,,,,,,,,,,,,,,,,,,,,,,,,
1649884572.508130,8.000000,0.000000,4270.256348,4265.641113,4197.948730,4180.000000,4231.282227,450.000000,4.000000,95.000000,,,,0.000000,4.000000,4.000000,4.000000,4.000000,4.000000,100.000000,,,,,,,,,,,,,,,,,,,,,,,,,,,,,,,,,,,,,,,,,,,,,,,,,,,,,,,,,,,,,,,
1649884572.515944,9.000000,0.000000,4271.794922,4273.333496,4203.077148,4188.205078,4225.128418,16174.000000,4.000000,95.000000,,,,0.000000,4.000000,4.000000,4.000000,4.000000,4.000000,100.000000,,,,,,,,,,,,,,,,,,,,,,,,,,,,,,,,,,,,,,,,,,,,,,,,,,,,,,,,,,,,,,,
1649884572.523659,10.000000,0.000000,4259.487305,4266.666504,4195.384766,4184.615234,4231.282227,450.000000,4.000000,95.000000,,,,0.000000,4.000000,4.000000,4.000000,4.000000,4.000000,100.000000,,,,,,,,,,,,,,,,,,,,,,,,,,,,,,,,,,,,,,,,,,,,,,,,,,,,,,,,,,,,,,,
1649884572.531473,11.000000,0.000000,4259.487305,4257.436035,4180.512695,4167.692383,4233.846191,16209.000000,4.000000,95.000000,,,,0.000000,4.000000,4.000000,4.000000,4.000000,4.000000,100.000000,,,,,,,,,,,,,,,,,,,,,,,,,,,,,,,,,,,,,,,,,,,,,,,,,,,,,,,,,,,,,,,
1649884572.539188,12.000000,0.000000,4276.922852,4257.948730,4176.410156,4166.666504,4231.282227,450.000000,4.000000,95.000000,,,,0.000000,4.000000,4.000000,4.000000,4.000000,4.000000,100.000000,,,,,,,,,,,,,,,,,,,,,,,,,,,,,,,,,,,,,,,,,,,,,,,,,,,,,,,,,,,,,,,
1649884572.547002,13.000000,0.000000,4278.461426,4262.563965,4185.128418,4176.922852,4237.436035,450.000000,4.000000,95.000000,,,,0.000000,4.000000,4.000000,4.000000,4.000000,4.000000,100.000000,,,,,,,,,,,,,,,,,,,,,,,,,,,,,,,,,,,,,,,,,,,,,,,,,,,,,,,,,,,,,,,
1649884572.554717,14.000000,0.000000,4269.230957,4255.384766,4191.794922,4176.922852,4238.461426,450.000000,4.000000,95.000000,,,,0.000000,4.000000,4.000000,4.000000,4.000000,4.000000,100.000000,,,,,,,,,,,,,,,,,,,,,,,,,,,,,,,,,,,,,,,,,,,,,,,,,,,,,,,,,,,,,,,
1649884572.562531,15.000000,0.000000,4273.333496,4247.179688,4192.820313,4176.922852,4242.051270,16209.000000,4.000000,95.000000,,,,0.000000,4.000000,4.000000,4.000000,4.000000,4.000000,100.000000,,,,,,,,,,,,,,,,,,,,,,,,,,,,,,,,,,,,,,,,,,,,,,,,,,,,,,,,,,,,,,,
1649884572.570246,16.000000,0.000000,4278.974121,4256.922852,4196.410156,4185.641113,4260.512695,0.000000,4.000000,95.000000,,,,0.000000,4.000000,4.000000,4.000000,4.000000,4.000000,100.000000,,,,,,,,,,,,,,,,,,,,,,,,,,,,,,,,,,,,,,,,,,,,,,,,,,,,,,,,,,,,,,,
1649884572.578060,17.000000,0.000000,4281.025879,4279.487305,4197.948730,4194.871582,4265.128418,0.000000,4.000000,95.000000,,,,0.000000,4.000000,4.000000,4.000000,4.000000,4.000000,100.000000,,,,,,,,,,,,,,,,,,,,,,,,,,,,,,,,,,,,,,,,,,,,,,,,,,,,,,,,,,,,,,,
1649884572.585774,18.000000,0.000000,4290.256348,4290.769043,4194.358887,4195.897461,4253.333496,0.000000,4.000000,95.000000,,,,0.000000,4.000000,4.000000,4.000000,4.000000,4.000000,100.000000,,,,,,,,,,,,,,,,,,,,,,,,,,,,,,,,,,,,,,,,,,,,,,,,,,,,,,,,,,,,,,,
1649884572.593589,19.000000,0.000000,4292.307617,4281.538574,4193.846191,4188.205078,4254.871582,0.000000,4.000000,95.000000,,,,0.000000,4.000000,4.000000,4.000000,4.000000,4.000000,100.000000,0.968750,100.000000,4.000000,4.000000,4.000000,4.000000,4.000000,,,,,,,,,,,,,,,,,,,,,,,,,,,,,,,,3.786695,2.232581,0.977035,0.894542,0.570900,1.042838,0.728812,0.779504,0.507308,0.645518,2.200611,1.837871,1.692977,0.572980,0.406255,2.518223,1.629461,0.547351,0.232531,0.371423,4.603857,2.657368,0.999231,0.720400,0.732293
1649884572.601303,20.000000,0.000000,4289.743652,4278.974121,4196.410156,4187.179688,4259.487305,0.000000,4.000000,95.000000,,,,0.000000,4.000000,4.000000,4.000000,4.000000,4.000000,100.000000,,,,,,,,,,,,,,,,,,,,,,,,,,,,,,,,,,,,,,,,,,,,,,,,,,,,,,,,,,,,,,,
1649884572.609018,21.000000,0.000000,4292.307617,4280.512695,4188.205078,4191.282227,4249.230957,0.000000,4.000000,95.000000,,,,0.000000,4.000000,4.000000,4.000000,4.000000,4.000000,100.000000,,,,,,,,,,,,,,,,,,,,,,,,,,,,,,,,,,,,,,,,,,,,,,,,,,,,,,,,,,,,,,,
1649884572.616832,22.000000,0.000000,4288.717773,4269.230957,4181.025879,4185.128418,4245.128418,0.000000,4.000000,95.000000,,,,0.000000,4.000000,4.000000,4.000000,4.000000,4.000000,100.000000,,,,,,,,,,,,,,,,,,,,,,,,,,,,,,,,,,,,,,,,,,,,,,,,,,,,,,,,,,,,,,,
1649884572.624547,23.000000,0.000000,4290.769043,4264.102539,4195.384766,4180.512695,4255.384766,0.000000,4.000000,95.000000,,,,0.000000,4.000000,4.000000,4.000000,4.000000,4.000000,100.000000,,,,,,,,,,,,,,,,,,,,,,,,,,,,,,,,,,,,,,,,,,,,,,,,,,,,,,,,,,,,,,,
1649884572.632361,24.000000,0.000000,4293.333496,4269.230957,4208.717773,4179.487305,4252.307617,0.000000,4.000000,95.000000,,,,0.000000,4.000000,4.000000,4.000000,4.000000,4.000000,100.000000,,,,,,,,,,,,,,,,,,,,,,,,,,,,,,,,,,,,,,,,,,,,,,,,,,,,,,,,,,,,,,,
1649884572.640076,25.000000,0.000000,4281.025879,4272.820313,4202.563965,4175.384766,4236.410156,0.000000,4.000000,95.000000,,,,0.000000,4.000000,4.000000,4.000000,4.000000,4.000000,100.000000,,,,,,,,,,,,,,,,,,,,,,,,,,,,,,,,,,,,,,,,,,,,,,,,,,,,,,,,,,,,,,,
1649884572.647890,26.000000,0.000000,4270.769043,4279.487305,4199.487305,4174.358887,4233.333496,0.000000,4.000000,95.000000,,,,0.000000,4.000000,4.000000,4.000000,4.000000,4.000000,100.000000,,,,,,,,,,,,,,,,,,,,,,,,,,,,,,,,,,,,,,,,,,,,,,,,,,,,,,,,,,,,,,,
1649884572.655605,27.000000,0.000000,4279.487305,4277.436035,4205.641113,4175.384766,4245.128418,0.000000,4.000000,95.000000,,,,0.000000,4.000000,4.000000,4.000000,4.000000,4.000000,100.000000,,,,,,,,,,,,,,,,,,,,,,,,,,,,,,,,,,,,,,,,,,,,,,,,,,,,,,,,,,,,,,,
1649884572.663419,28.000000,0.000000,4284.615234,4263.077148,4200.000000,4171.282227,4252.820313,0.000000,4.000000,95.000000,,,,0.000000,4.000000,4.000000,4.000000,4.000000,4.000000,100.000000,,,,,,,,,,,,,,,,,,,,,,,,,,,,,,,,,,,,,,,,,,,,,,,,,,,,,,,,,,,,,,,
1649884572.671134,29.000000,0.000000,4275.384766,4270.256348,4186.666504,4167.179688,4254.871582,0.000000,4.000000,95.000000,,,,0.000000,4.000000,4.000000,4.000000,4.000000,4.000000,100.000000,,,,,,,,,,,,,,,,,,,,,,,,,,,,,,,,,,,,,,,,,,,,,,,,,,,,,,,,,,,,,,,
1649884572.678948,30.000000,0.000000,4278.974121,4282.563965,4184.102539,4172.307617,4255.897461,0.000000,4.000000,95.000000,,,,0.000000,4.000000,4.000000,4.000000,4.000000,4.000000,100.000000,,,,,,,,,,,,,,,,,,,,,,,,,,,,,,,,,,,,,,,,,,,,,,,,,,,,,,,,,,,,,,,
1649884572.686662,31.000000,0.000000,4294.358887,4264.615234,4181.538574,4176.922852,4252.820313,0.000000,4.000000,95.000000,,,,0.000000,4.000000,4.000000,4.000000,4.000000,4.000000,100.000000,,,,,,,,,,,,,,,,,,,,,,,,,,,,,,,,,,,,,,,,,,,,,,,,,,,,,,,,,,,,,,,
1649884572.694477,32.000000,0.000000,4297.948730,4251.282227,4168.717773,4174.358887,4256.410156,0.000000,4.000000,95.000000,,,,0.000000,4.000000,4.000000,4.000000,4.000000,4.000000,100.000000,,,,,,,,,,,,,,,,,,,,,,,,,,,,,,,,,,,,,,,,,,,,,,,,,,,,,,,,,,,,,,,
1649884572.702191,33.000000,0.000000,4283.077148,4260.512695,4158.461426,4173.846191,4263.077148,0.000000,4.000000,95.000000,,,,0.000000,4.000000,4.000000,4.000000,4.000000,4.000000,100.000000,,,,,,,,,,,,,,,,,,,,,,,,,,,,,,,,,,,,,,,,,,,,,,,,,,,,,,,,,,,,,,,
1649884572.710006,34.000000,0.000000,4271.794922,4263.589844,4163.077148,4182.563965,4258.974121,0.000000,4.000000,95.000000,,,,0.000000,4.000000,4.000000,4.000000,4.000000,4.000000,100.000000,,,,,,,,,,,,,,,,,,,,,,,,,,,,,,,,,,,,,,,,,,,,,,,,,,,,,,,,,,,,,,,
1649884572.717720,35.000000,0.000000,4278.461426,4257.948730,4167.179688,4187.692383,4247.179688,0.000000,4.000000,95.000000,,,,0.000000,4.000000,4.000000,4.000000,4.000000,4.000000,100.000000,,,,,,,,,,,,,,,,,,,,,,,,,,,,,,,,,,,,,,,4.130145,2.691193,0.857942,1.003766,0.550026,1.065279,0.996167,0.800019,0.464177,0.631185,2.096064,1.952029,1.997715,0.603949,0.386893,2.136578,1.742720,0.441090,0.288594,0.418772,4.676487,2.580424,0.813177,0.639555,0.792988
1649884572.725535,36.000000,0.000000,4280.512695,4261.025879,4160.000000,4180.000000,4240.512695,0.000000,4.000000,95.000000,,,,0.000000,4.000000,4.000000,4.000000,4.000000,4.000000,100.000000,,,,,,,,,,,,,,,,,,,,,,,,,,,,,,,,,,,,,,,,,,,,,,,,,,,,,,,,,,,,,,,
1649884572.733249,37.000000,0.000000,4271.794922,4272.307617,4164.615234,4176.410156,4240.512695,0.000000,4.000000,95.000000,,,,0.000000,4.000000,4.000000,4.000000,4.000000,4.000000,100.000000,,,,,,,,,,,,,,,,,,,,,,,,,,,,,,,,,,,,,,,,,,,,,,,,,,,,,,,,,,,,,,,
1649884572.741064,38.000000,0.000000,4268.717773,4275.384766,4181.025879,4176.410156,4241.538574,0.000000,4.000000,95.000000,,,,0.000000,4.000000,4.000000,4.000000,4.000000,4.000000,100.000000,,,,,,,,,,,,,,,,,,,,,,,,,,,,,,,,,,,,,,,,,,,,,,,,,,,,,,,,,,,,,,,
1649884572.748778,39.000000,0.000000,4267.179688,4271.794922,4181.025879,4175.384766,4244.102539,0.000000,4.000000,95.000000,,,,0.000000,4.000000,4.000000,4.000000,4.000000,4.000000,100.000000,,,,,,,,,,,,,,,,,,,,,,,,,,,,,,,,,,,,,,,,,,,,,,,,,,,,,,,,,,,,,,,
1649884572.756593,40.000000,0.000000,4263.589844,4274.871582,4177.436035,4179.487305,4248.205078,0.000000,4.000000,95.000000,,,,0.000000,4.000000,4.000000,4.000000,4.000000,4.000000,100.000000,,,,,,,,,,,,,,,,,,,,,,,,,,,,,,,,,,,,,,,,,,,,,,,,,,,,,,,,,,,,,,,
1649884572.764307,41.000000,0.000000,4267.692383,4278.974121,4185.128418,4190.769043,4243.589844,0.000000,4.000000,95.000000,,,,0.000000,4.000000,4.000000,4.000000,4.000000,4.000000,100.000000,,,,,,,,,,,,,,,,,,,,,,,,,,,,,,,,,,,,,,,,,,,,,,,,,,,,,,,,,,,,,,,
1649884572.772121,42.000000,0.000000,4265.128418,4262.563965,4175.897461,4183.589844,4219.487305,0.000000,4.000000,95.000000,,,,0.000000,4.000000,4.000000,4.000000,4.000000,4.000000,100.000000,,,,,,,,,,,,,,,,,,,,,,,,,,,,,,,,,,,,,,,,,,,,,,,,,,,,,,,,,,,,,,,
1649884572.779836,43.000000,0.000000,4250.256348,4244.615234,4158.461426,4161.025879,4204.102539,0.000000,4.000000,95.000000,,,,0.000000,4.000000,4.000000,4.000000,4.000000,4.000000,100.000000,,,,,,,,,,,,,,,,,,,,,,,,,,,,,,,,,,,,,,,,,,,,,,,,,,,,,,,,,,,,,,,
1649884572.787650,44.000000,0.000000,4249.743652,4254.871582,4165.128418,4155.897461,4215.897461,0.000000,4.000000,95.000000,,,,0.000000,4.000000,4.000000,4.000000,4.000000,4.000000,100.000000,,,,,,,,,,,,,,,,,,,,,,,,,,,,,,,,,,,,,,,,,,,,,,,,,,,,,,,,,,,,,,,
1649884572.795365,45.000000,0.000000,4260.000000,4265.128418,4175.897461,4159.487305,4225.641113,0.000000,4.000000,95.000000,,,,0.000000,4.000000,4.000000,4.000000,4.000000,4.000000,100.000000,,,,,,,,,,,,,,,,,,,,,,,,,,,,,,,,,,,,,,,,,,,,,,,,,,,,,,,,,,,,,,,
1649884572.803079,46.000000,0.000000,4256.410156,4255.897461,4169.743652,4153.846191,4224.615234,0.000000,4.000000,95.000000,,,,0.000000,4.000000,4.000000,4.000000,4.000000,4.000000,100.000000,,,,,,,,,,,,,,,,,,,,,,,,,,,,,,,,,,,,,,,,,,,,,,,,,,,,,,,,,,,,,,,
1649884572.810894,47.000000,0.000000,4248.717773,4262.051270,4170.256348,4157.948730,4224.615234,0.000000,4.000000,95.000000,,,,0.000000,4.000000,4.000000,4.000000,4.000000,4.000000,100.000000,,,,,,,,,,,,,,,,,,,,,,,,,,,,,,,,,,,,,,,,,,,,,,,,,,,,,,,,,,,,,,,
1649884572.818608,48.000000,0.000000,4259.487305,4282.563965,4187.692383,4178.461426,4227.692383,0.000000,4.000000,95.000000,,,,0.000000,4.000000,4.000000,4.000000,4.000000,4.000000,100.000000,,,,,,,,,,,,,,,,,,,,,,,,,,,,,,,,,,,,,,,,,,,,,,,,,,,,,,,,,,,,,,,
1649884572.826423,49.000000,0.000000,4275.897461,4286.666504,4195.384766,4183.589844,4234.871582,0.000000,4.000000,95.000000,,,,0.000000,4.000000,4.000000,4.000000,4.000000,4.000000,100.000000,,,,,,,,,,,,,,,,,,,,,,,,,,,,,,,,,,,,,,,,,,,,,,,,,,,,,,,,,,,,,,,
1649884572.834137,50.000000,0.000000,4277.948730,4278.461426,4190.256348,4174.358887,4244.615234,0.000000,4.000000,95.000000,,,,0.000000,4.000000,4.000000,4.000000,4.000000,4.000000,100.000000,,,,,,,,,,,,,,,,,,,,,,,,,,,,,,,,,,,,,,,,,,,,,,,,,,,,,,,,,,,,,,,
