title:david_g_Forward, start timestamp:1649884891.134602, stop timestamp:1649884896.197939, headset type:INSIGHT, headset serial:A2D201AE, headset firmware:932, channels:84, sampling rate:eeg_128;pm_0.1;pow_8, samples:649       , version:2.1, 
Timestamp,EEG.Counter,EEG.Interpolated,EEG.AF3,EEG.T7,EEG.Pz,EEG.T8,EEG.AF4,EEG.RawCq,EEG.Battery,EEG.BatteryPercent,MarkerIndex,MarkerType,MarkerValueInt,EEG.MarkerHardware,CQ.AF3,CQ.T7,CQ.Pz,CQ.T8,CQ.AF4,CQ.Overall,EQ.SampleRateQuality,EQ.OVERALL,EQ.AF3,EQ.T7,EQ.Pz,EQ.T8,EQ.AF4,PM.Engagement.IsActive,PM.Engagement.Scaled,PM.Engagement.Raw,PM.Engagement.Min,PM.Engagement.Max,PM.Excitement.IsActive,PM.Excitement.Scaled,PM.Excitement.Raw,PM.Excitement.Min,PM.Excitement.Max,PM.LongTermExcitement,PM.Stress.IsActive,PM.Stress.Scaled,PM.Stress.Raw,PM.Stress.Min,PM.Stress.Max,PM.Relaxation.IsActive,PM.Relaxation.Scaled,PM.Relaxation.Raw,PM.Relaxation.Min,PM.Relaxation.Max,PM.Interest.IsActive,PM.Interest.Scaled,PM.Interest.Raw,PM.Interest.Min,PM.Interest.Max,PM.Focus.IsActive,PM.Focus.Scaled,PM.Focus.Raw,PM.Focus.Min,PM.Focus.Max,POW.AF3.Theta,POW.AF3.Alpha,POW.AF3.BetaL,POW.AF3.BetaH,POW.AF3.Gamma,POW.T7.Theta,POW.T7.Alpha,POW.T7.BetaL,POW.T7.BetaH,POW.T7.Gamma,POW.Pz.Theta,POW.Pz.Alpha,POW.Pz.BetaL,POW.Pz.BetaH,POW.Pz.Gamma,POW.T8.Theta,POW.T8.Alpha,POW.T8.BetaL,POW.T8.BetaH,POW.T8.Gamma,POW.AF4.Theta,POW.AF4.Alpha,POW.AF4.BetaL,POW.AF4.BetaH,POW.AF4.Gamma
1649884891.134602,8.000000,0.000000,4255.897461,4223.077148,4122.563965,4219.487305,4174.358887,450.000000,4.000000,91.000000,,,,0.000000,4.000000,4.000000,4.000000,0.000000,4.000000,66.666664,,,,,,,,,,,,,,,,,,,,,,,,,,,,,,,,,,,,,,,,,,,,,,,,,,,,,,,,,,,,,,,
1649884891.142517,9.000000,0.000000,4283.077148,4240.512695,4138.461426,4218.974121,4200.000000,0.000000,4.000000,91.000000,,,,0.000000,4.000000,4.000000,4.000000,0.000000,4.000000,66.666664,,,,,,,,,,,,,,,,,,,,,,,,,,,,,,,,,,,,,,,,,,,,,,,,,,,,,,,,,,,,,,,
1649884891.150331,10.000000,0.000000,4296.410156,4245.641113,4152.820313,4218.461426,4221.538574,450.000000,4.000000,91.000000,,,,0.000000,4.000000,4.000000,4.000000,0.000000,4.000000,66.666664,,,,,,,,,,,,,,,,,,,,,,,,,,,,,,,,,,,,,,,,,,,,,,,,,,,,,,,,,,,,,,,
1649884891.158145,11.000000,0.000000,4272.820313,4226.153809,4137.948730,4216.922852,4205.128418,16199.000000,4.000000,91.000000,,,,0.000000,4.000000,4.000000,4.000000,0.000000,4.000000,66.666664,,,,,,,,,,,,,,,,,,,,,,,,,,,,,,,,,,,,,,,,,,,,,,,,,,,,,,,,,,,,,,,
1649884891.165860,12.000000,0.000000,4261.538574,4225.128418,4128.205078,4216.922852,4184.615234,450.000000,4.000000,91.000000,,,,0.000000,4.000000,4.000000,4.000000,0.000000,4.000000,66.666664,,,,,,,,,,,,,,,,,,,,,,,,,,,,,,,,,,,,,,,,,,,,,,,,,,,,,,,,,,,,,,,
1649884891.173774,13.000000,0.000000,4271.282227,4240.512695,4141.538574,4218.974121,4181.025879,450.000000,4.000000,91.000000,,,,0.000000,4.000000,4.000000,4.000000,0.000000,4.000000,66.666664,,,,,,,,,,,,,,,,,,,,,,,,,,,,,,,,,,,,,,,,,,,,,,,,,,,,,,,,,,,,,,,
1649884891.181589,14.000000,0.000000,4276.410156,4243.077148,4163.589844,4216.922852,4184.102539,450.000000,4.000000,91.000000,,,,0.000000,4.000000,4.000000,4.000000,0.000000,4.000000,66.666664,,,,,,,,,,,,,,,,,,,,,,,,,,,,,,,,,,,,,,,,,,,,,,,,,,,,,,,,,,,,,,,
1649884891.189403,15.000000,0.000000,4278.974121,4238.461426,4179.487305,4216.410156,4195.384766,16199.000000,4.000000,91.000000,,,,0.000000,4.000000,4.000000,4.000000,0.000000,4.000000,66.666664,,,,,,,,,,,,,,,,,,,,,,,,,,,,,,,,,,,,,,,,,,,,,,,,,,,,,,,,,,,,,,,
1649884891.197118,16.000000,0.000000,4287.692383,4250.256348,4189.743652,4224.102539,4214.871582,0.000000,4.000000,91.000000,,,,0.000000,4.000000,4.000000,4.000000,0.000000,4.000000,66.666664,,,,,,,,,,,,,,,,,,,,,,,,,,,,,,,,,,,,,,,,,,,,,,,,,,,,,,,,,,,,,,,
1649884891.204932,17.000000,0.000000,4270.256348,4236.922852,4164.102539,4222.051270,4200.512695,0.000000,4.000000,91.000000,,,,0.000000,4.000000,4.000000,4.000000,0.000000,4.000000,66.666664,,,,,,,,,,,,,,,,,,,,,,,,,,,,,,,,,,,,,,,,,,,,,,,,,,,,,,,,,,,,,,,
1649884891.212647,18.000000,0.000000,4255.384766,4213.333496,4141.538574,4220.000000,4185.128418,0.000000,4.000000,91.000000,,,,0.000000,4.000000,4.000000,4.000000,0.000000,4.000000,66.666664,,,,,,,,,,,,,,,,,,,,,,,,,,,,,,,,,,,,,,,,,,,,,,,,,,,,,,,,,,,,,,,
1649884891.220461,19.000000,0.000000,4292.307617,4241.538574,4171.282227,4226.666504,4221.025879,0.000000,4.000000,91.000000,,,,0.000000,4.000000,4.000000,4.000000,0.000000,4.000000,66.666664,,,,,,,,,,,,,,,,,,,,,,,,,,,,,,,,,,,,,,,3.452343,1.111041,1.213938,4.879424,3.061261,1.372253,0.900686,1.206179,1.772130,2.068529,2.575824,4.079622,1.634088,3.045465,2.619576,0.056559,0.040022,0.035218,0.081754,0.087618,4.964082,1.257270,0.916382,4.537742,3.914721
1649884891.228175,20.000000,0.000000,4307.179688,4260.000000,4182.563965,4224.102539,4228.205078,0.000000,4.000000,91.000000,,,,0.000000,4.000000,4.000000,4.000000,0.000000,4.000000,66.666664,,,,,,,,,,,,,,,,,,,,,,,,,,,,,,,,,,,,,,,,,,,,,,,,,,,,,,,,,,,,,,,
1649884891.235990,21.000000,0.000000,4276.922852,4238.461426,4156.410156,4220.512695,4193.846191,0.000000,4.000000,91.000000,,,,0.000000,4.000000,4.000000,4.000000,0.000000,4.000000,66.666664,,,,,,,,,,,,,,,,,,,,,,,,,,,,,,,,,,,,,,,,,,,,,,,,,,,,,,,,,,,,,,,
1649884891.243704,22.000000,0.000000,4277.948730,4248.717773,4164.615234,4222.051270,4202.563965,0.000000,4.000000,91.000000,,,,0.000000,4.000000,4.000000,4.000000,0.000000,4.000000,66.666664,,,,,,,,,,,,,,,,,,,,,,,,,,,,,,,,,,,,,,,,,,,,,,,,,,,,,,,,,,,,,,,
1649884891.251619,23.000000,0.000000,4308.717773,4275.897461,4189.743652,4225.128418,4238.461426,0.000000,4.000000,91.000000,,,,0.000000,4.000000,4.000000,4.000000,0.000000,4.000000,66.666664,,,,,,,,,,,,,,,,,,,,,,,,,,,,,,,,,,,,,,,,,,,,,,,,,,,,,,,,,,,,,,,
1649884891.259433,24.000000,0.000000,4298.461426,4249.230957,4170.769043,4224.102539,4226.666504,0.000000,4.000000,91.000000,,,,0.000000,4.000000,4.000000,4.000000,0.000000,4.000000,66.666664,,,,,,,,,,,,,,,,,,,,,,,,,,,,,,,,,,,,,,,,,,,,,,,,,,,,,,,,,,,,,,,
1649884891.267347,25.000000,0.000000,4260.000000,4215.897461,4146.153809,4220.512695,4194.358887,0.000000,4.000000,91.000000,,,,0.000000,4.000000,4.000000,4.000000,0.000000,4.000000,66.666664,,,,,,,,,,,,,,,,,,,,,,,,,,,,,,,,,,,,,,,,,,,,,,,,,,,,,,,,,,,,,,,
1649884891.275162,26.000000,0.000000,4259.487305,4230.769043,4156.922852,4220.000000,4190.256348,0.000000,4.000000,91.000000,,,,0.000000,4.000000,4.000000,4.000000,0.000000,4.000000,66.666664,,,,,,,,,,,,,,,,,,,,,,,,,,,,,,,,,,,,,,,,,,,,,,,,,,,,,,,,,,,,,,,
1649884891.283076,27.000000,0.000000,4268.717773,4241.025879,4162.051270,4222.051270,4185.641113,0.000000,4.000000,91.000000,,,,0.000000,4.000000,4.000000,4.000000,0.000000,4.000000,66.666664,,,,,,,,,,,,,,,,,,,,,,,,,,,,,,,,,,,,,,,,,,,,,,,,,,,,,,,,,,,,,,,
1649884891.290891,28.000000,0.000000,4252.307617,4227.692383,4147.692383,4220.512695,4165.128418,0.000000,4.000000,91.000000,,,,0.000000,4.000000,4.000000,4.000000,0.000000,4.000000,66.666664,,,,,,,,,,,,,,,,,,,,,,,,,,,,,,,,,,,,,,,,,,,,,,,,,,,,,,,,,,,,,,,
1649884891.298805,29.000000,0.000000,4258.974121,4240.512695,4163.589844,4220.000000,4170.769043,0.000000,4.000000,91.000000,,,,0.000000,4.000000,4.000000,4.000000,0.000000,4.000000,66.666664,,,,,,,,,,,,,,,,,,,,,,,,,,,,,,,,,,,,,,,,,,,,,,,,,,,,,,,,,,,,,,,
1649884891.306719,30.000000,0.000000,4298.461426,4278.974121,4203.589844,4224.102539,4211.282227,0.000000,4.000000,91.000000,,,,0.000000,4.000000,4.000000,4.000000,0.000000,4.000000,66.666664,,,,,,,,,,,,,,,,,,,,,,,,,,,,,,,,,,,,,,,,,,,,,,,,,,,,,,,,,,,,,,,
1649884891.314534,31.000000,0.000000,4300.000000,4272.307617,4204.102539,4224.615234,4229.743652,0.000000,4.000000,91.000000,,,,0.000000,4.000000,4.000000,4.000000,0.000000,4.000000,66.666664,,,,,,,,,,,,,,,,,,,,,,,,,,,,,,,,,,,,,,,,,,,,,,,,,,,,,,,,,,,,,,,
1649884891.322348,32.000000,0.000000,4258.461426,4231.794922,4169.230957,4222.051270,4200.000000,0.000000,4.000000,91.000000,,,,0.000000,4.000000,4.000000,4.000000,0.000000,4.000000,66.666664,,,,,,,,,,,,,,,,,,,,,,,,,,,,,,,,,,,,,,,,,,,,,,,,,,,,,,,,,,,,,,,
1649884891.330062,33.000000,0.000000,4240.512695,4217.948730,4143.077148,4221.538574,4168.717773,0.000000,4.000000,91.000000,,,,0.000000,4.000000,4.000000,4.000000,0.000000,4.000000,66.666664,,,,,,,,,,,,,,,,,,,,,,,,,,,,,,,,,,,,,,,,,,,,,,,,,,,,,,,,,,,,,,,
1649884891.337877,34.000000,0.000000,4251.282227,4226.153809,4138.974121,4221.025879,4168.717773,0.000000,4.000000,91.000000,,,,0.000000,4.000000,4.000000,4.000000,0.000000,4.000000,66.666664,,,,,,,,,,,,,,,,,,,,,,,,,,,,,,,,,,,,,,,,,,,,,,,,,,,,,,,,,,,,,,,
1649884891.345591,35.000000,0.000000,4252.307617,4226.153809,4145.128418,4222.563965,4177.948730,0.000000,4.000000,91.000000,,,,0.000000,4.000000,4.000000,4.000000,0.000000,4.000000,66.666664,,,,,,,,,,,,,,,,,,,,,,,,,,,,,,,,,,,,,,,3.304436,1.286393,1.527471,5.105293,3.047057,1.085964,1.019390,1.191005,1.895086,1.862147,1.963438,5.475009,1.779019,3.246377,2.498564,0.067242,0.034890,0.042798,0.085956,0.097611,4.499888,1.247733,1.111084,4.781477,3.651393
1649884891.353406,36.000000,0.000000,4232.820313,4224.102539,4145.128418,4218.461426,4161.538574,0.000000,4.000000,91.000000,,,,0.000000,4.000000,4.000000,4.000000,0.000000,4.000000,66.666664,,,,,,,,,,,,,,,,,,,,,,,,,,,,,,,,,,,,,,,,,,,,,,,,,,,,,,,,,,,,,,,
1649884891.361120,37.000000,0.000000,4228.717773,4232.820313,4154.358887,4214.871582,4148.717773,0.000000,4.000000,91.000000,,,,0.000000,4.000000,4.000000,4.000000,0.000000,4.000000,66.666664,,,,,,,,,,,,,,,,,,,,,,,,,,,,,,,,,,,,,,,,,,,,,,,,,,,,,,,,,,,,,,,
1649884891.368935,38.000000,0.000000,4262.051270,4246.153809,4190.769043,4219.487305,4181.025879,0.000000,4.000000,91.000000,,,,0.000000,4.000000,4.000000,4.000000,0.000000,4.000000,66.666664,,,,,,,,,,,,,,,,,,,,,,,,,,,,,,,,,,,,,,,,,,,,,,,,,,,,,,,,,,,,,,,
1649884891.376649,39.000000,0.000000,4274.358887,4249.230957,4193.846191,4220.512695,4205.128418,0.000000,4.000000,91.000000,,,,0.000000,4.000000,4.000000,4.000000,0.000000,4.000000,66.666664,,,,,,,,,,,,,,,,,,,,,,,,,,,,,,,,,,,,,,,,,,,,,,,,,,,,,,,,,,,,,,,
1649884891.384464,40.000000,0.000000,4237.948730,4230.256348,4145.641113,4215.897461,4175.384766,0.000000,4.000000,91.000000,,,,0.000000,4.000000,4.000000,4.000000,0.000000,4.000000,66.666664,,,,,,,,,,,,,,,,,,,,,,,,,,,,,,,,,,,,,,,,,,,,,,,,,,,,,,,,,,,,,,,
1649884891.392178,41.000000,0.000000,4230.769043,4224.102539,4134.871582,4220.512695,4168.717773,0.000000,4.000000,91.000000,,,,0.000000,4.000000,4.000000,4.000000,0.000000,4.000000,66.666664,,,,,,,,,,,,,,,,,,,,,,,,,,,,,,,,,,,,,,,,,,,,,,,,,,,,,,,,,,,,,,,
1649884891.399993,42.000000,0.000000,4284.615234,4253.333496,4175.897461,4227.692383,4218.461426,0.000000,4.000000,91.000000,,,,0.000000,4.000000,4.000000,4.000000,0.000000,4.000000,66.666664,,,,,,,,,,,,,,,,,,,,,,,,,,,,,,,,,,,,,,,,,,,,,,,,,,,,,,,,,,,,,,,
1649884891.407707,43.000000,0.000000,4316.410156,4269.230957,4196.410156,4224.102539,4246.666504,0.000000,4.000000,91.000000,,,,0.000000,4.000000,4.000000,4.000000,0.000000,4.000000,66.666664,,,,,,,,,,,,,,,,,,,,,,,,,,,,,,,,,,,,,,,,,,,,,,,,,,,,,,,,,,,,,,,
1649884891.415521,44.000000,0.000000,4287.692383,4250.769043,4176.410156,4218.974121,4221.025879,0.000000,4.000000,91.000000,,,,0.000000,4.000000,4.000000,4.000000,0.000000,4.000000,66.666664,,,,,,,,,,,,,,,,,,,,,,,,,,,,,,,,,,,,,,,,,,,,,,,,,,,,,,,,,,,,,,,
1649884891.423236,45.000000,0.000000,4253.846191,4232.307617,4149.743652,4222.051270,4184.615234,0.000000,4.000000,91.000000,,,,0.000000,4.000000,4.000000,4.000000,0.000000,4.000000,66.666664,,,,,,,,,,,,,,,,,,,,,,,,,,,,,,,,,,,,,,,,,,,,,,,,,,,,,,,,,,,,,,,
1649884891.431050,46.000000,0.000000,4239.487305,4230.256348,4137.948730,4221.025879,4161.025879,0.000000,4.000000,91.000000,,,,0.000000,4.000000,4.000000,4.000000,0.000000,4.000000,66.666664,,,,,,,,,,,,,,,,,,,,,,,,,,,,,,,,,,,,,,,,,,,,,,,,,,,,,,,,,,,,,,,
1649884891.438765,47.000000,0.000000,4244.102539,4241.538574,4149.743652,4214.358887,4156.922852,0.000000,4.000000,91.000000,,,,0.000000,4.000000,4.000000,4.000000,0.000000,4.000000,66.666664,,,,,,,,,,,,,,,,,,,,,,,,,,,,,,,,,,,,,,,,,,,,,,,,,,,,,,,,,,,,,,,
1649884891.446579,48.000000,0.000000,4262.051270,4254.358887,4168.717773,4215.897461,4176.922852,0.000000,4.000000,91.000000,,,,0.000000,4.000000,4.000000,4.000000,0.000000,4.000000,66.666664,,,,,,,,,,,,,,,,,,,,,,,,,,,,,,,,,,,,,,,,,,,,,,,,,,,,,,,,,,,,,,,
1649884891.454294,49.000000,0.000000,4260.512695,4249.230957,4168.205078,4222.051270,4188.717773,0.000000,4.000000,91.000000,,,,0.000000,4.000000,4.000000,4.000000,0.000000,4.000000,66.666664,,,,,,,,,,,,,,,,,,,,,,,,,,,,,,,,,,,,,,,,,,,,,,,,,,,,,,,,,,,,,,,
1649884891.462208,50.000000,0.000000,4237.948730,4237.436035,4162.051270,4222.051270,4174.871582,0.000000,4.000000,91.000000,,,,0.000000,4.000000,4.000000,4.000000,0.000000,4.000000,66.666664,,,,,,,,,,,,,,,,,,,,,,,,,,,,,,,,,,,,,,,,,,,,,,,,,,,,,,,,,,,,,,,
1649884891.470022,51.000000,0.000000,4249.743652,4249.230957,4182.051270,4220.000000,4175.384766,0.000000,4.000000,91.000000,,,,0.000000,4.000000,4.000000,4.000000,0.000000,4.000000,66.666664,0.972656,50.000000,3.000000,4.000000,3.000000,0.000000,3.000000,,,,,,,,,,,,,,,,,,,,,,,,,,,,,,,,3.131467,1.654683,2.254575,4.998827,3.131879,0.871253,1.185204,1.331843,1.996359,1.646299,1.529870,7.471702,2.284254,3.284181,2.459285,0.075402,0.032389,0.048967,0.084893,0.105682,4.007502,1.391480,1.633790,4.695020,3.393764
1649884891.477937,52.000000,0.000000,4264.102539,4249.230957,4189.743652,4216.410156,4181.025879,0.000000,4.000000,91.000000,,,,0.000000,4.000000,4.000000,4.000000,0.000000,4.000000,66.666664,,,,,,,,,,,,,,,,,,,,,,,,,,,,,,,,,,,,,,,,,,,,,,,,,,,,,,,,,,,,,,,
1649884891.485751,53.000000,0.000000,4249.743652,4230.769043,4171.282227,4215.384766,4171.794922,0.000000,4.000000,91.000000,,,,0.000000,4.000000,4.000000,4.000000,0.000000,4.000000,66.666664,,,,,,,,,,,,,,,,,,,,,,,,,,,,,,,,,,,,,,,,,,,,,,,,,,,,,,,,,,,,,,,
1649884891.493666,54.000000,0.000000,4266.153809,4246.666504,4178.974121,4221.538574,4183.077148,0.000000,4.000000,91.000000,,,,0.000000,4.000000,4.000000,4.000000,0.000000,4.000000,66.666664,,,,,,,,,,,,,,,,,,,,,,,,,,,,,,,,,,,,,,,,,,,,,,,,,,,,,,,,,,,,,,,
1649884891.501480,55.000000,0.000000,4276.922852,4257.436035,4177.436035,4224.102539,4185.128418,0.000000,4.000000,91.000000,,,,0.000000,4.000000,4.000000,4.000000,0.000000,4.000000,66.666664,,,,,,,,,,,,,,,,,,,,,,,,,,,,,,,,,,,,,,,,,,,,,,,,,,,,,,,,,,,,,,,
1649884891.509194,56.000000,0.000000,4248.717773,4236.922852,4143.589844,4217.948730,4163.077148,0.000000,4.000000,91.000000,,,,0.000000,4.000000,4.000000,4.000000,0.000000,4.000000,66.666664,,,,,,,,,,,,,,,,,,,,,,,,,,,,,,,,,,,,,,,,,,,,,,,,,,,,,,,,,,,,,,,
1649884891.517009,57.000000,0.000000,4251.794922,4237.436035,4144.102539,4217.948730,4177.436035,0.000000,4.000000,91.000000,,,,0.000000,4.000000,4.000000,4.000000,0.000000,4.000000,66.666664,,,,,,,,,,,,,,,,,,,,,,,,,,,,,,,,,,,,,,,,,,,,,,,,,,,,,,,,,,,,,,,
1649884891.524723,58.000000,0.000000,4268.205078,4252.307617,4166.666504,4221.538574,4203.077148,0.000000,4.000000,91.000000,,,,0.000000,4.000000,4.000000,4.000000,0.000000,4.000000,66.666664,,,,,,,,,,,,,,,,,,,,,,,,,,,,,,,,,,,,,,,,,,,,,,,,,,,,,,,,,,,,,,,
1649884891.532538,59.000000,0.000000,4255.384766,4236.922852,4165.128418,4222.051270,4192.307617,0.000000,4.000000,91.000000,,,,0.000000,4.000000,4.000000,4.000000,0.000000,4.000000,66.666664,,,,,,,,,,,,,,,,,,,,,,,,,,,,,,,,,,,,,,,,,,,,,,,,,,,,,,,,,,,,,,,
1649884891.540252,60.000000,0.000000,4255.384766,4218.461426,4167.692383,4221.538574,4190.769043,0.000000,4.000000,91.000000,,,,0.000000,4.000000,4.000000,4.000000,0.000000,4.000000,66.666664,,,,,,,,,,,,,,,,,,,,,,,,,,,,,,,,,,,,,,,,,,,,,,,,,,,,,,,,,,,,,,,
1649884891.548067,61.000000,0.000000,4270.256348,4234.358887,4178.461426,4219.487305,4204.102539,0.000000,4.000000,91.000000,,,,0.000000,4.000000,4.000000,4.000000,0.000000,4.000000,66.666664,,,,,,,,,,,,,,,,,,,,,,,,,,,,,,,,,,,,,,,,,,,,,,,,,,,,,,,,,,,,,,,
1649884891.555781,62.000000,0.000000,4262.563965,4249.743652,4170.256348,4218.974121,4192.307617,0.000000,4.000000,91.000000,,,,0.000000,4.000000,4.000000,4.000000,0.000000,4.000000,66.666664,,,,,,,,,,,,,,,,,,,,,,,,,,,,,,,,,,,,,,,,,,,,,,,,,,,,,,,,,,,,,,,
1649884891.563596,63.000000,0.000000,4254.358887,4240.000000,4164.615234,4222.563965,4183.077148,0.000000,4.000000,91.000000,,,,0.000000,4.000000,4.000000,4.000000,0.000000,4.000000,66.666664,,,,,,,,,,,,,,,,,,,,,,,,,,,,,,,,,,,,,,,,,,,,,,,,,,,,,,,,,,,,,,,
1649884891.571310,64.000000,0.000000,4252.307617,4228.205078,4161.025879,4221.538574,4189.230957,450.000000,4.000000,91.000000,,,,0.000000,4.000000,4.000000,4.000000,0.000000,4.000000,66.666664,,,,,,,,,,,,,,,,,,,,,,,,,,,,,,,,,,,,,,,,,,,,,,,,,,,,,,,,,,,,,,,
1649884891.579124,65.000000,0.000000,4243.589844,4238.461426,4154.358887,4215.384766,4187.179688,450.000000,4.000000,91.000000,,,,0.000000,4.000000,4.000000,4.000000,0.000000,4.000000,66.666664,,,,,,,,,,,,,,,,,,,,,,,,,,,,,,,,,,,,,,,,,,,,,,,,,,,,,,,,,,,,,,,
1649884891.586839,66.000000,0.000000,4242.563965,4246.666504,4155.384766,4216.410156,4178.974121,16224.000000,4.000000,91.000000,,,,0.000000,4.000000,4.000000,4.000000,0.000000,4.000000,66.666664,,,,,,,,,,,,,,,,,,,,,,,,,,,,,,,,,,,,,,,,,,,,,,,,,,,,,,,,,,,,,,,
1649884891.594653,67.000000,0.000000,4260.512695,4238.974121,4166.666504,4221.538574,4188.205078,450.000000,4.000000,91.000000,,,,0.000000,4.000000,4.000000,4.000000,0.000000,4.000000,66.666664,,,,,,,,,,,,,,,,,,,,,,,,,,,,,,,,,,,,,,,2.982634,2.117387,3.307778,4.657767,3.350440,0.764061,1.334858,1.674805,2.113388,1.498686,1.349745,9.830282,3.151930,3.219844,2.536353,0.079399,0.033732,0.052413,0.080150,0.110728,3.649820,1.664226,2.500597,4.346744,3.258504
1649884891.602368,68.000000,0.000000,4284.102539,4248.205078,4180.512695,4222.563965,4216.922852,16199.000000,4.000000,91.000000,,,,0.000000,4.000000,4.000000,4.000000,0.000000,4.000000,66.666664,,,,,,,,,,,,,,,,,,,,,,,,,,,,,,,,,,,,,,,,,,,,,,,,,,,,,,,,,,,,,,,
1649884891.610282,69.000000,0.000000,4269.743652,4240.000000,4154.358887,4220.000000,4206.666504,450.000000,4.000000,91.000000,,,,0.000000,4.000000,4.000000,4.000000,0.000000,4.000000,66.666664,,,,,,,,,,,,,,,,,,,,,,,,,,,,,,,,,,,,,,,,,,,,,,,,,,,,,,,,,,,,,,,
1649884891.618097,70.000000,0.000000,4251.794922,4219.487305,4131.794922,4214.358887,4182.563965,16189.000000,4.000000,91.000000,,,,0.000000,4.000000,4.000000,4.000000,0.000000,4.000000,66.666664,,,,,,,,,,,,,,,,,,,,,,,,,,,,,,,,,,,,,,,,,,,,,,,,,,,,,,,,,,,,,,,
1649884891.626011,71.000000,0.000000,4290.256348,4249.230957,4177.436035,4218.461426,4214.871582,450.000000,4.000000,91.000000,,,,0.000000,4.000000,4.000000,4.000000,0.000000,4.000000,66.666664,,,,,,,,,,,,,,,,,,,,,,,,,,,,,,,,,,,,,,,,,,,,,,,,,,,,,,,,,,,,,,,
1649884891.633825,72.000000,0.000000,4312.307617,4275.384766,4210.769043,4228.717773,4233.333496,450.000000,4.000000,91.000000,,,,0.000000,4.000000,4.000000,4.000000,0.000000,4.000000,66.666664,,,,,,,,,,,,,,,,,,,,,,,,,,,,,,,,,,,,,,,,,,,,,,,,,,,,,,,,,,,,,,,
1649884891.641740,73.000000,0.000000,4280.512695,4249.230957,4188.205078,4225.641113,4203.589844,0.000000,4.000000,91.000000,,,,0.000000,4.000000,4.000000,4.000000,0.000000,4.000000,66.666664,,,,,,,,,,,,,,,,,,,,,,,,,,,,,,,,,,,,,,,,,,,,,,,,,,,,,,,,,,,,,,,
1649884891.649554,74.000000,0.000000,4275.897461,4241.025879,4186.666504,4217.948730,4207.179688,450.000000,4.000000,91.000000,,,,0.000000,4.000000,4.000000,4.000000,0.000000,4.000000,66.666664,,,,,,,,,,,,,,,,,,,,,,,,,,,,,,,,,,,,,,,,,,,,,,,,,,,,,,,,,,,,,,,
1649884891.657468,75.000000,0.000000,4298.461426,4268.205078,4210.256348,4223.589844,4232.820313,16216.000000,4.000000,91.000000,,,,0.000000,4.000000,4.000000,4.000000,0.000000,4.000000,66.666664,,,,,,,,,,,,,,,,,,,,,,,,,,,,,,,,,,,,,,,,,,,,,,,,,,,,,,,,,,,,,,,
1649884891.665283,76.000000,0.000000,4292.307617,4267.179688,4195.897461,4227.692383,4222.563965,450.000000,4.000000,91.000000,,,,0.000000,4.000000,4.000000,4.000000,0.000000,4.000000,66.666664,,,,,,,,,,,,,,,,,,,,,,,,,,,,,,,,,,,,,,,,,,,,,,,,,,,,,,,,,,,,,,,
1649884891.673197,77.000000,0.000000,4266.666504,4237.948730,4158.974121,4220.000000,4202.051270,450.000000,4.000000,91.000000,,,,0.000000,4.000000,4.000000,4.000000,0.000000,4.000000,66.666664,,,,,,,,,,,,,,,,,,,,,,,,,,,,,,,,,,,,,,,,,,,,,,,,,,,,,,,,,,,,,,,
1649884891.681011,78.000000,0.000000,4269.230957,4236.410156,4156.410156,4214.871582,4207.692383,450.000000,4.000000,91.000000,,,,0.000000,4.000000,4.000000,4.000000,0.000000,4.000000,66.666664,,,,,,,,,,,,,,,,,,,,,,,,,,,,,,,,,,,,,,,,,,,,,,,,,,,,,,,,,,,,,,,
1649884891.688926,79.000000,0.000000,4297.436035,4263.589844,4186.666504,4220.512695,4234.358887,16216.000000,4.000000,91.000000,,,,0.000000,4.000000,4.000000,4.000000,0.000000,4.000000,66.666664,,,,,,,,,,,,,,,,,,,,,,,,,,,,,,,,,,,,,,,,,,,,,,,,,,,,,,,,,,,,,,,
1649884891.696840,80.000000,0.000000,4308.717773,4274.871582,4198.974121,4229.743652,4252.307617,450.000000,4.000000,91.000000,,,,0.000000,4.000000,4.000000,4.000000,0.000000,4.000000,66.666664,,,,,,,,,,,,,,,,,,,,,,,,,,,,,,,,,,,,,,,,,,,,,,,,,,,,,,,,,,,,,,,
1649884891.704655,81.000000,0.000000,4293.846191,4262.051270,4183.077148,4228.717773,4240.000000,450.000000,4.000000,91.000000,,,,0.000000,4.000000,4.000000,4.000000,0.000000,4.000000,66.666664,,,,,,,,,,,,,,,,,,,,,,,,,,,,,,,,,,,,,,,,,,,,,,,,,,,,,,,,,,,,,,,
1649884891.712469,82.000000,0.000000,4267.692383,4246.153809,4166.153809,4217.948730,4202.563965,450.000000,4.000000,91.000000,,,,0.000000,4.000000,4.000000,4.000000,0.000000,4.000000,66.666664,,,,,,,,,,,,,,,,,,,,,,,,,,,,,,,,,,,,,,,,,,,,,,,,,,,,,,,,,,,,,,,
1649884891.720183,83.000000,0.000000,4233.846191,4223.589844,4145.641113,4213.333496,4162.051270,16216.000000,4.000000,91.000000,,,,0.000000,4.000000,4.000000,4.000000,0.000000,4.000000,66.666664,,,,,,,,,,,,,,,,,,,,,,,,,,,,,,,,,,,,,,,2.876814,2.599537,4.452445,4.236030,3.677145,0.760723,1.422171,2.176703,2.268440,1.463593,1.386550,12.048024,4.198505,3.168279,2.714033,0.079165,0.039755,0.053244,0.073544,0.112185,3.486710,2.047527,3.620193,3.891705,3.291271
1649884891.727998,84.000000,0.000000,4227.179688,4216.922852,4144.102539,4218.974121,4159.487305,450.000000,4.000000,91.000000,,,,0.000000,4.000000,4.000000,4.000000,0.000000,4.000000,66.666664,,,,,,,,,,,,,,,,,,,,,,,,,,,,,,,,,,,,,,,,,,,,,,,,,,,,,,,,,,,,,,,
1649884891.735712,85.000000,0.000000,4244.102539,4238.461426,4165.128418,4219.487305,4185.128418,450.000000,4.000000,91.000000,,,,0.000000,4.000000,4.000000,4.000000,0.000000,4.000000,66.666664,,,,,,,,,,,,,,,,,,,,,,,,,,,,,,,,,,,,,,,,,,,,,,,,,,,,,,,,,,,,,,,
1649884891.743527,86.000000,0.000000,4233.333496,4232.820313,4164.615234,4214.871582,4182.051270,450.000000,4.000000,91.000000,,,,0.000000,4.000000,4.000000,4.000000,0.000000,4.000000,66.666664,,,,,,,,,,,,,,,,,,,,,,,,,,,,,,,,,,,,,,,,,,,,,,,,,,,,,,,,,,,,,,,
1649884891.751241,87.000000,0.000000,4245.128418,4224.102539,4177.948730,4217.948730,4193.333496,16216.000000,4.000000,91.000000,,,,0.000000,4.000000,4.000000,4.000000,0.000000,4.000000,66.666664,,,,,,,,,,,,,,,,,,,,,,,,,,,,,,,,,,,,,,,,,,,,,,,,,,,,,,,,,,,,,,,
1649884891.759056,88.000000,0.000000,4299.487305,4256.922852,4214.358887,4227.179688,4240.000000,450.000000,4.000000,91.000000,,,,0.000000,4.000000,4.000000,4.000000,0.000000,4.000000,66.666664,,,,,,,,,,,,,,,,,,,,,,,,,,,,,,,,,,,,,,,,,,,,,,,,,,,,,,,,,,,,,,,
1649884891.766770,89.000000,0.000000,4300.000000,4267.692383,4204.615234,4226.153809,4235.384766,450.000000,4.000000,91.000000,,,,0.000000,4.000000,4.000000,4.000000,0.000000,4.000000,66.666664,,,,,,,,,,,,,,,,,,,,,,,,,,,,,,,,,,,,,,,,,,,,,,,,,,,,,,,,,,,,,,,
1649884891.774684,90.000000,0.000000,4258.461426,4240.512695,4173.333496,4216.410156,4200.000000,450.000000,4.000000,91.000000,,,,0.000000,4.000000,4.000000,4.000000,0.000000,4.000000,66.666664,,,,,,,,,,,,,,,,,,,,,,,,,,,,,,,,,,,,,,,,,,,,,,,,,,,,,,,,,,,,,,,
1649884891.782499,91.000000,0.000000,4252.307617,4227.692383,4174.358887,4217.948730,4202.563965,16216.000000,4.000000,91.000000,,,,0.000000,4.000000,4.000000,4.000000,0.000000,4.000000,66.666664,,,,,,,,,,,,,,,,,,,,,,,,,,,,,,,,,,,,,,,,,,,,,,,,,,,,,,,,,,,,,,,
1649884891.790413,92.000000,0.000000,4246.666504,4224.615234,4166.666504,4221.025879,4192.307617,450.000000,4.000000,91.000000,,,,0.000000,4.000000,4.000000,4.000000,0.000000,4.000000,66.666664,,,,,,,,,,,,,,,,,,,,,,,,,,,,,,,,,,,,,,,,,,,,,,,,,,,,,,,,,,,,,,,
1649884891.798228,93.000000,0.000000,4240.000000,4228.205078,4156.410156,4216.410156,4178.974121,450.000000,4.000000,91.000000,,,,0.000000,4.000000,4.000000,4.000000,0.000000,4.000000,66.666664,,,,,,,,,,,,,,,,,,,,,,,,,,,,,,,,,,,,,,,,,,,,,,,,,,,,,,,,,,,,,,,
1649884891.806142,94.000000,0.000000,4252.307617,4239.487305,4163.077148,4216.410156,4195.897461,450.000000,4.000000,91.000000,,,,0.000000,4.000000,4.000000,4.000000,0.000000,4.000000,66.666664,,,,,,,,,,,,,,,,,,,,,,,,,,,,,,,,,,,,,,,,,,,,,,,,,,,,,,,,,,,,,,,
1649884891.813956,95.000000,0.000000,4229.230957,4218.974121,4138.974121,4220.000000,4178.461426,16216.000000,4.000000,91.000000,,,,0.000000,4.000000,4.000000,4.000000,0.000000,4.000000,66.666664,,,,,,,,,,,,,,,,,,,,,,,,,,,,,,,,,,,,,,,,,,,,,,,,,,,,,,,,,,,,,,,
1649884891.821871,96.000000,0.000000,4228.205078,4218.461426,4135.897461,4216.922852,4178.461426,450.000000,4.000000,91.000000,,,,0.000000,4.000000,4.000000,4.000000,0.000000,4.000000,66.666664,,,,,,,,,,,,,,,,,,,,,,,,,,,,,,,,,,,,,,,,,,,,,,,,,,,,,,,,,,,,,,,
1649884891.829685,97.000000,0.000000,4293.846191,4265.128418,4189.230957,4218.974121,4242.563965,450.000000,4.000000,91.000000,,,,0.000000,4.000000,4.000000,4.000000,0.000000,4.000000,66.666664,,,,,,,,,,,,,,,,,,,,,,,,,,,,,,,,,,,,,,,,,,,,,,,,,,,,,,,,,,,,,,,
1649884891.837599,98.000000,0.000000,4314.871582,4268.717773,4204.102539,4228.205078,4258.461426,450.000000,4.000000,91.000000,,,,0.000000,4.000000,4.000000,4.000000,0.000000,4.000000,66.666664,,,,,,,,,,,,,,,,,,,,,,,,,,,,,,,,,,,,,,,,,,,,,,,,,,,,,,,,,,,,,,,
1649884891.845514,99.000000,0.000000,4273.333496,4233.846191,4167.692383,4226.666504,4219.487305,16216.000000,4.000000,91.000000,,,,0.000000,4.000000,4.000000,4.000000,0.000000,4.000000,66.666664,,,,,,,,,,,,,,,,,,,,,,,,,,,,,,,,,,,,,,,2.841413,3.031304,5.406318,3.863976,4.012405,0.836691,1.428927,2.727230,2.444391,1.533741,1.544100,13.509509,5.142794,3.226370,2.922158,0.075922,0.049572,0.052745,0.066783,0.110429,3.534128,2.486636,4.806941,3.493682,3.434674
1649884891.853428,100.000000,0.000000,4269.743652,4230.256348,4164.102539,4217.436035,4222.051270,450.000000,4.000000,91.000000,,,,0.000000,4.000000,4.000000,4.000000,0.000000,4.000000,66.666664,,,,,,,,,,,,,,,,,,,,,,,,,,,,,,,,,,,,,,,,,,,,,,,,,,,,,,,,,,,,,,,
1649884891.861242,101.000000,0.000000,4286.666504,4242.051270,4182.051270,4217.436035,4242.563965,450.000000,4.000000,91.000000,,,,0.000000,4.000000,4.000000,4.000000,0.000000,4.000000,66.666664,,,,,,,,,,,,,,,,,,,,,,,,,,,,,,,,,,,,,,,,,,,,,,,,,,,,,,,,,,,,,,,
1649884891.869157,102.000000,0.000000,4278.461426,4248.205078,4177.436035,4221.025879,4233.846191,450.000000,4.000000,91.000000,,,,0.000000,4.000000,4.000000,4.000000,0.000000,4.000000,66.666664,,,,,,,,,,,,,,,,,,,,,,,,,,,,,,,,,,,,,,,,,,,,,,,,,,,,,,,,,,,,,,,
1649884891.876971,103.000000,0.000000,4264.102539,4236.922852,4154.358887,4217.436035,4214.871582,16216.000000,4.000000,91.000000,,,,0.000000,4.000000,4.000000,4.000000,0.000000,4.000000,66.666664,,,,,,,,,,,,,,,,,,,,,,,,,,,,,,,,,,,,,,,,,,,,,,,,,,,,,,,,,,,,,,,
1649884891.884885,104.000000,0.000000,4241.538574,4200.512695,4121.025879,4217.436035,4185.641113,450.000000,4.000000,91.000000,,,,0.000000,4.000000,4.000000,4.000000,0.000000,4.000000,66.666664,,,,,,,,,,,,,,,,,,,,,,,,,,,,,,,,,,,,,,,,,,,,,,,,,,,,,,,,,,,,,,,
1649884891.892700,105.000000,0.000000,4244.615234,4213.333496,4135.384766,4220.000000,4188.717773,450.000000,4.000000,91.000000,,,,0.000000,4.000000,4.000000,4.000000,0.000000,4.000000,66.666664,,,,,,,,,,,,,,,,,,,,,,,,,,,,,,,,,,,,,,,,,,,,,,,,,,,,,,,,,,,,,,,
1649884891.900614,106.000000,0.000000,4281.538574,4276.922852,4197.948730,4218.461426,4233.846191,450.000000,4.000000,91.000000,,,,0.000000,4.000000,4.000000,4.000000,0.000000,4.000000,66.666664,,,,,,,,,,,,,,,,,,,,,,,,,,,,,,,,,,,,,,,,,,,,,,,,,,,,,,,,,,,,,,,
1649884891.908428,107.000000,0.000000,4275.384766,4272.820313,4197.948730,4217.948730,4232.307617,16216.000000,4.000000,91.000000,,,,0.000000,4.000000,4.000000,4.000000,0.000000,4.000000,66.666664,,,,,,,,,,,,,,,,,,,,,,,,,,,,,,,,,,,,,,,,,,,,,,,,,,,,,,,,,,,,,,,
1649884891.916343,108.000000,0.000000,4230.256348,4219.487305,4137.948730,4217.436035,4182.051270,450.000000,4.000000,91.000000,,,,0.000000,4.000000,4.000000,4.000000,0.000000,4.000000,66.666664,,,,,,,,,,,,,,,,,,,,,,,,,,,,,,,,,,,,,,,,,,,,,,,,,,,,,,,,,,,,,,,
1649884891.924157,109.000000,0.000000,4232.820313,4227.692383,4135.384766,4217.436035,4181.025879,450.000000,4.000000,91.000000,,,,0.000000,4.000000,4.000000,4.000000,0.000000,4.000000,66.666664,,,,,,,,,,,,,,,,,,,,,,,,,,,,,,,,,,,,,,,,,,,,,,,,,,,,,,,,,,,,,,,
1649884891.932071,110.000000,0.000000,4248.717773,4249.743652,4156.410156,4218.974121,4205.641113,450.000000,4.000000,91.000000,,,,0.000000,4.000000,4.000000,4.000000,0.000000,4.000000,66.666664,,,,,,,,,,,,,,,,,,,,,,,,,,,,,,,,,,,,,,,,,,,,,,,,,,,,,,,,,,,,,,,
1649884891.939886,111.000000,0.000000,4223.589844,4219.487305,4131.282227,4216.410156,4185.128418,16216.000000,4.000000,91.000000,,,,0.000000,4.000000,4.000000,4.000000,0.000000,4.000000,66.666664,,,,,,,,,,,,,,,,,,,,,,,,,,,,,,,,,,,,,,,,,,,,,,,,,,,,,,,,,,,,,,,
1649884891.947800,112.000000,0.000000,4253.333496,4228.205078,4146.666504,4215.897461,4203.589844,450.000000,4.000000,91.000000,,,,0.000000,4.000000,4.000000,4.000000,0.000000,4.000000,66.666664,,,,,,,,,,,,,,,,,,,,,,,,,,,,,,,,,,,,,,,,,,,,,,,,,,,,,,,,,,,,,,,
1649884891.955715,113.000000,0.000000,4315.897461,4267.692383,4191.794922,4223.077148,4262.051270,450.000000,4.000000,91.000000,,,,0.000000,4.000000,4.000000,4.000000,0.000000,4.000000,66.666664,,,,,,,,,,,,,,,,,,,,,,,,,,,,,,,,,,,,,,,,,,,,,,,,,,,,,,,,,,,,,,,
1649884891.963529,114.000000,0.000000,4295.384766,4245.128418,4170.256348,4225.128418,4250.769043,450.000000,4.000000,91.000000,,,,0.000000,4.000000,4.000000,4.000000,0.000000,4.000000,66.666664,,,,,,,,,,,,,,,,,,,,,,,,,,,,,,,,,,,,,,,,,,,,,,,,,,,,,,,,,,,,,,,
1649884891.971443,115.000000,0.000000,4256.410156,4221.025879,4142.563965,4217.948730,4217.436035,16216.000000,4.000000,91.000000,,,,0.000000,4.000000,4.000000,4.000000,0.000000,4.000000,66.666664,1.000000,50.000000,3.000000,4.000000,3.000000,0.000000,3.000000,,,,,,,,,,,,,,,,,,,,,,,,,,,,,,,,2.925260,3.370237,5.943331,3.576561,4.225136,0.966129,1.364853,3.175395,2.578609,1.663356,1.751145,13.772888,5.720191,3.412814,3.069155,0.071140,0.060707,0.052686,0.061407,0.107429,3.760520,2.935353,5.834833,3.242680,3.563955
1649884891.979258,116.000000,0.000000,4277.948730,4240.512695,4159.487305,4216.410156,4232.820313,450.000000,4.000000,91.000000,,,,0.000000,4.000000,4.000000,4.000000,0.000000,4.000000,66.666664,,,,,,,,,,,,,,,,,,,,,,,,,,,,,,,,,,,,,,,,,,,,,,,,,,,,,,,,,,,,,,,
1649884891.987172,117.000000,0.000000,4291.282227,4243.589844,4161.538574,4220.000000,4237.948730,450.000000,4.000000,91.000000,,,,0.000000,4.000000,4.000000,4.000000,0.000000,4.000000,66.666664,,,,,,,,,,,,,,,,,,,,,,,,,,,,,,,,,,,,,,,,,,,,,,,,,,,,,,,,,,,,,,,
1649884891.994986,118.000000,0.000000,4279.487305,4241.025879,4155.897461,4221.025879,4225.641113,450.000000,4.000000,91.000000,,,,0.000000,4.000000,4.000000,4.000000,0.000000,4.000000,66.666664,,,,,,,,,,,,,,,,,,,,,,,,,,,,,,,,,,,,,,,,,,,,,,,,,,,,,,,,,,,,,,,
1649884892.002801,119.000000,0.000000,4259.487305,4237.436035,4149.230957,4217.436035,4211.794922,16216.000000,4.000000,91.000000,,,,0.000000,4.000000,4.000000,4.000000,0.000000,4.000000,66.666664,,,,,,,,,,,,,,,,,,,,,,,,,,,,,,,,,,,,,,,,,,,,,,,,,,,,,,,,,,,,,,,
1649884892.010715,120.000000,0.000000,4231.794922,4214.871582,4129.743652,4218.461426,4186.666504,450.000000,4.000000,91.000000,,,,0.000000,4.000000,4.000000,4.000000,0.000000,4.000000,66.666664,,,,,,,,,,,,,,,,,,,,,,,,,,,,,,,,,,,,,,,,,,,,,,,,,,,,,,,,,,,,,,,
1649884892.018629,121.000000,0.000000,4248.205078,4228.205078,4144.102539,4225.128418,4196.922852,450.000000,4.000000,91.000000,,,,0.000000,4.000000,4.000000,4.000000,0.000000,4.000000,66.666664,,,,,,,,,,,,,,,,,,,,,,,,,,,,,,,,,,,,,,,,,,,,,,,,,,,,,,,,,,,,,,,
1649884892.026444,122.000000,0.000000,4290.769043,4268.205078,4177.948730,4224.615234,4231.282227,450.000000,4.000000,91.000000,,,,0.000000,4.000000,4.000000,4.000000,0.000000,4.000000,66.666664,,,,,,,,,,,,,,,,,,,,,,,,,,,,,,,,,,,,,,,,,,,,,,,,,,,,,,,,,,,,,,,
1649884892.034358,123.000000,0.000000,4283.589844,4259.487305,4170.769043,4220.000000,4228.205078,16216.000000,4.000000,91.000000,,,,0.000000,4.000000,4.000000,4.000000,0.000000,4.000000,66.666664,,,,,,,,,,,,,,,,,,,,,,,,,,,,,,,,,,,,,,,,,,,,,,,,,,,,,,,,,,,,,,,
1649884892.042172,124.000000,0.000000,4264.615234,4231.282227,4153.333496,4222.051270,4213.846191,450.000000,4.000000,91.000000,,,,0.000000,4.000000,4.000000,4.000000,0.000000,4.000000,66.666664,,,,,,,,,,,,,,,,,,,,,,,,,,,,,,,,,,,,,,,,,,,,,,,,,,,,,,,,,,,,,,,
1649884892.050087,125.000000,0.000000,4271.794922,4232.307617,4158.974121,4221.538574,4215.897461,450.000000,4.000000,91.000000,,,,0.000000,4.000000,4.000000,4.000000,0.000000,4.000000,66.666664,,,,,,,,,,,,,,,,,,,,,,,,,,,,,,,,,,,,,,,,,,,,,,,,,,,,,,,,,,,,,,,
1649884892.057901,126.000000,0.000000,4273.333496,4237.436035,4157.948730,4215.897461,4211.794922,450.000000,4.000000,91.000000,,,,0.000000,4.000000,4.000000,4.000000,0.000000,4.000000,66.666664,,,,,,,,,,,,,,,,,,,,,,,,,,,,,,,,,,,,,,,,,,,,,,,,,,,,,,,,,,,,,,,
1649884892.065815,127.000000,0.000000,4264.102539,4227.692383,4140.000000,4217.436035,4205.641113,242.000000,4.000000,91.000000,,,,0.000000,4.000000,4.000000,4.000000,0.000000,4.000000,66.666664,,,,,,,,,,,,,,,,,,,,,,,,,,,,,,,,,,,,,,,,,,,,,,,,,,,,,,,,,,,,,,,
1649884892.073630,0.000000,0.000000,4231.794922,4197.948730,4103.077148,4218.974121,4181.025879,450.000000,4.000000,91.000000,,,,0.000000,4.000000,4.000000,4.000000,0.000000,4.000000,66.666664,,,,,,,,,,,,,,,,,,,,,,,,,,,,,,,,,,,,,,,,,,,,,,,,,,,,,,,,,,,,,,,
1649884892.081544,1.000000,0.000000,4210.769043,4188.717773,4091.794922,4215.897461,4157.436035,450.000000,4.000000,91.000000,,,,0.000000,4.000000,4.000000,4.000000,0.000000,4.000000,66.666664,,,,,,,,,,,,,,,,,,,,,,,,,,,,,,,,,,,,,,,,,,,,,,,,,,,,,,,,,,,,,,,
1649884892.089359,2.000000,0.000000,4250.769043,4233.333496,4146.666504,4218.461426,4190.769043,16225.000000,4.000000,91.000000,,,,0.000000,4.000000,4.000000,4.000000,0.000000,4.000000,66.666664,,,,,,,,,,,,,,,,,,,,,,,,,,,,,,,,,,,,,,,,,,,,,,,,,,,,,,,,,,,,,,,
1649884892.097273,3.000000,0.000000,4282.051270,4264.102539,4182.563965,4219.487305,4228.205078,450.000000,4.000000,91.000000,,,,0.000000,4.000000,4.000000,4.000000,0.000000,4.000000,66.666664,,,,,,,,,,,,,,,,,,,,,,,,,,,,,,,,,,,,,,,3.175575,3.622515,6.088033,3.330265,4.239985,1.132225,1.259983,3.413371,2.594406,1.810295,1.951718,12.779147,5.801127,3.656245,3.104196,0.066311,0.070432,0.056441,0.058975,0.106492,4.096376,3.355619,6.624938,3.135603,3.577001
1649884892.105187,4.000000,0.000000,4247.179688,4241.538574,4138.461426,4217.948730,4199.487305,16210.000000,4.000000,91.000000,,,,0.000000,4.000000,4.000000,4.000000,0.000000,4.000000,66.666664,,,,,,,,,,,,,,,,,,,,,,,,,,,,,,,,,,,,,,,,,,,,,,,,,,,,,,,,,,,,,,,
1649884892.113002,5.000000,0.000000,4215.897461,4221.025879,4104.102539,4217.948730,4166.666504,450.000000,4.000000,91.000000,,,,0.000000,4.000000,4.000000,4.000000,0.000000,4.000000,66.666664,,,,,,,,,,,,,,,,,,,,,,,,,,,,,,,,,,,,,,,,,,,,,,,,,,,,,,,,,,,,,,,
1649884892.120916,6.000000,0.000000,4236.922852,4231.794922,4140.000000,4217.436035,4186.666504,16186.000000,4.000000,91.000000,,,,0.000000,4.000000,4.000000,4.000000,0.000000,4.000000,66.666664,,,,,,,,,,,,,,,,,,,,,,,,,,,,,,,,,,,,,,,,,,,,,,,,,,,,,,,,,,,,,,,
1649884892.128730,7.000000,0.000000,4247.179688,4233.846191,4158.461426,4216.922852,4200.000000,450.000000,4.000000,91.000000,,,,0.000000,4.000000,4.000000,4.000000,0.000000,4.000000,66.666664,,,,,,,,,,,,,,,,,,,,,,,,,,,,,,,,,,,,,,,,,,,,,,,,,,,,,,,,,,,,,,,
1649884892.136645,8.000000,0.000000,4230.769043,4222.051270,4131.282227,4217.436035,4185.128418,450.000000,4.000000,91.000000,,,,0.000000,4.000000,4.000000,4.000000,0.000000,4.000000,66.666664,,,,,,,,,,,,,,,,,,,,,,,,,,,,,,,,,,,,,,,,,,,,,,,,,,,,,,,,,,,,,,,
1649884892.144459,9.000000,0.000000,4227.692383,4222.563965,4121.025879,4217.948730,4184.102539,0.000000,4.000000,91.000000,,,,0.000000,4.000000,4.000000,4.000000,0.000000,4.000000,66.666664,,,,,,,,,,,,,,,,,,,,,,,,,,,,,,,,,,,,,,,,,,,,,,,,,,,,,,,,,,,,,,,
1649884892.152273,10.000000,0.000000,4245.641113,4225.641113,4129.230957,4217.436035,4194.358887,450.000000,4.000000,91.000000,,,,0.000000,4.000000,4.000000,4.000000,0.000000,4.000000,66.666664,,,,,,,,,,,,,,,,,,,,,,,,,,,,,,,,,,,,,,,,,,,,,,,,,,,,,,,,,,,,,,,
1649884892.160188,11.000000,0.000000,4261.538574,4228.717773,4132.820313,4217.948730,4201.025879,16193.000000,4.000000,91.000000,,,,0.000000,4.000000,4.000000,4.000000,0.000000,4.000000,66.666664,,,,,,,,,,,,,,,,,,,,,,,,,,,,,,,,,,,,,,,,,,,,,,,,,,,,,,,,,,,,,,,
1649884892.168102,12.000000,0.000000,4275.897461,4244.102539,4148.205078,4220.512695,4219.487305,450.000000,4.000000,91.000000,,,,0.000000,4.000000,4.000000,4.000000,0.000000,4.000000,66.666664,,,,,,,,,,,,,,,,,,,,,,,,,,,,,,,,,,,,,,,,,,,,,,,,,,,,,,,,,,,,,,,
1649884892.175916,13.000000,0.000000,4281.538574,4256.922852,4157.948730,4220.512695,4228.717773,450.000000,4.000000,91.000000,,,,0.000000,4.000000,4.000000,4.000000,0.000000,4.000000,66.666664,,,,,,,,,,,,,,,,,,,,,,,,,,,,,,,,,,,,,,,,,,,,,,,,,,,,,,,,,,,,,,,
1649884892.183831,14.000000,0.000000,4259.487305,4243.077148,4131.794922,4218.461426,4201.538574,450.000000,4.000000,91.000000,,,,0.000000,4.000000,4.000000,4.000000,0.000000,4.000000,66.666664,,,,,,,,,,,,,,,,,,,,,,,,,,,,,,,,,,,,,,,,,,,,,,,,,,,,,,,,,,,,,,,
1649884892.191645,15.000000,0.000000,4266.153809,4245.641113,4140.512695,4218.461426,4205.641113,16193.000000,4.000000,91.000000,,,,0.000000,4.000000,4.000000,4.000000,0.000000,4.000000,66.666664,,,,,,,,,,,,,,,,,,,,,,,,,,,,,,,,,,,,,,,,,,,,,,,,,,,,,,,,,,,,,,,
1649884892.199559,16.000000,0.000000,4287.179688,4257.948730,4177.436035,4220.000000,4237.436035,0.000000,4.000000,91.000000,,,,0.000000,4.000000,4.000000,4.000000,0.000000,4.000000,66.666664,,,,,,,,,,,,,,,,,,,,,,,,,,,,,,,,,,,,,,,,,,,,,,,,,,,,,,,,,,,,,,,
1649884892.207374,17.000000,0.000000,4264.102539,4240.512695,4166.666504,4218.461426,4216.410156,0.000000,4.000000,91.000000,,,,0.000000,4.000000,4.000000,4.000000,0.000000,4.000000,66.666664,,,,,,,,,,,,,,,,,,,,,,,,,,,,,,,,,,,,,,,,,,,,,,,,,,,,,,,,,,,,,,,
1649884892.215288,18.000000,0.000000,4262.051270,4243.077148,4158.461426,4218.461426,4198.461426,0.000000,4.000000,91.000000,,,,0.000000,4.000000,4.000000,4.000000,0.000000,4.000000,66.666664,,,,,,,,,,,,,,,,,,,,,,,,,,,,,,,,,,,,,,,,,,,,,,,,,,,,,,,,,,,,,,,
1649884892.223203,19.000000,0.000000,4294.871582,4269.743652,4175.897461,4218.974121,4228.717773,0.000000,4.000000,91.000000,,,,0.000000,4.000000,4.000000,4.000000,0.000000,4.000000,66.666664,,,,,,,,,,,,,,,,,,,,,,,,,,,,,,,,,,,,,,,3.653823,3.866553,6.093725,3.062510,4.085730,1.323267,1.151240,3.443202,2.451147,1.969799,2.104445,10.889174,5.493979,3.848312,3.053881,0.062893,0.076525,0.067313,0.060285,0.110372,4.531564,3.766705,7.247178,3.105953,3.464515
1649884892.231017,20.000000,0.000000,4274.358887,4251.282227,4162.051270,4216.922852,4232.307617,0.000000,4.000000,91.000000,,,,0.000000,4.000000,4.000000,4.000000,0.000000,4.000000,66.666664,,,,,,,,,,,,,,,,,,,,,,,,,,,,,,,,,,,,,,,,,,,,,,,,,,,,,,,,,,,,,,,
1649884892.238831,21.000000,0.000000,4244.102539,4226.666504,4145.641113,4221.025879,4210.256348,0.000000,4.000000,91.000000,,,,0.000000,4.000000,4.000000,4.000000,0.000000,4.000000,66.666664,,,,,,,,,,,,,,,,,,,,,,,,,,,,,,,,,,,,,,,,,,,,,,,,,,,,,,,,,,,,,,,
1649884892.246746,22.000000,0.000000,4275.384766,4249.230957,4163.077148,4224.102539,4222.563965,0.000000,4.000000,91.000000,,,,0.000000,4.000000,4.000000,4.000000,0.000000,4.000000,66.666664,,,,,,,,,,,,,,,,,,,,,,,,,,,,,,,,,,,,,,,,,,,,,,,,,,,,,,,,,,,,,,,
1649884892.254660,23.000000,0.000000,4278.974121,4247.179688,4153.333496,4219.487305,4224.102539,0.000000,4.000000,91.000000,,,,0.000000,4.000000,4.000000,4.000000,0.000000,4.000000,66.666664,,,,,,,,,,,,,,,,,,,,,,,,,,,,,,,,,,,,,,,,,,,,,,,,,,,,,,,,,,,,,,,
1649884892.262474,24.000000,0.000000,4246.666504,4220.512695,4132.820313,4215.384766,4206.153809,0.000000,4.000000,91.000000,,,,0.000000,4.000000,4.000000,4.000000,0.000000,4.000000,66.666664,,,,,,,,,,,,,,,,,,,,,,,,,,,,,,,,,,,,,,,,,,,,,,,,,,,,,,,,,,,,,,,
1649884892.270289,25.000000,0.000000,4258.974121,4232.820313,4148.717773,4217.948730,4221.538574,0.000000,4.000000,91.000000,,,,0.000000,4.000000,4.000000,4.000000,0.000000,4.000000,66.666664,,,,,,,,,,,,,,,,,,,,,,,,,,,,,,,,,,,,,,,,,,,,,,,,,,,,,,,,,,,,,,,
1649884892.278203,26.000000,0.000000,4269.743652,4236.922852,4147.179688,4220.000000,4223.589844,0.000000,4.000000,91.000000,,,,0.000000,4.000000,4.000000,4.000000,0.000000,4.000000,66.666664,,,,,,,,,,,,,,,,,,,,,,,,,,,,,,,,,,,,,,,,,,,,,,,,,,,,,,,,,,,,,,,
1649884892.286017,27.000000,0.000000,4250.769043,4222.563965,4128.717773,4217.436035,4202.051270,0.000000,4.000000,91.000000,,,,0.000000,4.000000,4.000000,4.000000,0.000000,4.000000,66.666664,,,,,,,,,,,,,,,,,,,,,,,,,,,,,,,,,,,,,,,,,,,,,,,,,,,,,,,,,,,,,,,
1649884892.293932,28.000000,0.000000,4263.077148,4247.179688,4151.282227,4219.487305,4217.436035,0.000000,4.000000,91.000000,,,,0.000000,4.000000,4.000000,4.000000,0.000000,4.000000,66.666664,,,,,,,,,,,,,,,,,,,,,,,,,,,,,,,,,,,,,,,,,,,,,,,,,,,,,,,,,,,,,,,
1649884892.301746,29.000000,0.000000,4290.769043,4277.436035,4189.230957,4225.641113,4241.025879,0.000000,4.000000,91.000000,,,,0.000000,4.000000,4.000000,4.000000,0.000000,4.000000,66.666664,,,,,,,,,,,,,,,,,,,,,,,,,,,,,,,,,,,,,,,,,,,,,,,,,,,,,,,,,,,,,,,
1649884892.309660,30.000000,0.000000,4272.307617,4254.871582,4171.282227,4224.615234,4215.897461,0.000000,4.000000,91.000000,,,,0.000000,4.000000,4.000000,4.000000,0.000000,4.000000,66.666664,,,,,,,,,,,,,,,,,,,,,,,,,,,,,,,,,,,,,,,,,,,,,,,,,,,,,,,,,,,,,,,
1649884892.317475,31.000000,0.000000,4244.615234,4223.589844,4136.922852,4217.436035,4194.358887,0.000000,4.000000,91.000000,,,,0.000000,4.000000,4.000000,4.000000,0.000000,4.000000,66.666664,,,,,,,,,,,,,,,,,,,,,,,,,,,,,,,,,,,,,,,,,,,,,,,,,,,,,,,,,,,,,,,
1649884892.325389,32.000000,0.000000,4257.436035,4231.282227,4166.153809,4216.410156,4228.205078,0.000000,4.000000,91.000000,,,,0.000000,4.000000,4.000000,4.000000,0.000000,4.000000,66.666664,,,,,,,,,,,,,,,,,,,,,,,,,,,,,,,,,,,,,,,,,,,,,,,,,,,,,,,,,,,,,,,
1649884892.333204,33.000000,0.000000,4268.205078,4246.153809,4194.358887,4218.974121,4247.179688,0.000000,4.000000,91.000000,,,,0.000000,4.000000,4.000000,4.000000,0.000000,4.000000,66.666664,,,,,,,,,,,,,,,,,,,,,,,,,,,,,,,,,,,,,,,,,,,,,,,,,,,,,,,,,,,,,,,
1649884892.341118,34.000000,0.000000,4253.846191,4240.000000,4163.077148,4216.922852,4215.897461,0.000000,4.000000,91.000000,,,,0.000000,4.000000,4.000000,4.000000,0.000000,4.000000,66.666664,,,,,,,,,,,,,,,,,,,,,,,,,,,,,,,,,,,,,,,,,,,,,,,,,,,,,,,,,,,,,,,
1649884892.348932,35.000000,0.000000,4240.000000,4219.487305,4128.717773,4216.922852,4185.641113,0.000000,4.000000,91.000000,,,,0.000000,4.000000,4.000000,4.000000,0.000000,4.000000,66.666664,,,,,,,,,,,,,,,,,,,,,,,,,,,,,,,,,,,,,,,4.325974,4.165126,6.296270,2.751007,3.871002,1.506019,1.073362,3.398050,2.172336,2.163480,2.185689,8.707582,5.102843,3.907382,3.003248,0.061975,0.078010,0.086064,0.064413,0.119187,5.001163,4.211001,7.841171,3.075035,3.298295
1649884892.356847,36.000000,0.000000,4245.128418,4220.000000,4140.000000,4219.487305,4193.333496,0.000000,4.000000,91.000000,,,,0.000000,4.000000,4.000000,4.000000,0.000000,4.000000,66.666664,,,,,,,,,,,,,,,,,,,,,,,,,,,,,,,,,,,,,,,,,,,,,,,,,,,,,,,,,,,,,,,
1649884892.364661,37.000000,0.000000,4256.922852,4241.025879,4156.922852,4220.000000,4215.384766,0.000000,4.000000,91.000000,,,,0.000000,4.000000,4.000000,4.000000,0.000000,4.000000,66.666664,,,,,,,,,,,,,,,,,,,,,,,,,,,,,,,,,,,,,,,,,,,,,,,,,,,,,,,,,,,,,,,
1649884892.372575,38.000000,0.000000,4246.666504,4236.922852,4139.487305,4217.948730,4203.077148,0.000000,4.000000,91.000000,,,,0.000000,4.000000,4.000000,4.000000,0.000000,4.000000,66.666664,,,,,,,,,,,,,,,,,,,,,,,,,,,,,,,,,,,,,,,,,,,,,,,,,,,,,,,,,,,,,,,
1649884892.380390,39.000000,0.000000,4233.333496,4225.641113,4122.051270,4216.410156,4181.025879,0.000000,4.000000,91.000000,,,,0.000000,4.000000,4.000000,4.000000,0.000000,4.000000,66.666664,,,,,,,,,,,,,,,,,,,,,,,,,,,,,,,,,,,,,,,,,,,,,,,,,,,,,,,,,,,,,,,
1649884892.388304,40.000000,0.000000,4258.461426,4246.153809,4145.128418,4218.974121,4203.077148,0.000000,4.000000,91.000000,,,,0.000000,4.000000,4.000000,4.000000,0.000000,4.000000,66.666664,,,,,,,,,,,,,,,,,,,,,,,,,,,,,,,,,,,,,,,,,,,,,,,,,,,,,,,,,,,,,,,
1649884892.396118,41.000000,0.000000,4278.974121,4256.922852,4166.666504,4219.487305,4228.205078,0.000000,4.000000,91.000000,,,,0.000000,4.000000,4.000000,4.000000,0.000000,4.000000,66.666664,,,,,,,,,,,,,,,,,,,,,,,,,,,,,,,,,,,,,,,,,,,,,,,,,,,,,,,,,,,,,,,
1649884892.404033,42.000000,0.000000,4252.307617,4232.307617,4148.717773,4216.922852,4203.077148,0.000000,4.000000,91.000000,,,,0.000000,4.000000,4.000000,4.000000,0.000000,4.000000,66.666664,,,,,,,,,,,,,,,,,,,,,,,,,,,,,,,,,,,,,,,,,,,,,,,,,,,,,,,,,,,,,,,
1649884892.411947,43.000000,0.000000,4245.128418,4226.666504,4152.820313,4216.922852,4187.692383,0.000000,4.000000,91.000000,,,,0.000000,4.000000,4.000000,4.000000,0.000000,4.000000,66.666664,,,,,,,,,,,,,,,,,,,,,,,,,,,,,,,,,,,,,,,,,,,,,,,,,,,,,,,,,,,,,,,
1649884892.419761,44.000000,0.000000,4267.179688,4246.666504,4180.512695,4218.461426,4209.743652,0.000000,4.000000,91.000000,,,,0.000000,4.000000,4.000000,4.000000,0.000000,4.000000,66.666664,,,,,,,,,,,,,,,,,,,,,,,,,,,,,,,,,,,,,,,,,,,,,,,,,,,,,,,,,,,,,,,
1649884892.427676,45.000000,0.000000,4241.538574,4231.282227,4155.897461,4218.461426,4197.436035,0.000000,4.000000,91.000000,,,,0.000000,4.000000,4.000000,4.000000,0.000000,4.000000,66.666664,,,,,,,,,,,,,,,,,,,,,,,,,,,,,,,,,,,,,,,,,,,,,,,,,,,,,,,,,,,,,,,
1649884892.435490,46.000000,0.000000,4214.871582,4207.179688,4131.794922,4217.948730,4169.743652,0.000000,4.000000,91.000000,,,,0.000000,4.000000,4.000000,4.000000,0.000000,4.000000,66.666664,,,,,,,,,,,,,,,,,,,,,,,,,,,,,,,,,,,,,,,,,,,,,,,,,,,,,,,,,,,,,,,
1649884892.443404,47.000000,0.000000,4234.358887,4214.358887,4152.307617,4217.436035,4176.410156,0.000000,4.000000,91.000000,,,,0.000000,4.000000,4.000000,4.000000,0.000000,4.000000,66.666664,,,,,,,,,,,,,,,,,,,,,,,,,,,,,,,,,,,,,,,,,,,,,,,,,,,,,,,,,,,,,,,
1649884892.451319,48.000000,0.000000,4230.256348,4211.282227,4154.871582,4216.922852,4176.410156,0.000000,4.000000,91.000000,,,,0.000000,4.000000,4.000000,4.000000,0.000000,4.000000,66.666664,,,,,,,,,,,,,,,,,,,,,,,,,,,,,,,,,,,,,,,,,,,,,,,,,,,,,,,,,,,,,,,
1649884892.459133,49.000000,0.000000,4215.897461,4200.000000,4154.358887,4216.922852,4171.794922,0.000000,4.000000,91.000000,,,,0.000000,4.000000,4.000000,4.000000,0.000000,4.000000,66.666664,,,,,,,,,,,,,,,,,,,,,,,,,,,,,,,,,,,,,,,,,,,,,,,,,,,,,,,,,,,,,,,
1649884892.467048,50.000000,0.000000,4253.333496,4226.153809,4183.589844,4218.974121,4202.051270,0.000000,4.000000,91.000000,,,,0.000000,4.000000,4.000000,4.000000,0.000000,4.000000,66.666664,,,,,,,,,,,,,,,,,,,,,,,,,,,,,,,,,,,,,,,,,,,,,,,,,,,,,,,,,,,,,,,
1649884892.474962,51.000000,0.000000,4276.410156,4246.666504,4179.487305,4219.487305,4215.897461,0.000000,4.000000,91.000000,,,,0.000000,4.000000,4.000000,4.000000,0.000000,4.000000,66.666664,1.000000,50.000000,3.000000,4.000000,3.000000,0.000000,3.000000,,,,,,,,,,,,,,,,,,,,,,,,,,,,,,,,5.080182,4.547060,6.876891,2.427503,3.714685,1.649997,1.056705,3.445688,1.828649,2.407173,2.191773,6.801563,4.923286,3.810302,3.043490,0.063481,0.075430,0.109547,0.068804,0.129678,5.395637,4.708471,8.475733,2.997091,3.170465
1649884892.482776,52.000000,0.000000,4239.487305,4220.512695,4136.410156,4216.922852,4182.563965,0.000000,4.000000,91.000000,,,,0.000000,4.000000,4.000000,4.000000,0.000000,4.000000,66.666664,,,,,,,,,,,,,,,,,,,,,,,,,,,,,,,,,,,,,,,,,,,,,,,,,,,,,,,,,,,,,,,
1649884892.490691,53.000000,0.000000,4221.025879,4207.692383,4127.692383,4215.897461,4175.897461,0.000000,4.000000,91.000000,,,,0.000000,4.000000,4.000000,4.000000,0.000000,4.000000,66.666664,,,,,,,,,,,,,,,,,,,,,,,,,,,,,,,,,,,,,,,,,,,,,,,,,,,,,,,,,,,,,,,
1649884892.498505,54.000000,0.000000,4238.974121,4221.538574,4146.153809,4218.461426,4199.487305,0.000000,4.000000,91.000000,,,,0.000000,4.000000,4.000000,4.000000,0.000000,4.000000,66.666664,,,,,,,,,,,,,,,,,,,,,,,,,,,,,,,,,,,,,,,,,,,,,,,,,,,,,,,,,,,,,,,
1649884892.506419,55.000000,0.000000,4234.358887,4211.282227,4143.589844,4218.974121,4189.743652,0.000000,4.000000,91.000000,,,,0.000000,4.000000,4.000000,4.000000,0.000000,4.000000,66.666664,,,,,,,,,,,,,,,,,,,,,,,,,,,,,,,,,,,,,,,,,,,,,,,,,,,,,,,,,,,,,,,
1649884892.514234,56.000000,0.000000,4226.666504,4203.589844,4139.487305,4217.436035,4176.410156,0.000000,4.000000,91.000000,,,,0.000000,4.000000,4.000000,4.000000,0.000000,4.000000,66.666664,,,,,,,,,,,,,,,,,,,,,,,,,,,,,,,,,,,,,,,,,,,,,,,,,,,,,,,,,,,,,,,
1649884892.522148,57.000000,0.000000,4265.128418,4232.307617,4164.102539,4218.461426,4212.820313,0.000000,4.000000,91.000000,,,,0.000000,4.000000,4.000000,4.000000,0.000000,4.000000,66.666664,,,,,,,,,,,,,,,,,,,,,,,,,,,,,,,,,,,,,,,,,,,,,,,,,,,,,,,,,,,,,,,
1649884892.530062,58.000000,0.000000,4297.436035,4254.358887,4186.153809,4221.025879,4250.256348,0.000000,4.000000,91.000000,,,,0.000000,4.000000,4.000000,4.000000,0.000000,4.000000,66.666664,,,,,,,,,,,,,,,,,,,,,,,,,,,,,,,,,,,,,,,,,,,,,,,,,,,,,,,,,,,,,,,
1649884892.537877,59.000000,0.000000,4274.871582,4239.487305,4170.769043,4218.461426,4231.282227,0.000000,4.000000,91.000000,,,,0.000000,4.000000,4.000000,4.000000,0.000000,4.000000,66.666664,,,,,,,,,,,,,,,,,,,,,,,,,,,,,,,,,,,,,,,,,,,,,,,,,,,,,,,,,,,,,,,
1649884892.545791,60.000000,0.000000,4255.897461,4225.128418,4156.922852,4216.410156,4202.051270,0.000000,4.000000,91.000000,,,,0.000000,4.000000,4.000000,4.000000,0.000000,4.000000,66.666664,,,,,,,,,,,,,,,,,,,,,,,,,,,,,,,,,,,,,,,,,,,,,,,,,,,,,,,,,,,,,,,
1649884892.553605,61.000000,0.000000,4247.692383,4223.077148,4157.436035,4217.948730,4193.846191,0.000000,4.000000,91.000000,,,,0.000000,4.000000,4.000000,4.000000,0.000000,4.000000,66.666664,,,,,,,,,,,,,,,,,,,,,,,,,,,,,,,,,,,,,,,,,,,,,,,,,,,,,,,,,,,,,,,
1649884892.561520,62.000000,0.000000,4224.615234,4217.948730,4149.230957,4217.948730,4184.615234,0.000000,4.000000,91.000000,,,,0.000000,4.000000,4.000000,4.000000,0.000000,4.000000,66.666664,,,,,,,,,,,,,,,,,,,,,,,,,,,,,,,,,,,,,,,,,,,,,,,,,,,,,,,,,,,,,,,
1649884892.569334,63.000000,0.000000,4226.666504,4223.589844,4154.358887,4216.410156,4183.589844,0.000000,4.000000,91.000000,,,,0.000000,4.000000,4.000000,4.000000,0.000000,4.000000,66.666664,,,,,,,,,,,,,,,,,,,,,,,,,,,,,,,,,,,,,,,,,,,,,,,,,,,,,,,,,,,,,,,
1649884892.577248,64.000000,0.000000,4269.230957,4250.769043,4189.230957,4217.948730,4212.820313,450.000000,4.000000,91.000000,,,,0.000000,4.000000,4.000000,4.000000,0.000000,4.000000,66.666664,,,,,,,,,,,,,,,,,,,,,,,,,,,,,,,,,,,,,,,,,,,,,,,,,,,,,,,,,,,,,,,
1649884892.585063,65.000000,0.000000,4276.922852,4258.974121,4193.333496,4220.000000,4229.230957,450.000000,4.000000,91.000000,,,,0.000000,4.000000,4.000000,4.000000,0.000000,4.000000,66.666664,,,,,,,,,,,,,,,,,,,,,,,,,,,,,,,,,,,,,,,,,,,,,,,,,,,,,,,,,,,,,,,
1649884892.592977,66.000000,0.000000,4240.512695,4228.717773,4151.282227,4218.461426,4206.153809,16236.000000,4.000000,91.000000,,,,0.000000,4.000000,4.000000,4.000000,0.000000,4.000000,66.666664,,,,,,,,,,,,,,,,,,,,,,,,,,,,,,,,,,,,,,,,,,,,,,,,,,,,,,,,,,,,,,,
1649884892.600792,67.000000,0.000000,4245.641113,4226.153809,4148.717773,4217.436035,4203.589844,450.000000,4.000000,91.000000,,,,0.000000,4.000000,4.000000,4.000000,0.000000,4.000000,66.666664,,,,,,,,,,,,,,,,,,,,,,,,,,,,,,,,,,,,,,,5.740918,4.954951,7.713056,2.146266,3.679892,1.716280,1.131679,3.653362,1.505786,2.687514,2.153196,5.508492,5.052137,3.583972,3.220117,0.066254,0.069966,0.131612,0.070744,0.136577,5.584512,5.179716,9.045478,2.854593,3.143203
1649884892.608706,68.000000,0.000000,4275.897461,4252.307617,4178.461426,4219.487305,4223.077148,16228.000000,4.000000,91.000000,,,,0.000000,4.000000,4.000000,4.000000,0.000000,4.000000,66.666664,,,,,,,,,,,,,,,,,,,,,,,,,,,,,,,,,,,,,,,,,,,,,,,,,,,,,,,,,,,,,,,
1649884892.616520,69.000000,0.000000,4257.436035,4238.974121,4168.717773,4219.487305,4209.230957,450.000000,4.000000,91.000000,,,,0.000000,4.000000,4.000000,4.000000,0.000000,4.000000,66.666664,,,,,,,,,,,,,,,,,,,,,,,,,,,,,,,,,,,,,,,,,,,,,,,,,,,,,,,,,,,,,,,
1649884892.624435,70.000000,0.000000,4231.794922,4215.384766,4153.333496,4216.922852,4191.282227,16187.000000,4.000000,91.000000,,,,0.000000,4.000000,4.000000,4.000000,0.000000,4.000000,66.666664,,,,,,,,,,,,,,,,,,,,,,,,,,,,,,,,,,,,,,,,,,,,,,,,,,,,,,,,,,,,,,,
1649884892.632249,71.000000,0.000000,4236.922852,4226.153809,4166.153809,4216.922852,4192.307617,450.000000,4.000000,91.000000,,,,0.000000,4.000000,4.000000,4.000000,0.000000,4.000000,66.666664,,,,,,,,,,,,,,,,,,,,,,,,,,,,,,,,,,,,,,,,,,,,,,,,,,,,,,,,,,,,,,,
1649884892.640163,72.000000,0.000000,4230.256348,4226.153809,4162.563965,4218.461426,4185.128418,450.000000,4.000000,91.000000,,,,0.000000,4.000000,4.000000,4.000000,0.000000,4.000000,66.666664,,,,,,,,,,,,,,,,,,,,,,,,,,,,,,,,,,,,,,,,,,,,,,,,,,,,,,,,,,,,,,,
1649884892.647978,73.000000,0.000000,4213.333496,4209.230957,4147.179688,4216.922852,4169.743652,0.000000,4.000000,91.000000,,,,0.000000,4.000000,4.000000,4.000000,0.000000,4.000000,66.666664,,,,,,,,,,,,,,,,,,,,,,,,,,,,,,,,,,,,,,,,,,,,,,,,,,,,,,,,,,,,,,,
1649884892.655892,74.000000,0.000000,4218.461426,4212.307617,4154.871582,4215.384766,4168.205078,450.000000,4.000000,91.000000,,,,0.000000,4.000000,4.000000,4.000000,0.000000,4.000000,66.666664,,,,,,,,,,,,,,,,,,,,,,,,,,,,,,,,,,,,,,,,,,,,,,,,,,,,,,,,,,,,,,,
1649884892.663706,75.000000,0.000000,4232.307617,4233.333496,4173.846191,4217.436035,4190.256348,16189.000000,4.000000,91.000000,,,,0.000000,4.000000,4.000000,4.000000,0.000000,4.000000,66.666664,,,,,,,,,,,,,,,,,,,,,,,,,,,,,,,,,,,,,,,,,,,,,,,,,,,,,,,,,,,,,,,
1649884892.671621,76.000000,0.000000,4235.897461,4245.641113,4178.461426,4218.974121,4204.615234,450.000000,4.000000,91.000000,,,,0.000000,4.000000,4.000000,4.000000,0.000000,4.000000,66.666664,,,,,,,,,,,,,,,,,,,,,,,,,,,,,,,,,,,,,,,,,,,,,,,,,,,,,,,,,,,,,,,
1649884892.679435,77.000000,0.000000,4230.769043,4233.333496,4163.589844,4217.948730,4188.717773,450.000000,4.000000,91.000000,,,,0.000000,4.000000,4.000000,4.000000,0.000000,4.000000,66.666664,,,,,,,,,,,,,,,,,,,,,,,,,,,,,,,,,,,,,,,,,,,,,,,,,,,,,,,,,,,,,,,
1649884892.687349,78.000000,0.000000,4237.436035,4213.333496,4154.358887,4217.948730,4188.717773,450.000000,4.000000,91.000000,,,,0.000000,4.000000,4.000000,4.000000,0.000000,4.000000,66.666664,,,,,,,,,,,,,,,,,,,,,,,,,,,,,,,,,,,,,,,,,,,,,,,,,,,,,,,,,,,,,,,
1649884892.695164,79.000000,0.000000,4252.307617,4218.461426,4160.512695,4218.974121,4215.384766,16189.000000,4.000000,91.000000,,,,0.000000,4.000000,4.000000,4.000000,0.000000,4.000000,66.666664,,,,,,,,,,,,,,,,,,,,,,,,,,,,,,,,,,,,,,,,,,,,,,,,,,,,,,,,,,,,,,,
1649884892.703078,80.000000,0.000000,4262.051270,4240.000000,4167.179688,4218.461426,4225.128418,450.000000,4.000000,91.000000,,,,0.000000,4.000000,4.000000,4.000000,0.000000,4.000000,66.666664,,,,,,,,,,,,,,,,,,,,,,,,,,,,,,,,,,,,,,,,,,,,,,,,,,,,,,,,,,,,,,,
1649884892.710992,81.000000,0.000000,4269.743652,4240.000000,4165.128418,4219.487305,4217.948730,450.000000,4.000000,91.000000,,,,0.000000,4.000000,4.000000,4.000000,0.000000,4.000000,66.666664,,,,,,,,,,,,,,,,,,,,,,,,,,,,,,,,,,,,,,,,,,,,,,,,,,,,,,,,,,,,,,,
1649884892.718807,82.000000,0.000000,4279.487305,4233.333496,4170.256348,4220.000000,4224.102539,450.000000,4.000000,91.000000,,,,0.000000,4.000000,4.000000,4.000000,0.000000,4.000000,66.666664,,,,,,,,,,,,,,,,,,,,,,,,,,,,,,,,,,,,,,,,,,,,,,,,,,,,,,,,,,,,,,,
1649884892.726721,83.000000,0.000000,4272.820313,4247.179688,4182.563965,4217.948730,4237.436035,16189.000000,4.000000,91.000000,,,,0.000000,4.000000,4.000000,4.000000,0.000000,4.000000,66.666664,,,,,,,,,,,,,,,,,,,,,,,,,,,,,,,,,,,,,,,6.103694,5.241863,8.452146,1.935056,3.747345,1.676967,1.308481,3.955883,1.273683,2.953969,2.088573,4.835263,5.361520,3.284990,3.505426,0.068237,0.062753,0.145824,0.068324,0.135129,5.465499,5.448745,9.318958,2.633408,3.219758
1649884892.734536,84.000000,0.000000,4250.769043,4245.641113,4175.897461,4218.461426,4228.717773,450.000000,4.000000,91.000000,,,,0.000000,4.000000,4.000000,4.000000,0.000000,4.000000,66.666664,,,,,,,,,,,,,,,,,,,,,,,,,,,,,,,,,,,,,,,,,,,,,,,,,,,,,,,,,,,,,,,
1649884892.742450,85.000000,0.000000,4246.153809,4231.282227,4156.922852,4218.974121,4207.179688,450.000000,4.000000,91.000000,,,,0.000000,4.000000,4.000000,4.000000,0.000000,4.000000,66.666664,,,,,,,,,,,,,,,,,,,,,,,,,,,,,,,,,,,,,,,,,,,,,,,,,,,,,,,,,,,,,,,
1649884892.750264,86.000000,0.000000,4273.846191,4254.358887,4171.794922,4217.948730,4225.128418,450.000000,4.000000,91.000000,,,,0.000000,4.000000,4.000000,4.000000,0.000000,4.000000,66.666664,,,,,,,,,,,,,,,,,,,,,,,,,,,,,,,,,,,,,,,,,,,,,,,,,,,,,,,,,,,,,,,
1649884892.758179,87.000000,0.000000,4298.461426,4280.512695,4200.000000,4220.512695,4260.000000,16189.000000,4.000000,91.000000,,,,0.000000,4.000000,4.000000,4.000000,0.000000,4.000000,66.666664,,,,,,,,,,,,,,,,,,,,,,,,,,,,,,,,,,,,,,,,,,,,,,,,,,,,,,,,,,,,,,,
1649884892.765993,88.000000,0.000000,4263.077148,4241.538574,4167.692383,4219.487305,4227.692383,450.000000,4.000000,91.000000,,,,0.000000,4.000000,4.000000,4.000000,0.000000,4.000000,66.666664,,,,,,,,,,,,,,,,,,,,,,,,,,,,,,,,,,,,,,,,,,,,,,,,,,,,,,,,,,,,,,,
1649884892.773907,89.000000,0.000000,4237.436035,4214.358887,4134.871582,4215.384766,4198.461426,450.000000,4.000000,91.000000,,,,0.000000,4.000000,4.000000,4.000000,0.000000,4.000000,66.666664,,,,,,,,,,,,,,,,,,,,,,,,,,,,,,,,,,,,,,,,,,,,,,,,,,,,,,,,,,,,,,,
1649884892.781722,90.000000,0.000000,4287.179688,4256.922852,4175.897461,4221.538574,4246.153809,450.000000,4.000000,91.000000,,,,0.000000,4.000000,4.000000,4.000000,0.000000,4.000000,66.666664,,,,,,,,,,,,,,,,,,,,,,,,,,,,,,,,,,,,,,,,,,,,,,,,,,,,,,,,,,,,,,,
1649884892.789636,91.000000,0.000000,4310.769043,4265.128418,4206.153809,4225.641113,4268.717773,16189.000000,4.000000,91.000000,,,,0.000000,4.000000,4.000000,4.000000,0.000000,4.000000,66.666664,,,,,,,,,,,,,,,,,,,,,,,,,,,,,,,,,,,,,,,,,,,,,,,,,,,,,,,,,,,,,,,
1649884892.797450,92.000000,0.000000,4271.794922,4231.282227,4185.641113,4218.461426,4236.922852,450.000000,4.000000,91.000000,,,,0.000000,4.000000,4.000000,4.000000,0.000000,4.000000,66.666664,,,,,,,,,,,,,,,,,,,,,,,,,,,,,,,,,,,,,,,,,,,,,,,,,,,,,,,,,,,,,,,
1649884892.805365,93.000000,0.000000,4254.358887,4234.358887,4181.538574,4215.897461,4230.769043,450.000000,4.000000,91.000000,,,,0.000000,4.000000,4.000000,4.000000,0.000000,4.000000,66.666664,,,,,,,,,,,,,,,,,,,,,,,,,,,,,,,,,,,,,,,,,,,,,,,,,,,,,,,,,,,,,,,
1649884892.813279,94.000000,1.000000,4254.301758,4234.644043,4180.113770,4216.182129,4229.287598,450.000000,4.000000,91.000000,,,,0.000000,4.000000,4.000000,4.000000,0.000000,4.000000,66.666664,,,,,,,,,,,,,,,,,,,,,,,,,,,,,,,,,,,,,,,,,,,,,,,,,,,,,,,,,,,,,,,
1649884892.821093,95.000000,1.000000,4254.245117,4234.928711,4178.689453,4216.467285,4227.806152,450.000000,4.000000,91.000000,,,,0.000000,4.000000,4.000000,4.000000,0.000000,4.000000,66.666664,,,,,,,,,,,,,,,,,,,,,,,,,,,,,,,,,,,,,,,,,,,,,,,,,,,,,,,,,,,,,,,
1649884892.828908,96.000000,1.000000,4254.187988,4235.213867,4177.265137,4216.751953,4226.324707,450.000000,4.000000,91.000000,,,,0.000000,4.000000,4.000000,4.000000,0.000000,4.000000,66.666664,,,,,,,,,,,,,,,,,,,,,,,,,,,,,,,,,,,,,,,,,,,,,,,,,,,,,,,,,,,,,,,
1649884892.836722,97.000000,1.000000,4254.130859,4235.498535,4175.840332,4217.037109,4224.843262,450.000000,4.000000,91.000000,,,,0.000000,4.000000,4.000000,4.000000,0.000000,4.000000,66.666664,,,,,,,,,,,,,,,,,,,,,,,,,,,,,,,,,,,,,,,,,,,,,,,,,,,,,,,,,,,,,,,
1649884892.844537,98.000000,1.000000,4254.074219,4235.783691,4174.416016,4217.321777,4223.361816,450.000000,4.000000,91.000000,,,,0.000000,4.000000,4.000000,4.000000,0.000000,4.000000,66.666664,,,,,,,,,,,,,,,,,,,,,,,,,,,,,,,,,,,,,,,,,,,,,,,,,,,,,,,,,,,,,,,
1649884892.852351,99.000000,1.000000,4254.017090,4236.068359,4172.991211,4217.606934,4221.880371,450.000000,4.000000,91.000000,,,,0.000000,4.000000,4.000000,4.000000,0.000000,4.000000,66.666664,,,,,,,,,,,,,,,,,,,,,,,,,,,,,,,,,,,,,,,6.086031,5.255320,8.734448,1.822887,3.833942,1.568838,1.560513,4.199875,1.177388,3.132758,2.027606,4.556124,5.581637,2.987348,3.802005,0.067723,0.054505,0.147861,0.061250,0.123456,5.055496,5.361832,9.087096,2.358880,3.341898
1649884892.860165,100.000000,1.000000,4253.959961,4236.353516,4171.566895,4217.891602,4220.398926,450.000000,4.000000,91.000000,,,,0.000000,4.000000,4.000000,4.000000,0.000000,4.000000,66.666664,,,,,,,,,,,,,,,,,,,,,,,,,,,,,,,,,,,,,,,,,,,,,,,,,,,,,,,,,,,,,,,
1649884892.867980,101.000000,1.000000,4253.903320,4236.638184,4170.142578,4218.176758,4218.917480,450.000000,4.000000,91.000000,,,,0.000000,4.000000,4.000000,4.000000,0.000000,4.000000,66.666664,,,,,,,,,,,,,,,,,,,,,,,,,,,,,,,,,,,,,,,,,,,,,,,,,,,,,,,,,,,,,,,
1649884892.875794,102.000000,0.000000,4253.846191,4236.922852,4168.717773,4218.461426,4217.436035,450.000000,4.000000,91.000000,,,,0.000000,4.000000,4.000000,4.000000,0.000000,4.000000,66.666664,,,,,,,,,,,,,,,,,,,,,,,,,,,,,,,,,,,,,,,,,,,,,,,,,,,,,,,,,,,,,,,
1649884892.883509,103.000000,0.000000,4263.077148,4248.717773,4170.256348,4216.922852,4221.025879,16189.000000,4.000000,91.000000,,,,0.000000,4.000000,4.000000,4.000000,0.000000,4.000000,66.666664,,,,,,,,,,,,,,,,,,,,,,,,,,,,,,,,,,,,,,,,,,,,,,,,,,,,,,,,,,,,,,,
1649884892.891323,104.000000,0.000000,4265.128418,4255.897461,4170.256348,4218.461426,4208.205078,450.000000,4.000000,91.000000,,,,0.000000,4.000000,4.000000,4.000000,0.000000,4.000000,66.666664,,,,,,,,,,,,,,,,,,,,,,,,,,,,,,,,,,,,,,,,,,,,,,,,,,,,,,,,,,,,,,,
1649884892.899138,105.000000,0.000000,4248.205078,4243.077148,4160.000000,4219.487305,4192.820313,450.000000,4.000000,91.000000,,,,0.000000,4.000000,4.000000,4.000000,0.000000,4.000000,66.666664,,,,,,,,,,,,,,,,,,,,,,,,,,,,,,,,,,,,,,,,,,,,,,,,,,,,,,,,,,,,,,,
1649884892.906952,106.000000,0.000000,4227.179688,4224.102539,4147.179688,4217.436035,4186.153809,450.000000,4.000000,91.000000,,,,0.000000,4.000000,4.000000,4.000000,0.000000,4.000000,66.666664,,,,,,,,,,,,,,,,,,,,,,,,,,,,,,,,,,,,,,,,,,,,,,,,,,,,,,,,,,,,,,,
1649884892.914666,107.000000,0.000000,4247.179688,4242.051270,4170.769043,4217.436035,4207.179688,16189.000000,4.000000,91.000000,,,,0.000000,4.000000,4.000000,4.000000,0.000000,4.000000,66.666664,,,,,,,,,,,,,,,,,,,,,,,,,,,,,,,,,,,,,,,,,,,,,,,,,,,,,,,,,,,,,,,
1649884892.922381,108.000000,0.000000,4297.948730,4279.487305,4209.743652,4223.077148,4245.128418,450.000000,4.000000,91.000000,,,,0.000000,4.000000,4.000000,4.000000,0.000000,4.000000,66.666664,,,,,,,,,,,,,,,,,,,,,,,,,,,,,,,,,,,,,,,,,,,,,,,,,,,,,,,,,,,,,,,
1649884892.930195,109.000000,0.000000,4295.384766,4264.615234,4200.000000,4223.077148,4238.461426,450.000000,4.000000,91.000000,,,,0.000000,4.000000,4.000000,4.000000,0.000000,4.000000,66.666664,,,,,,,,,,,,,,,,,,,,,,,,,,,,,,,,,,,,,,,,,,,,,,,,,,,,,,,,,,,,,,,
1649884892.937910,110.000000,0.000000,4258.974121,4234.871582,4170.256348,4216.922852,4209.743652,450.000000,4.000000,91.000000,,,,0.000000,4.000000,4.000000,4.000000,0.000000,4.000000,66.666664,,,,,,,,,,,,,,,,,,,,,,,,,,,,,,,,,,,,,,,,,,,,,,,,,,,,,,,,,,,,,,,
1649884892.945724,111.000000,0.000000,4258.974121,4240.512695,4164.615234,4214.871582,4220.000000,16189.000000,4.000000,91.000000,,,,0.000000,4.000000,4.000000,4.000000,0.000000,4.000000,66.666664,,,,,,,,,,,,,,,,,,,,,,,,,,,,,,,,,,,,,,,,,,,,,,,,,,,,,,,,,,,,,,,
1649884892.953439,112.000000,0.000000,4275.897461,4248.205078,4163.589844,4217.948730,4237.948730,450.000000,4.000000,91.000000,,,,0.000000,4.000000,4.000000,4.000000,0.000000,4.000000,66.666664,,,,,,,,,,,,,,,,,,,,,,,,,,,,,,,,,,,,,,,,,,,,,,,,,,,,,,,,,,,,,,,
1649884892.961253,113.000000,0.000000,4265.128418,4236.410156,4155.384766,4220.000000,4220.512695,450.000000,4.000000,91.000000,,,,0.000000,4.000000,4.000000,4.000000,0.000000,4.000000,66.666664,,,,,,,,,,,,,,,,,,,,,,,,,,,,,,,,,,,,,,,,,,,,,,,,,,,,,,,,,,,,,,,
1649884892.968968,114.000000,0.000000,4240.512695,4224.102539,4136.922852,4216.410156,4188.717773,450.000000,4.000000,91.000000,,,,0.000000,4.000000,4.000000,4.000000,0.000000,4.000000,66.666664,,,,,,,,,,,,,,,,,,,,,,,,,,,,,,,,,,,,,,,,,,,,,,,,,,,,,,,,,,,,,,,
1649884892.976782,115.000000,0.000000,4247.179688,4234.871582,4145.128418,4217.948730,4195.897461,16189.000000,4.000000,91.000000,,,,0.000000,4.000000,4.000000,4.000000,0.000000,4.000000,66.666664,0.968750,50.000000,3.000000,4.000000,4.000000,0.000000,3.000000,,,,,,,,,,,,,,,,,,,,,,,,,,,,,,,,5.804530,4.960877,8.377231,1.839251,3.842150,1.476759,1.823348,4.211166,1.224480,3.160367,1.978622,4.374465,5.450770,2.748841,3.984801,0.063458,0.045871,0.137280,0.051125,0.103600,4.573600,4.907640,8.294485,2.100811,3.422486
1649884892.984597,116.000000,0.000000,4275.897461,4264.102539,4205.641113,4226.666504,4244.102539,450.000000,4.000000,91.000000,,,,0.000000,4.000000,4.000000,4.000000,0.000000,4.000000,66.666664,,,,,,,,,,,,,,,,,,,,,,,,,,,,,,,,,,,,,,,,,,,,,,,,,,,,,,,,,,,,,,,
1649884892.992311,117.000000,0.000000,4284.615234,4273.846191,4233.333496,4225.641113,4257.948730,450.000000,4.000000,91.000000,,,,0.000000,4.000000,4.000000,4.000000,0.000000,4.000000,66.666664,,,,,,,,,,,,,,,,,,,,,,,,,,,,,,,,,,,,,,,,,,,,,,,,,,,,,,,,,,,,,,,
1649884893.000125,118.000000,0.000000,4269.743652,4250.769043,4191.794922,4218.461426,4217.436035,450.000000,4.000000,91.000000,,,,0.000000,4.000000,4.000000,4.000000,0.000000,4.000000,66.666664,,,,,,,,,,,,,,,,,,,,,,,,,,,,,,,,,,,,,,,,,,,,,,,,,,,,,,,,,,,,,,,
1649884893.007840,119.000000,0.000000,4279.487305,4248.717773,4186.666504,4219.487305,4209.743652,16189.000000,4.000000,91.000000,,,,0.000000,4.000000,4.000000,4.000000,0.000000,4.000000,66.666664,,,,,,,,,,,,,,,,,,,,,,,,,,,,,,,,,,,,,,,,,,,,,,,,,,,,,,,,,,,,,,,
1649884893.015654,120.000000,0.000000,4303.589844,4267.692383,4215.384766,4221.538574,4245.128418,450.000000,4.000000,91.000000,,,,0.000000,4.000000,4.000000,4.000000,0.000000,4.000000,66.666664,,,,,,,,,,,,,,,,,,,,,,,,,,,,,,,,,,,,,,,,,,,,,,,,,,,,,,,,,,,,,,,
1649884893.023369,121.000000,0.000000,4282.563965,4253.846191,4183.589844,4216.922852,4239.487305,450.000000,4.000000,91.000000,,,,0.000000,4.000000,4.000000,4.000000,0.000000,4.000000,66.666664,,,,,,,,,,,,,,,,,,,,,,,,,,,,,,,,,,,,,,,,,,,,,,,,,,,,,,,,,,,,,,,
1649884893.031083,122.000000,0.000000,4251.794922,4222.563965,4138.461426,4216.410156,4202.563965,450.000000,4.000000,91.000000,,,,0.000000,4.000000,4.000000,4.000000,0.000000,4.000000,66.666664,,,,,,,,,,,,,,,,,,,,,,,,,,,,,,,,,,,,,,,,,,,,,,,,,,,,,,,,,,,,,,,
1649884893.038798,123.000000,0.000000,4257.436035,4218.461426,4143.589844,4220.512695,4195.384766,16189.000000,4.000000,91.000000,,,,0.000000,4.000000,4.000000,4.000000,0.000000,4.000000,66.666664,,,,,,,,,,,,,,,,,,,,,,,,,,,,,,,,,,,,,,,,,,,,,,,,,,,,,,,,,,,,,,,
1649884893.046612,124.000000,0.000000,4273.333496,4242.051270,4163.589844,4217.948730,4212.307617,450.000000,4.000000,91.000000,,,,0.000000,4.000000,4.000000,4.000000,0.000000,4.000000,66.666664,,,,,,,,,,,,,,,,,,,,,,,,,,,,,,,,,,,,,,,,,,,,,,,,,,,,,,,,,,,,,,,
1649884893.054427,125.000000,0.000000,4272.307617,4257.948730,4178.974121,4216.922852,4226.666504,450.000000,4.000000,91.000000,,,,0.000000,4.000000,4.000000,4.000000,0.000000,4.000000,66.666664,,,,,,,,,,,,,,,,,,,,,,,,,,,,,,,,,,,,,,,,,,,,,,,,,,,,,,,,,,,,,,,
1649884893.062141,126.000000,0.000000,4270.256348,4255.384766,4189.743652,4223.589844,4230.769043,450.000000,4.000000,91.000000,,,,0.000000,4.000000,4.000000,4.000000,0.000000,4.000000,66.666664,,,,,,,,,,,,,,,,,,,,,,,,,,,,,,,,,,,,,,,,,,,,,,,,,,,,,,,,,,,,,,,
1649884893.069956,127.000000,0.000000,4277.436035,4251.794922,4183.589844,4226.153809,4221.538574,242.000000,4.000000,91.000000,,,,0.000000,4.000000,4.000000,4.000000,0.000000,4.000000,66.666664,,,,,,,,,,,,,,,,,,,,,,,,,,,,,,,,,,,,,,,,,,,,,,,,,,,,,,,,,,,,,,,
1649884893.077670,0.000000,0.000000,4252.307617,4236.922852,4152.307617,4217.948730,4191.282227,450.000000,4.000000,91.000000,,,,0.000000,4.000000,4.000000,4.000000,0.000000,4.000000,66.666664,,,,,,,,,,,,,,,,,,,,,,,,,,,,,,,,,,,,,,,,,,,,,,,,,,,,,,,,,,,,,,,
1649884893.085485,1.000000,0.000000,4216.922852,4220.000000,4130.769043,4214.358887,4167.692383,450.000000,4.000000,91.000000,,,,0.000000,4.000000,4.000000,4.000000,0.000000,4.000000,66.666664,,,,,,,,,,,,,,,,,,,,,,,,,,,,,,,,,,,,,,,,,,,,,,,,,,,,,,,,,,,,,,,
1649884893.093199,2.000000,0.000000,4237.948730,4234.871582,4161.025879,4218.461426,4190.256348,16225.000000,4.000000,91.000000,,,,0.000000,4.000000,4.000000,4.000000,0.000000,4.000000,66.666664,,,,,,,,,,,,,,,,,,,,,,,,,,,,,,,,,,,,,,,,,,,,,,,,,,,,,,,,,,,,,,,
1649884893.100914,3.000000,0.000000,4274.871582,4262.051270,4199.487305,4220.000000,4223.077148,450.000000,4.000000,91.000000,,,,0.000000,4.000000,4.000000,4.000000,0.000000,4.000000,66.666664,,,,,,,,,,,,,,,,,,,,,,,,,,,,,,,,,,,,,,,5.512310,4.425775,7.477342,1.992623,3.720799,1.502873,2.012697,3.900692,1.374244,3.021785,1.937798,4.104400,4.907885,2.584595,3.967674,0.055898,0.037361,0.116999,0.040721,0.080616,4.278000,4.210439,7.111855,1.930865,3.399714
1649884893.108728,4.000000,0.000000,4272.820313,4263.589844,4200.000000,4218.974121,4232.307617,16197.000000,4.000000,91.000000,,,,0.000000,4.000000,4.000000,4.000000,0.000000,4.000000,66.666664,,,,,,,,,,,,,,,,,,,,,,,,,,,,,,,,,,,,,,,,,,,,,,,,,,,,,,,,,,,,,,,
1649884893.116442,5.000000,0.000000,4277.948730,4254.871582,4195.384766,4220.000000,4236.410156,450.000000,4.000000,91.000000,,,,0.000000,4.000000,4.000000,4.000000,0.000000,4.000000,66.666664,,,,,,,,,,,,,,,,,,,,,,,,,,,,,,,,,,,,,,,,,,,,,,,,,,,,,,,,,,,,,,,
1649884893.124257,6.000000,0.000000,4291.282227,4240.512695,4186.666504,4218.461426,4231.282227,16180.000000,4.000000,91.000000,,,,0.000000,4.000000,4.000000,4.000000,0.000000,4.000000,66.666664,,,,,,,,,,,,,,,,,,,,,,,,,,,,,,,,,,,,,,,,,,,,,,,,,,,,,,,,,,,,,,,
1649884893.131971,7.000000,0.000000,4272.307617,4229.230957,4167.179688,4216.410156,4221.538574,450.000000,4.000000,91.000000,,,,0.000000,4.000000,4.000000,4.000000,0.000000,4.000000,66.666664,,,,,,,,,,,,,,,,,,,,,,,,,,,,,,,,,,,,,,,,,,,,,,,,,,,,,,,,,,,,,,,
1649884893.139786,8.000000,0.000000,4281.025879,4245.641113,4186.666504,4223.589844,4250.769043,450.000000,4.000000,91.000000,,,,0.000000,4.000000,4.000000,4.000000,0.000000,4.000000,66.666664,,,,,,,,,,,,,,,,,,,,,,,,,,,,,,,,,,,,,,,,,,,,,,,,,,,,,,,,,,,,,,,
1649884893.147500,9.000000,0.000000,4321.538574,4260.512695,4213.333496,4228.205078,4281.025879,0.000000,4.000000,91.000000,,,,0.000000,4.000000,4.000000,4.000000,0.000000,4.000000,66.666664,,,,,,,,,,,,,,,,,,,,,,,,,,,,,,,,,,,,,,,,,,,,,,,,,,,,,,,,,,,,,,,
1649884893.155315,10.000000,0.000000,4307.179688,4247.692383,4191.282227,4222.051270,4254.358887,450.000000,4.000000,91.000000,,,,0.000000,4.000000,4.000000,4.000000,0.000000,4.000000,66.666664,,,,,,,,,,,,,,,,,,,,,,,,,,,,,,,,,,,,,,,,,,,,,,,,,,,,,,,,,,,,,,,
1649884893.163029,11.000000,0.000000,4266.153809,4245.641113,4166.666504,4220.512695,4217.436035,16206.000000,4.000000,91.000000,,,,0.000000,4.000000,4.000000,4.000000,0.000000,4.000000,66.666664,,,,,,,,,,,,,,,,,,,,,,,,,,,,,,,,,,,,,,,,,,,,,,,,,,,,,,,,,,,,,,,
1649884893.170844,12.000000,0.000000,4259.487305,4261.025879,4168.717773,4223.589844,4207.692383,450.000000,4.000000,91.000000,,,,0.000000,4.000000,4.000000,4.000000,0.000000,4.000000,66.666664,,,,,,,,,,,,,,,,,,,,,,,,,,,,,,,,,,,,,,,,,,,,,,,,,,,,,,,,,,,,,,,
1649884893.178558,13.000000,0.000000,4256.410156,4261.025879,4170.256348,4219.487305,4207.179688,450.000000,4.000000,91.000000,,,,0.000000,4.000000,4.000000,4.000000,0.000000,4.000000,66.666664,,,,,,,,,,,,,,,,,,,,,,,,,,,,,,,,,,,,,,,,,,,,,,,,,,,,,,,,,,,,,,,
1649884893.186373,14.000000,0.000000,4222.051270,4244.615234,4162.563965,4214.871582,4185.641113,450.000000,4.000000,91.000000,,,,0.000000,4.000000,4.000000,4.000000,0.000000,4.000000,66.666664,,,,,,,,,,,,,,,,,,,,,,,,,,,,,,,,,,,,,,,,,,,,,,,,,,,,,,,,,,,,,,,
1649884893.194087,15.000000,0.000000,4204.615234,4238.461426,4160.000000,4216.922852,4167.692383,16206.000000,4.000000,91.000000,,,,0.000000,4.000000,4.000000,4.000000,0.000000,4.000000,66.666664,,,,,,,,,,,,,,,,,,,,,,,,,,,,,,,,,,,,,,,,,,,,,,,,,,,,,,,,,,,,,,,
1649884893.201901,16.000000,0.000000,4246.666504,4255.384766,4183.077148,4221.025879,4199.487305,0.000000,4.000000,91.000000,,,,0.000000,4.000000,4.000000,4.000000,0.000000,4.000000,66.666664,,,,,,,,,,,,,,,,,,,,,,,,,,,,,,,,,,,,,,,,,,,,,,,,,,,,,,,,,,,,,,,
1649884893.209616,17.000000,0.000000,4277.948730,4273.333496,4199.487305,4222.051270,4229.743652,0.000000,4.000000,91.000000,,,,0.000000,4.000000,4.000000,4.000000,0.000000,4.000000,66.666664,,,,,,,,,,,,,,,,,,,,,,,,,,,,,,,,,,,,,,,,,,,,,,,,,,,,,,,,,,,,,,,
1649884893.217331,18.000000,0.000000,4266.666504,4274.358887,4181.025879,4222.051270,4220.512695,0.000000,4.000000,91.000000,,,,0.000000,4.000000,4.000000,4.000000,0.000000,4.000000,66.666664,,,,,,,,,,,,,,,,,,,,,,,,,,,,,,,,,,,,,,,,,,,,,,,,,,,,,,,,,,,,,,,
1649884893.225145,19.000000,0.000000,4269.230957,4270.769043,4164.615234,4223.077148,4223.077148,0.000000,4.000000,91.000000,,,,0.000000,4.000000,4.000000,4.000000,0.000000,4.000000,66.666664,,,,,,,,,,,,,,,,,,,,,,,,,,,,,,,,,,,,,,,5.446023,3.779505,6.354735,2.235193,3.485596,1.692851,2.054313,3.338156,1.562891,2.765147,1.889715,3.741966,4.162471,2.475569,3.747383,0.046846,0.029651,0.092795,0.032290,0.060245,4.414995,3.455458,5.859213,1.866295,3.270636
1649884893.232859,20.000000,0.000000,4288.205078,4266.666504,4164.615234,4221.538574,4237.948730,0.000000,4.000000,91.000000,,,,0.000000,4.000000,4.000000,4.000000,0.000000,4.000000,66.666664,,,,,,,,,,,,,,,,,,,,,,,,,,,,,,,,,,,,,,,,,,,,,,,,,,,,,,,,,,,,,,,
1649884893.240674,21.000000,0.000000,4275.897461,4252.820313,4156.410156,4218.974121,4224.615234,0.000000,4.000000,91.000000,,,,0.000000,4.000000,4.000000,4.000000,0.000000,4.000000,66.666664,,,,,,,,,,,,,,,,,,,,,,,,,,,,,,,,,,,,,,,,,,,,,,,,,,,,,,,,,,,,,,,
1649884893.248388,22.000000,0.000000,4254.871582,4246.666504,4158.461426,4217.436035,4215.384766,0.000000,4.000000,91.000000,,,,0.000000,4.000000,4.000000,4.000000,0.000000,4.000000,66.666664,,,,,,,,,,,,,,,,,,,,,,,,,,,,,,,,,,,,,,,,,,,,,,,,,,,,,,,,,,,,,,,
1649884893.256203,23.000000,0.000000,4272.820313,4266.153809,4193.333496,4220.000000,4240.000000,0.000000,4.000000,91.000000,,,,0.000000,4.000000,4.000000,4.000000,0.000000,4.000000,66.666664,,,,,,,,,,,,,,,,,,,,,,,,,,,,,,,,,,,,,,,,,,,,,,,,,,,,,,,,,,,,,,,
1649884893.264017,24.000000,0.000000,4289.230957,4274.871582,4210.256348,4224.615234,4245.641113,0.000000,4.000000,91.000000,,,,0.000000,4.000000,4.000000,4.000000,0.000000,4.000000,66.666664,,,,,,,,,,,,,,,,,,,,,,,,,,,,,,,,,,,,,,,,,,,,,,,,,,,,,,,,,,,,,,,
1649884893.271732,25.000000,0.000000,4264.102539,4240.000000,4179.487305,4222.051270,4211.794922,0.000000,4.000000,91.000000,,,,0.000000,4.000000,4.000000,4.000000,0.000000,4.000000,66.666664,,,,,,,,,,,,,,,,,,,,,,,,,,,,,,,,,,,,,,,,,,,,,,,,,,,,,,,,,,,,,,,
1649884893.279546,26.000000,0.000000,4261.025879,4222.563965,4174.358887,4220.000000,4211.794922,0.000000,4.000000,91.000000,,,,0.000000,4.000000,4.000000,4.000000,0.000000,4.000000,66.666664,,,,,,,,,,,,,,,,,,,,,,,,,,,,,,,,,,,,,,,,,,,,,,,,,,,,,,,,,,,,,,,
1649884893.287261,27.000000,0.000000,4297.948730,4260.000000,4205.128418,4222.563965,4257.948730,0.000000,4.000000,91.000000,,,,0.000000,4.000000,4.000000,4.000000,0.000000,4.000000,66.666664,,,,,,,,,,,,,,,,,,,,,,,,,,,,,,,,,,,,,,,,,,,,,,,,,,,,,,,,,,,,,,,
1649884893.295075,28.000000,0.000000,4301.538574,4276.922852,4190.256348,4224.615234,4264.102539,0.000000,4.000000,91.000000,,,,0.000000,4.000000,4.000000,4.000000,0.000000,4.000000,66.666664,,,,,,,,,,,,,,,,,,,,,,,,,,,,,,,,,,,,,,,,,,,,,,,,,,,,,,,,,,,,,,,
1649884893.302789,29.000000,0.000000,4282.563965,4249.743652,4157.948730,4225.128418,4236.410156,0.000000,4.000000,91.000000,,,,0.000000,4.000000,4.000000,4.000000,0.000000,4.000000,66.666664,,,,,,,,,,,,,,,,,,,,,,,,,,,,,,,,,,,,,,,,,,,,,,,,,,,,,,,,,,,,,,,
1649884893.310604,30.000000,0.000000,4289.743652,4244.615234,4172.307617,4224.615234,4242.563965,0.000000,4.000000,91.000000,,,,0.000000,4.000000,4.000000,4.000000,0.000000,4.000000,66.666664,,,,,,,,,,,,,,,,,,,,,,,,,,,,,,,,,,,,,,,,,,,,,,,,,,,,,,,,,,,,,,,
1649884893.318318,31.000000,0.000000,4285.128418,4257.948730,4182.563965,4218.974121,4242.563965,0.000000,4.000000,91.000000,,,,0.000000,4.000000,4.000000,4.000000,0.000000,4.000000,66.666664,,,,,,,,,,,,,,,,,,,,,,,,,,,,,,,,,,,,,,,,,,,,,,,,,,,,,,,,,,,,,,,
1649884893.326133,32.000000,0.000000,4268.205078,4248.717773,4163.589844,4215.897461,4212.307617,0.000000,4.000000,91.000000,,,,0.000000,4.000000,4.000000,4.000000,0.000000,4.000000,66.666664,,,,,,,,,,,,,,,,,,,,,,,,,,,,,,,,,,,,,,,,,,,,,,,,,,,,,,,,,,,,,,,
1649884893.333847,33.000000,0.000000,4259.487305,4230.769043,4152.820313,4220.000000,4194.358887,0.000000,4.000000,91.000000,,,,0.000000,4.000000,4.000000,4.000000,0.000000,4.000000,66.666664,,,,,,,,,,,,,,,,,,,,,,,,,,,,,,,,,,,,,,,,,,,,,,,,,,,,,,,,,,,,,,,
1649884893.341562,34.000000,0.000000,4261.025879,4241.538574,4172.820313,4217.948730,4212.307617,0.000000,4.000000,91.000000,,,,0.000000,4.000000,4.000000,4.000000,0.000000,4.000000,66.666664,,,,,,,,,,,,,,,,,,,,,,,,,,,,,,,,,,,,,,,,,,,,,,,,,,,,,,,,,,,,,,,
1649884893.349376,35.000000,0.000000,4269.230957,4254.358887,4196.922852,4216.922852,4228.205078,0.000000,4.000000,91.000000,,,,0.000000,4.000000,4.000000,4.000000,0.000000,4.000000,66.666664,,,,,,,,,,,,,,,,,,,,,,,,,,,,,,,,,,,,,,,5.658853,3.199280,5.365836,2.505370,3.201370,2.001564,1.927858,2.721761,1.749606,2.477606,1.800655,3.358037,3.609468,2.428269,3.401268,0.038779,0.023920,0.072413,0.027270,0.046824,4.936476,2.829058,4.845289,1.894769,3.088681
1649884893.357091,36.000000,0.000000,4269.743652,4238.461426,4189.743652,4220.512695,4213.333496,0.000000,4.000000,91.000000,,,,0.000000,4.000000,4.000000,4.000000,0.000000,4.000000,66.666664,,,,,,,,,,,,,,,,,,,,,,,,,,,,,,,,,,,,,,,,,,,,,,,,,,,,,,,,,,,,,,,
1649884893.364905,37.000000,0.000000,4272.307617,4227.692383,4175.384766,4217.948730,4207.179688,0.000000,4.000000,91.000000,,,,0.000000,4.000000,4.000000,4.000000,0.000000,4.000000,66.666664,,,,,,,,,,,,,,,,,,,,,,,,,,,,,,,,,,,,,,,,,,,,,,,,,,,,,,,,,,,,,,,
1649884893.372720,38.000000,0.000000,4290.256348,4249.743652,4186.153809,4217.436035,4236.922852,0.000000,4.000000,91.000000,,,,0.000000,4.000000,4.000000,4.000000,0.000000,4.000000,66.666664,,,,,,,,,,,,,,,,,,,,,,,,,,,,,,,,,,,,,,,,,,,,,,,,,,,,,,,,,,,,,,,
1649884893.380434,39.000000,0.000000,4300.512695,4269.743652,4190.769043,4225.128418,4259.487305,0.000000,4.000000,91.000000,,,,0.000000,4.000000,4.000000,4.000000,0.000000,4.000000,66.666664,,,,,,,,,,,,,,,,,,,,,,,,,,,,,,,,,,,,,,,,,,,,,,,,,,,,,,,,,,,,,,,
1649884893.388149,40.000000,0.000000,4284.615234,4255.384766,4166.666504,4227.692383,4242.563965,0.000000,4.000000,91.000000,,,,0.000000,4.000000,4.000000,4.000000,0.000000,4.000000,66.666664,,,,,,,,,,,,,,,,,,,,,,,,,,,,,,,,,,,,,,,,,,,,,,,,,,,,,,,,,,,,,,,
1649884893.395963,41.000000,0.000000,4269.230957,4237.436035,4153.333496,4219.487305,4223.589844,0.000000,4.000000,91.000000,,,,0.000000,4.000000,4.000000,4.000000,0.000000,4.000000,66.666664,,,,,,,,,,,,,,,,,,,,,,,,,,,,,,,,,,,,,,,,,,,,,,,,,,,,,,,,,,,,,,,
1649884893.403777,42.000000,0.000000,4266.153809,4229.230957,4156.922852,4215.384766,4220.512695,0.000000,4.000000,91.000000,,,,0.000000,4.000000,4.000000,4.000000,0.000000,4.000000,66.666664,,,,,,,,,,,,,,,,,,,,,,,,,,,,,,,,,,,,,,,,,,,,,,,,,,,,,,,,,,,,,,,
1649884893.411592,43.000000,0.000000,4267.179688,4224.615234,4151.794922,4217.948730,4220.000000,0.000000,4.000000,91.000000,,,,0.000000,4.000000,4.000000,4.000000,0.000000,4.000000,66.666664,,,,,,,,,,,,,,,,,,,,,,,,,,,,,,,,,,,,,,,,,,,,,,,,,,,,,,,,,,,,,,,
1649884893.419306,44.000000,0.000000,4265.128418,4233.333496,4145.128418,4221.538574,4218.461426,0.000000,4.000000,91.000000,,,,0.000000,4.000000,4.000000,4.000000,0.000000,4.000000,66.666664,,,,,,,,,,,,,,,,,,,,,,,,,,,,,,,,,,,,,,,,,,,,,,,,,,,,,,,,,,,,,,,
1649884893.427121,45.000000,0.000000,4267.179688,4254.358887,4156.410156,4222.563965,4219.487305,0.000000,4.000000,91.000000,,,,0.000000,4.000000,4.000000,4.000000,0.000000,4.000000,66.666664,,,,,,,,,,,,,,,,,,,,,,,,,,,,,,,,,,,,,,,,,,,,,,,,,,,,,,,,,,,,,,,
1649884893.434835,46.000000,0.000000,4283.589844,4261.025879,4176.410156,4220.512695,4233.333496,0.000000,4.000000,91.000000,,,,0.000000,4.000000,4.000000,4.000000,0.000000,4.000000,66.666664,,,,,,,,,,,,,,,,,,,,,,,,,,,,,,,,,,,,,,,,,,,,,,,,,,,,,,,,,,,,,,,
1649884893.442650,47.000000,0.000000,4282.563965,4240.512695,4176.922852,4216.922852,4234.871582,0.000000,4.000000,91.000000,,,,0.000000,4.000000,4.000000,4.000000,0.000000,4.000000,66.666664,,,,,,,,,,,,,,,,,,,,,,,,,,,,,,,,,,,,,,,,,,,,,,,,,,,,,,,,,,,,,,,
1649884893.450364,48.000000,0.000000,4266.153809,4229.743652,4173.333496,4218.974121,4220.512695,0.000000,4.000000,91.000000,,,,0.000000,4.000000,4.000000,4.000000,0.000000,4.000000,66.666664,,,,,,,,,,,,,,,,,,,,,,,,,,,,,,,,,,,,,,,,,,,,,,,,,,,,,,,,,,,,,,,
1649884893.458278,49.000000,0.000000,4266.666504,4240.000000,4182.051270,4220.512695,4222.051270,0.000000,4.000000,91.000000,,,,0.000000,4.000000,4.000000,4.000000,0.000000,4.000000,66.666664,,,,,,,,,,,,,,,,,,,,,,,,,,,,,,,,,,,,,,,,,,,,,,,,,,,,,,,,,,,,,,,
1649884893.466093,50.000000,0.000000,4273.333496,4247.179688,4173.846191,4216.410156,4234.358887,0.000000,4.000000,91.000000,,,,0.000000,4.000000,4.000000,4.000000,0.000000,4.000000,66.666664,,,,,,,,,,,,,,,,,,,,,,,,,,,,,,,,,,,,,,,,,,,,,,,,,,,,,,,,,,,,,,,
1649884893.474007,51.000000,0.000000,4277.436035,4249.743652,4160.512695,4218.974121,4239.487305,0.000000,4.000000,91.000000,,,,0.000000,4.000000,4.000000,4.000000,0.000000,4.000000,66.666664,0.968750,66.666664,4.000000,4.000000,4.000000,0.000000,4.000000,,,,,,,,,,,,,,,,,,,,,,,,,,,,,,,,6.069108,2.941935,4.735047,2.743993,2.945914,2.316019,1.677232,2.246747,1.910935,2.239054,1.716964,3.036475,3.563109,2.486652,3.043118,0.033726,0.021657,0.063079,0.025865,0.041997,5.756557,2.544278,4.250056,1.997855,2.931724
1649884893.481822,52.000000,0.000000,4286.153809,4254.871582,4169.230957,4228.205078,4237.948730,0.000000,4.000000,91.000000,,,,0.000000,4.000000,4.000000,4.000000,0.000000,4.000000,66.666664,,,,,,,,,,,,,,,,,,,,,,,,,,,,,,,,,,,,,,,,,,,,,,,,,,,,,,,,,,,,,,,
1649884893.489636,53.000000,0.000000,4281.025879,4251.282227,4175.897461,4227.179688,4226.153809,0.000000,4.000000,91.000000,,,,0.000000,4.000000,4.000000,4.000000,0.000000,4.000000,66.666664,,,,,,,,,,,,,,,,,,,,,,,,,,,,,,,,,,,,,,,,,,,,,,,,,,,,,,,,,,,,,,,
1649884893.497351,54.000000,0.000000,4258.461426,4240.000000,4163.077148,4216.922852,4205.641113,0.000000,4.000000,91.000000,,,,0.000000,4.000000,4.000000,4.000000,0.000000,4.000000,66.666664,,,,,,,,,,,,,,,,,,,,,,,,,,,,,,,,,,,,,,,,,,,,,,,,,,,,,,,,,,,,,,,
1649884893.505165,55.000000,0.000000,4257.948730,4242.563965,4170.769043,4216.922852,4208.205078,0.000000,4.000000,91.000000,,,,0.000000,4.000000,4.000000,4.000000,0.000000,4.000000,66.666664,,,,,,,,,,,,,,,,,,,,,,,,,,,,,,,,,,,,,,,,,,,,,,,,,,,,,,,,,,,,,,,
1649884893.512879,56.000000,0.000000,4269.230957,4248.205078,4183.077148,4220.512695,4217.948730,0.000000,4.000000,91.000000,,,,0.000000,4.000000,4.000000,4.000000,0.000000,4.000000,66.666664,,,,,,,,,,,,,,,,,,,,,,,,,,,,,,,,,,,,,,,,,,,,,,,,,,,,,,,,,,,,,,,
1649884893.520594,57.000000,0.000000,4264.102539,4242.051270,4166.666504,4217.948730,4211.282227,0.000000,4.000000,91.000000,,,,0.000000,4.000000,4.000000,4.000000,0.000000,4.000000,66.666664,,,,,,,,,,,,,,,,,,,,,,,,,,,,,,,,,,,,,,,,,,,,,,,,,,,,,,,,,,,,,,,
1649884893.528408,58.000000,0.000000,4259.487305,4239.487305,4163.077148,4217.948730,4213.846191,0.000000,4.000000,91.000000,,,,0.000000,4.000000,4.000000,4.000000,0.000000,4.000000,66.666664,,,,,,,,,,,,,,,,,,,,,,,,,,,,,,,,,,,,,,,,,,,,,,,,,,,,,,,,,,,,,,,
1649884893.536123,59.000000,0.000000,4265.128418,4247.179688,4184.615234,4220.000000,4228.205078,0.000000,4.000000,91.000000,,,,0.000000,4.000000,4.000000,4.000000,0.000000,4.000000,66.666664,,,,,,,,,,,,,,,,,,,,,,,,,,,,,,,,,,,,,,,,,,,,,,,,,,,,,,,,,,,,,,,
1649884893.543937,60.000000,0.000000,4261.025879,4248.205078,4183.589844,4218.974121,4221.025879,0.000000,4.000000,91.000000,,,,0.000000,4.000000,4.000000,4.000000,0.000000,4.000000,66.666664,,,,,,,,,,,,,,,,,,,,,,,,,,,,,,,,,,,,,,,,,,,,,,,,,,,,,,,,,,,,,,,
1649884893.551652,61.000000,0.000000,4247.179688,4231.794922,4164.102539,4218.974121,4193.333496,0.000000,4.000000,91.000000,,,,0.000000,4.000000,4.000000,4.000000,0.000000,4.000000,66.666664,,,,,,,,,,,,,,,,,,,,,,,,,,,,,,,,,,,,,,,,,,,,,,,,,,,,,,,,,,,,,,,
1649884893.559466,62.000000,0.000000,4243.589844,4223.077148,4161.025879,4217.436035,4186.153809,0.000000,4.000000,91.000000,,,,0.000000,4.000000,4.000000,4.000000,0.000000,4.000000,66.666664,,,,,,,,,,,,,,,,,,,,,,,,,,,,,,,,,,,,,,,,,,,,,,,,,,,,,,,,,,,,,,,
1649884893.567181,63.000000,0.000000,4255.384766,4238.461426,4165.641113,4217.436035,4210.256348,0.000000,4.000000,91.000000,,,,0.000000,4.000000,4.000000,4.000000,0.000000,4.000000,66.666664,,,,,,,,,,,,,,,,,,,,,,,,,,,,,,,,,,,,,,,,,,,,,,,,,,,,,,,,,,,,,,,
1649884893.574995,64.000000,0.000000,4273.846191,4251.794922,4167.179688,4218.974121,4230.769043,450.000000,4.000000,91.000000,,,,0.000000,4.000000,4.000000,4.000000,0.000000,4.000000,66.666664,,,,,,,,,,,,,,,,,,,,,,,,,,,,,,,,,,,,,,,,,,,,,,,,,,,,,,,,,,,,,,,
1649884893.582710,65.000000,0.000000,4289.743652,4258.461426,4183.077148,4220.000000,4241.025879,450.000000,4.000000,91.000000,,,,0.000000,4.000000,4.000000,4.000000,0.000000,4.000000,66.666664,,,,,,,,,,,,,,,,,,,,,,,,,,,,,,,,,,,,,,,,,,,,,,,,,,,,,,,,,,,,,,,
1649884893.590624,66.000000,0.000000,4285.128418,4265.128418,4191.282227,4218.974121,4239.487305,16211.000000,4.000000,91.000000,,,,0.000000,4.000000,4.000000,4.000000,0.000000,4.000000,66.666664,,,,,,,,,,,,,,,,,,,,,,,,,,,,,,,,,,,,,,,,,,,,,,,,,,,,,,,,,,,,,,,
1649884893.598438,67.000000,0.000000,4257.436035,4253.333496,4177.948730,4217.948730,4225.641113,450.000000,4.000000,91.000000,,,,0.000000,4.000000,4.000000,4.000000,0.000000,4.000000,66.666664,,,,,,,,,,,,,,,,,,,,,,,,,,,,,,,,,,,,,,,6.507224,3.202773,4.488005,2.893988,2.767537,2.496957,1.387701,1.985645,2.039548,2.087155,1.696491,2.876190,4.039540,2.661532,2.765630,0.032664,0.023758,0.068243,0.027767,0.044716,6.635677,2.738441,4.077887,2.139422,2.855548
1649884893.606253,68.000000,0.000000,4249.230957,4233.846191,4171.794922,4218.461426,4218.461426,16190.000000,4.000000,91.000000,,,,0.000000,4.000000,4.000000,4.000000,0.000000,4.000000,66.666664,,,,,,,,,,,,,,,,,,,,,,,,,,,,,,,,,,,,,,,,,,,,,,,,,,,,,,,,,,,,,,,
1649884893.613967,69.000000,0.000000,4277.948730,4246.153809,4188.717773,4218.461426,4231.282227,450.000000,4.000000,91.000000,,,,0.000000,4.000000,4.000000,4.000000,0.000000,4.000000,66.666664,,,,,,,,,,,,,,,,,,,,,,,,,,,,,,,,,,,,,,,,,,,,,,,,,,,,,,,,,,,,,,,
1649884893.621882,70.000000,0.000000,4292.820313,4262.051270,4194.358887,4217.948730,4241.025879,16174.000000,4.000000,91.000000,,,,0.000000,4.000000,4.000000,4.000000,0.000000,4.000000,66.666664,,,,,,,,,,,,,,,,,,,,,,,,,,,,,,,,,,,,,,,,,,,,,,,,,,,,,,,,,,,,,,,
1649884893.629696,71.000000,0.000000,4263.077148,4243.589844,4168.717773,4217.948730,4219.487305,450.000000,4.000000,91.000000,,,,0.000000,4.000000,4.000000,4.000000,0.000000,4.000000,66.666664,,,,,,,,,,,,,,,,,,,,,,,,,,,,,,,,,,,,,,,,,,,,,,,,,,,,,,,,,,,,,,,
1649884893.637510,72.000000,0.000000,4252.307617,4245.641113,4164.615234,4220.512695,4212.307617,450.000000,4.000000,91.000000,,,,0.000000,4.000000,4.000000,4.000000,0.000000,4.000000,66.666664,,,,,,,,,,,,,,,,,,,,,,,,,,,,,,,,,,,,,,,,,,,,,,,,,,,,,,,,,,,,,,,
1649884893.645425,73.000000,0.000000,4284.102539,4280.000000,4192.820313,4218.461426,4241.025879,0.000000,4.000000,91.000000,,,,0.000000,4.000000,4.000000,4.000000,0.000000,4.000000,66.666664,,,,,,,,,,,,,,,,,,,,,,,,,,,,,,,,,,,,,,,,,,,,,,,,,,,,,,,,,,,,,,,
1649884893.653339,74.000000,0.000000,4298.974121,4282.563965,4200.512695,4218.461426,4250.769043,450.000000,4.000000,91.000000,,,,0.000000,4.000000,4.000000,4.000000,0.000000,4.000000,66.666664,,,,,,,,,,,,,,,,,,,,,,,,,,,,,,,,,,,,,,,,,,,,,,,,,,,,,,,,,,,,,,,
1649884893.661153,75.000000,0.000000,4284.615234,4254.871582,4184.615234,4226.666504,4233.846191,16204.000000,4.000000,91.000000,,,,0.000000,4.000000,4.000000,4.000000,0.000000,4.000000,66.666664,,,,,,,,,,,,,,,,,,,,,,,,,,,,,,,,,,,,,,,,,,,,,,,,,,,,,,,,,,,,,,,
1649884893.669068,76.000000,0.000000,4278.974121,4250.769043,4187.692383,4225.641113,4235.897461,450.000000,4.000000,91.000000,,,,0.000000,4.000000,4.000000,4.000000,0.000000,4.000000,66.666664,,,,,,,,,,,,,,,,,,,,,,,,,,,,,,,,,,,,,,,,,,,,,,,,,,,,,,,,,,,,,,,
1649884893.676882,77.000000,0.000000,4272.820313,4260.512695,4189.230957,4218.461426,4235.897461,450.000000,4.000000,91.000000,,,,0.000000,4.000000,4.000000,4.000000,0.000000,4.000000,66.666664,,,,,,,,,,,,,,,,,,,,,,,,,,,,,,,,,,,,,,,,,,,,,,,,,,,,,,,,,,,,,,,
1649884893.684796,78.000000,0.000000,4255.897461,4250.769043,4167.179688,4215.897461,4212.307617,450.000000,4.000000,91.000000,,,,0.000000,4.000000,4.000000,4.000000,0.000000,4.000000,66.666664,,,,,,,,,,,,,,,,,,,,,,,,,,,,,,,,,,,,,,,,,,,,,,,,,,,,,,,,,,,,,,,
1649884893.692611,79.000000,0.000000,4279.487305,4262.051270,4171.282227,4219.487305,4231.794922,16204.000000,4.000000,91.000000,,,,0.000000,4.000000,4.000000,4.000000,0.000000,4.000000,66.666664,,,,,,,,,,,,,,,,,,,,,,,,,,,,,,,,,,,,,,,,,,,,,,,,,,,,,,,,,,,,,,,
1649884893.700525,80.000000,0.000000,4303.589844,4280.512695,4181.025879,4224.615234,4256.922852,450.000000,4.000000,91.000000,,,,0.000000,4.000000,4.000000,4.000000,0.000000,4.000000,66.666664,,,,,,,,,,,,,,,,,,,,,,,,,,,,,,,,,,,,,,,,,,,,,,,,,,,,,,,,,,,,,,,
1649884893.708340,81.000000,0.000000,4257.948730,4252.307617,4143.589844,4223.589844,4216.410156,450.000000,4.000000,91.000000,,,,0.000000,4.000000,4.000000,4.000000,0.000000,4.000000,66.666664,,,,,,,,,,,,,,,,,,,,,,,,,,,,,,,,,,,,,,,,,,,,,,,,,,,,,,,,,,,,,,,
1649884893.716254,82.000000,0.000000,4234.358887,4232.820313,4136.410156,4221.025879,4200.000000,450.000000,4.000000,91.000000,,,,0.000000,4.000000,4.000000,4.000000,0.000000,4.000000,66.666664,,,,,,,,,,,,,,,,,,,,,,,,,,,,,,,,,,,,,,,,,,,,,,,,,,,,,,,,,,,,,,,
1649884893.724068,83.000000,0.000000,4291.282227,4269.743652,4196.410156,4221.538574,4256.410156,16204.000000,4.000000,91.000000,,,,0.000000,4.000000,4.000000,4.000000,0.000000,4.000000,66.666664,,,,,,,,,,,,,,,,,,,,,,,,,,,,,,,,,,,,,,,6.790510,3.940325,4.520712,2.930735,2.655141,2.465994,1.136048,1.896073,2.150992,2.003846,1.795174,2.937074,4.788054,2.913063,2.599596,0.035074,0.030535,0.085430,0.033200,0.052377,7.387407,3.351485,4.209679,2.294372,2.857543
1649884893.731983,84.000000,0.000000,4314.871582,4288.717773,4220.000000,4221.538574,4278.461426,450.000000,4.000000,91.000000,,,,0.000000,4.000000,4.000000,4.000000,0.000000,4.000000,66.666664,,,,,,,,,,,,,,,,,,,,,,,,,,,,,,,,,,,,,,,,,,,,,,,,,,,,,,,,,,,,,,,
1649884893.739897,85.000000,0.000000,4271.282227,4261.025879,4176.410156,4219.487305,4232.307617,450.000000,4.000000,91.000000,,,,0.000000,4.000000,4.000000,4.000000,0.000000,4.000000,66.666664,,,,,,,,,,,,,,,,,,,,,,,,,,,,,,,,,,,,,,,,,,,,,,,,,,,,,,,,,,,,,,,
1649884893.747711,86.000000,0.000000,4258.974121,4250.769043,4154.871582,4221.025879,4209.743652,450.000000,4.000000,91.000000,,,,0.000000,4.000000,4.000000,4.000000,0.000000,4.000000,66.666664,,,,,,,,,,,,,,,,,,,,,,,,,,,,,,,,,,,,,,,,,,,,,,,,,,,,,,,,,,,,,,,
1649884893.755526,87.000000,0.000000,4271.282227,4255.897461,4165.641113,4220.000000,4227.179688,16204.000000,4.000000,91.000000,,,,0.000000,4.000000,4.000000,4.000000,0.000000,4.000000,66.666664,,,,,,,,,,,,,,,,,,,,,,,,,,,,,,,,,,,,,,,,,,,,,,,,,,,,,,,,,,,,,,,
1649884893.763440,88.000000,0.000000,4260.512695,4247.692383,4164.102539,4215.384766,4231.794922,450.000000,4.000000,91.000000,,,,0.000000,4.000000,4.000000,4.000000,0.000000,4.000000,66.666664,,,,,,,,,,,,,,,,,,,,,,,,,,,,,,,,,,,,,,,,,,,,,,,,,,,,,,,,,,,,,,,
1649884893.771254,89.000000,0.000000,4245.128418,4236.410156,4148.205078,4217.436035,4206.666504,450.000000,4.000000,91.000000,,,,0.000000,4.000000,4.000000,4.000000,0.000000,4.000000,66.666664,,,,,,,,,,,,,,,,,,,,,,,,,,,,,,,,,,,,,,,,,,,,,,,,,,,,,,,,,,,,,,,
1649884893.779169,90.000000,0.000000,4245.641113,4236.410156,4147.179688,4217.948730,4194.358887,450.000000,4.000000,91.000000,,,,0.000000,4.000000,4.000000,4.000000,0.000000,4.000000,66.666664,,,,,,,,,,,,,,,,,,,,,,,,,,,,,,,,,,,,,,,,,,,,,,,,,,,,,,,,,,,,,,,
1649884893.786983,91.000000,0.000000,4252.307617,4242.563965,4159.487305,4218.461426,4208.717773,16204.000000,4.000000,91.000000,,,,0.000000,4.000000,4.000000,4.000000,0.000000,4.000000,66.666664,,,,,,,,,,,,,,,,,,,,,,,,,,,,,,,,,,,,,,,,,,,,,,,,,,,,,,,,,,,,,,,
1649884893.794897,92.000000,0.000000,4253.333496,4245.641113,4157.948730,4220.000000,4212.820313,450.000000,4.000000,91.000000,,,,0.000000,4.000000,4.000000,4.000000,0.000000,4.000000,66.666664,,,,,,,,,,,,,,,,,,,,,,,,,,,,,,,,,,,,,,,,,,,,,,,,,,,,,,,,,,,,,,,
1649884893.802812,93.000000,0.000000,4245.641113,4246.666504,4149.230957,4216.922852,4202.563965,450.000000,4.000000,91.000000,,,,0.000000,4.000000,4.000000,4.000000,0.000000,4.000000,66.666664,,,,,,,,,,,,,,,,,,,,,,,,,,,,,,,,,,,,,,,,,,,,,,,,,,,,,,,,,,,,,,,
1649884893.810626,94.000000,0.000000,4243.077148,4247.692383,4151.282227,4215.897461,4199.487305,450.000000,4.000000,91.000000,,,,0.000000,4.000000,4.000000,4.000000,0.000000,4.000000,66.666664,,,,,,,,,,,,,,,,,,,,,,,,,,,,,,,,,,,,,,,,,,,,,,,,,,,,,,,,,,,,,,,
1649884893.818540,95.000000,0.000000,4246.153809,4247.692383,4153.333496,4217.948730,4200.512695,16204.000000,4.000000,91.000000,,,,0.000000,4.000000,4.000000,4.000000,0.000000,4.000000,66.666664,,,,,,,,,,,,,,,,,,,,,,,,,,,,,,,,,,,,,,,,,,,,,,,,,,,,,,,,,,,,,,,
1649884893.826355,96.000000,0.000000,4256.410156,4253.333496,4162.051270,4216.410156,4210.256348,450.000000,4.000000,91.000000,,,,0.000000,4.000000,4.000000,4.000000,0.000000,4.000000,66.666664,,,,,,,,,,,,,,,,,,,,,,,,,,,,,,,,,,,,,,,,,,,,,,,,,,,,,,,,,,,,,,,
1649884893.834269,97.000000,0.000000,4278.461426,4266.666504,4196.922852,4217.948730,4236.410156,450.000000,4.000000,91.000000,,,,0.000000,4.000000,4.000000,4.000000,0.000000,4.000000,66.666664,,,,,,,,,,,,,,,,,,,,,,,,,,,,,,,,,,,,,,,,,,,,,,,,,,,,,,,,,,,,,,,
1649884893.842084,98.000000,0.000000,4282.563965,4269.230957,4212.307617,4224.615234,4244.102539,450.000000,4.000000,91.000000,,,,0.000000,4.000000,4.000000,4.000000,0.000000,4.000000,66.666664,,,,,,,,,,,,,,,,,,,,,,,,,,,,,,,,,,,,,,,,,,,,,,,,,,,,,,,,,,,,,,,
1649884893.849998,99.000000,0.000000,4271.794922,4258.461426,4189.743652,4222.563965,4233.333496,16204.000000,4.000000,91.000000,,,,0.000000,4.000000,4.000000,4.000000,0.000000,4.000000,66.666664,,,,,,,,,,,,,,,,,,,,,,,,,,,,,,,,,,,,,,,6.770486,4.896490,4.672897,2.864800,2.558964,2.233698,0.964563,1.876667,2.262013,1.939858,1.993309,3.202485,5.466025,3.157543,2.510134,0.039689,0.041336,0.107738,0.042707,0.062188,7.780075,4.172842,4.487226,2.447885,2.883649
1649884893.857812,100.000000,0.000000,4281.025879,4259.487305,4181.025879,4222.563965,4236.410156,450.000000,4.000000,91.000000,,,,0.000000,4.000000,4.000000,4.000000,0.000000,4.000000,66.666664,,,,,,,,,,,,,,,,,,,,,,,,,,,,,,,,,,,,,,,,,,,,,,,,,,,,,,,,,,,,,,,
1649884893.865727,101.000000,0.000000,4297.948730,4264.615234,4194.871582,4226.666504,4248.717773,450.000000,4.000000,91.000000,,,,0.000000,4.000000,4.000000,4.000000,0.000000,4.000000,66.666664,,,,,,,,,,,,,,,,,,,,,,,,,,,,,,,,,,,,,,,,,,,,,,,,,,,,,,,,,,,,,,,
1649884893.873541,102.000000,0.000000,4303.589844,4260.512695,4200.000000,4222.051270,4257.948730,450.000000,4.000000,91.000000,,,,0.000000,4.000000,4.000000,4.000000,0.000000,4.000000,66.666664,,,,,,,,,,,,,,,,,,,,,,,,,,,,,,,,,,,,,,,,,,,,,,,,,,,,,,,,,,,,,,,
1649884893.881455,103.000000,0.000000,4305.128418,4260.512695,4193.333496,4221.025879,4260.512695,16204.000000,4.000000,91.000000,,,,0.000000,4.000000,4.000000,4.000000,0.000000,4.000000,66.666664,,,,,,,,,,,,,,,,,,,,,,,,,,,,,,,,,,,,,,,,,,,,,,,,,,,,,,,,,,,,,,,
1649884893.889270,104.000000,0.000000,4301.025879,4267.692383,4189.230957,4226.153809,4255.897461,450.000000,4.000000,91.000000,,,,0.000000,4.000000,4.000000,4.000000,0.000000,4.000000,66.666664,,,,,,,,,,,,,,,,,,,,,,,,,,,,,,,,,,,,,,,,,,,,,,,,,,,,,,,,,,,,,,,
1649884893.897184,105.000000,0.000000,4277.948730,4259.487305,4180.512695,4221.538574,4235.384766,450.000000,4.000000,91.000000,,,,0.000000,4.000000,4.000000,4.000000,0.000000,4.000000,66.666664,,,,,,,,,,,,,,,,,,,,,,,,,,,,,,,,,,,,,,,,,,,,,,,,,,,,,,,,,,,,,,,
1649884893.904998,106.000000,0.000000,4258.974121,4249.743652,4171.794922,4214.358887,4213.333496,450.000000,4.000000,91.000000,,,,0.000000,4.000000,4.000000,4.000000,0.000000,4.000000,66.666664,,,,,,,,,,,,,,,,,,,,,,,,,,,,,,,,,,,,,,,,,,,,,,,,,,,,,,,,,,,,,,,
1649884893.912913,107.000000,0.000000,4258.974121,4255.897461,4177.436035,4218.974121,4211.282227,16204.000000,4.000000,91.000000,,,,0.000000,4.000000,4.000000,4.000000,0.000000,4.000000,66.666664,,,,,,,,,,,,,,,,,,,,,,,,,,,,,,,,,,,,,,,,,,,,,,,,,,,,,,,,,,,,,,,
1649884893.920727,108.000000,0.000000,4251.282227,4250.256348,4181.538574,4220.512695,4208.205078,450.000000,4.000000,91.000000,,,,0.000000,4.000000,4.000000,4.000000,0.000000,4.000000,66.666664,,,,,,,,,,,,,,,,,,,,,,,,,,,,,,,,,,,,,,,,,,,,,,,,,,,,,,,,,,,,,,,
1649884893.928641,109.000000,0.000000,4247.179688,4243.077148,4184.615234,4215.384766,4208.717773,450.000000,4.000000,91.000000,,,,0.000000,4.000000,4.000000,4.000000,0.000000,4.000000,66.666664,,,,,,,,,,,,,,,,,,,,,,,,,,,,,,,,,,,,,,,,,,,,,,,,,,,,,,,,,,,,,,,
1649884893.936456,110.000000,0.000000,4283.077148,4263.077148,4207.179688,4218.974121,4240.512695,450.000000,4.000000,91.000000,,,,0.000000,4.000000,4.000000,4.000000,0.000000,4.000000,66.666664,,,,,,,,,,,,,,,,,,,,,,,,,,,,,,,,,,,,,,,,,,,,,,,,,,,,,,,,,,,,,,,
1649884893.944370,111.000000,0.000000,4317.436035,4278.974121,4223.077148,4227.692383,4264.615234,16204.000000,4.000000,91.000000,,,,0.000000,4.000000,4.000000,4.000000,0.000000,4.000000,66.666664,,,,,,,,,,,,,,,,,,,,,,,,,,,,,,,,,,,,,,,,,,,,,,,,,,,,,,,,,,,,,,,
1649884893.952184,112.000000,0.000000,4280.000000,4252.820313,4188.205078,4225.641113,4226.153809,450.000000,4.000000,91.000000,,,,0.000000,4.000000,4.000000,4.000000,0.000000,4.000000,66.666664,,,,,,,,,,,,,,,,,,,,,,,,,,,,,,,,,,,,,,,,,,,,,,,,,,,,,,,,,,,,,,,
1649884893.960099,113.000000,0.000000,4230.769043,4223.077148,4149.230957,4216.410156,4183.077148,450.000000,4.000000,91.000000,,,,0.000000,4.000000,4.000000,4.000000,0.000000,4.000000,66.666664,,,,,,,,,,,,,,,,,,,,,,,,,,,,,,,,,,,,,,,,,,,,,,,,,,,,,,,,,,,,,,,
1649884893.968013,114.000000,0.000000,4252.307617,4244.615234,4173.846191,4214.871582,4211.282227,450.000000,4.000000,91.000000,,,,0.000000,4.000000,4.000000,4.000000,0.000000,4.000000,66.666664,,,,,,,,,,,,,,,,,,,,,,,,,,,,,,,,,,,,,,,,,,,,,,,,,,,,,,,,,,,,,,,
1649884893.975828,115.000000,0.000000,4291.282227,4282.563965,4221.025879,4220.000000,4252.307617,16204.000000,4.000000,91.000000,,,,0.000000,4.000000,4.000000,4.000000,0.000000,4.000000,66.666664,0.968750,66.666664,4.000000,4.000000,4.000000,0.000000,4.000000,,,,,,,,,,,,,,,,,,,,,,,,,,,,,,,,6.373727,5.759388,4.808677,2.719772,2.444403,1.891750,0.879630,1.843982,2.373320,1.857260,2.185297,3.575216,5.807064,3.276639,2.438908,0.044885,0.054675,0.127011,0.056180,0.071470,7.717558,4.981289,4.779280,2.568086,2.874373
1649884893.983642,116.000000,0.000000,4282.563965,4275.897461,4221.025879,4225.641113,4238.461426,450.000000,4.000000,91.000000,,,,0.000000,4.000000,4.000000,4.000000,0.000000,4.000000,66.666664,,,,,,,,,,,,,,,,,,,,,,,,,,,,,,,,,,,,,,,,,,,,,,,,,,,,,,,,,,,,,,,
1649884893.991556,117.000000,0.000000,4253.846191,4247.692383,4186.666504,4225.641113,4207.179688,450.000000,4.000000,91.000000,,,,0.000000,4.000000,4.000000,4.000000,0.000000,4.000000,66.666664,,,,,,,,,,,,,,,,,,,,,,,,,,,,,,,,,,,,,,,,,,,,,,,,,,,,,,,,,,,,,,,
1649884893.999471,118.000000,0.000000,4246.153809,4248.717773,4168.717773,4217.436035,4206.666504,450.000000,4.000000,91.000000,,,,0.000000,4.000000,4.000000,4.000000,0.000000,4.000000,66.666664,,,,,,,,,,,,,,,,,,,,,,,,,,,,,,,,,,,,,,,,,,,,,,,,,,,,,,,,,,,,,,,
1649884894.007385,119.000000,0.000000,4244.615234,4248.717773,4167.179688,4214.871582,4208.205078,16204.000000,4.000000,91.000000,,,,0.000000,4.000000,4.000000,4.000000,0.000000,4.000000,66.666664,,,,,,,,,,,,,,,,,,,,,,,,,,,,,,,,,,,,,,,,,,,,,,,,,,,,,,,,,,,,,,,
1649884894.015299,120.000000,0.000000,4232.307617,4230.256348,4151.282227,4219.487305,4193.333496,450.000000,4.000000,91.000000,,,,0.000000,4.000000,4.000000,4.000000,0.000000,4.000000,66.666664,,,,,,,,,,,,,,,,,,,,,,,,,,,,,,,,,,,,,,,,,,,,,,,,,,,,,,,,,,,,,,,
1649884894.023114,121.000000,0.000000,4241.025879,4239.487305,4152.820313,4218.461426,4203.077148,450.000000,4.000000,91.000000,,,,0.000000,4.000000,4.000000,4.000000,0.000000,4.000000,66.666664,,,,,,,,,,,,,,,,,,,,,,,,,,,,,,,,,,,,,,,,,,,,,,,,,,,,,,,,,,,,,,,
1649884894.031028,122.000000,0.000000,4271.282227,4257.948730,4173.846191,4214.871582,4227.179688,450.000000,4.000000,91.000000,,,,0.000000,4.000000,4.000000,4.000000,0.000000,4.000000,66.666664,,,,,,,,,,,,,,,,,,,,,,,,,,,,,,,,,,,,,,,,,,,,,,,,,,,,,,,,,,,,,,,
1649884894.038842,123.000000,0.000000,4283.077148,4245.128418,4166.153809,4221.025879,4230.769043,16204.000000,4.000000,91.000000,,,,0.000000,4.000000,4.000000,4.000000,0.000000,4.000000,66.666664,,,,,,,,,,,,,,,,,,,,,,,,,,,,,,,,,,,,,,,,,,,,,,,,,,,,,,,,,,,,,,,
1649884894.046757,124.000000,0.000000,4285.641113,4242.563965,4158.461426,4223.589844,4240.000000,450.000000,4.000000,91.000000,,,,0.000000,4.000000,4.000000,4.000000,0.000000,4.000000,66.666664,,,,,,,,,,,,,,,,,,,,,,,,,,,,,,,,,,,,,,,,,,,,,,,,,,,,,,,,,,,,,,,
1649884894.054571,125.000000,0.000000,4320.000000,4274.871582,4201.025879,4221.025879,4285.641113,450.000000,4.000000,91.000000,,,,0.000000,4.000000,4.000000,4.000000,0.000000,4.000000,66.666664,,,,,,,,,,,,,,,,,,,,,,,,,,,,,,,,,,,,,,,,,,,,,,,,,,,,,,,,,,,,,,,
1649884894.062485,126.000000,0.000000,4343.589844,4288.717773,4232.820313,4226.153809,4309.743652,450.000000,4.000000,91.000000,,,,0.000000,4.000000,4.000000,4.000000,0.000000,4.000000,66.666664,,,,,,,,,,,,,,,,,,,,,,,,,,,,,,,,,,,,,,,,,,,,,,,,,,,,,,,,,,,,,,,
1649884894.070300,127.000000,0.000000,4299.487305,4260.512695,4196.922852,4228.717773,4258.974121,242.000000,4.000000,91.000000,,,,0.000000,4.000000,4.000000,4.000000,0.000000,4.000000,66.666664,,,,,,,,,,,,,,,,,,,,,,,,,,,,,,,,,,,,,,,,,,,,,,,,,,,,,,,,,,,,,,,
1649884894.078214,0.000000,0.000000,4247.179688,4240.512695,4163.589844,4218.974121,4204.615234,450.000000,4.000000,91.000000,,,,0.000000,4.000000,4.000000,4.000000,0.000000,4.000000,66.666664,,,,,,,,,,,,,,,,,,,,,,,,,,,,,,,,,,,,,,,,,,,,,,,,,,,,,,,,,,,,,,,
1649884894.086028,1.000000,0.000000,4255.384766,4257.948730,4188.205078,4214.871582,4216.410156,450.000000,4.000000,91.000000,,,,0.000000,4.000000,4.000000,4.000000,0.000000,4.000000,66.666664,,,,,,,,,,,,,,,,,,,,,,,,,,,,,,,,,,,,,,,,,,,,,,,,,,,,,,,,,,,,,,,
1649884894.093943,2.000000,0.000000,4277.948730,4273.333496,4209.230957,4221.025879,4243.077148,16212.000000,4.000000,91.000000,,,,0.000000,4.000000,4.000000,4.000000,0.000000,4.000000,66.666664,,,,,,,,,,,,,,,,,,,,,,,,,,,,,,,,,,,,,,,,,,,,,,,,,,,,,,,,,,,,,,,
1649884894.101757,3.000000,0.000000,4255.384766,4256.410156,4181.025879,4218.974121,4225.641113,450.000000,4.000000,91.000000,,,,0.000000,4.000000,4.000000,4.000000,0.000000,4.000000,66.666664,,,,,,,,,,,,,,,,,,,,,,,,,,,,,,,,,,,,,,,5.715190,6.249915,4.837830,2.525856,2.318604,1.572923,0.853847,1.750590,2.455516,1.752386,2.289143,3.897077,5.702506,3.194176,2.350812,0.051041,0.067854,0.136037,0.071822,0.078152,7.297978,5.560710,4.981027,2.611745,2.807154
1649884894.109671,4.000000,0.000000,4234.871582,4237.436035,4158.974121,4215.384766,4207.692383,16198.000000,4.000000,91.000000,,,,0.000000,4.000000,4.000000,4.000000,0.000000,4.000000,66.666664,,,,,,,,,,,,,,,,,,,,,,,,,,,,,,,,,,,,,,,,,,,,,,,,,,,,,,,,,,,,,,,
1649884894.117486,5.000000,0.000000,4257.436035,4245.128418,4177.948730,4218.974121,4222.051270,450.000000,4.000000,91.000000,,,,0.000000,4.000000,4.000000,4.000000,0.000000,4.000000,66.666664,,,,,,,,,,,,,,,,,,,,,,,,,,,,,,,,,,,,,,,,,,,,,,,,,,,,,,,,,,,,,,,
1649884894.125400,6.000000,0.000000,4268.717773,4255.384766,4195.897461,4218.461426,4229.230957,16173.000000,4.000000,91.000000,,,,0.000000,4.000000,4.000000,4.000000,0.000000,4.000000,66.666664,,,,,,,,,,,,,,,,,,,,,,,,,,,,,,,,,,,,,,,,,,,,,,,,,,,,,,,,,,,,,,,
1649884894.133215,7.000000,0.000000,4251.282227,4255.384766,4195.897461,4217.436035,4221.538574,450.000000,4.000000,91.000000,,,,0.000000,4.000000,4.000000,4.000000,0.000000,4.000000,66.666664,,,,,,,,,,,,,,,,,,,,,,,,,,,,,,,,,,,,,,,,,,,,,,,,,,,,,,,,,,,,,,,
1649884894.141129,8.000000,0.000000,4253.333496,4257.948730,4200.000000,4220.000000,4225.641113,450.000000,4.000000,91.000000,,,,0.000000,4.000000,4.000000,4.000000,0.000000,4.000000,66.666664,,,,,,,,,,,,,,,,,,,,,,,,,,,,,,,,,,,,,,,,,,,,,,,,,,,,,,,,,,,,,,,
1649884894.149043,9.000000,0.000000,4256.410156,4250.256348,4191.794922,4215.897461,4214.871582,0.000000,4.000000,91.000000,,,,0.000000,4.000000,4.000000,4.000000,0.000000,4.000000,66.666664,,,,,,,,,,,,,,,,,,,,,,,,,,,,,,,,,,,,,,,,,,,,,,,,,,,,,,,,,,,,,,,
1649884894.156858,10.000000,0.000000,4252.820313,4242.051270,4182.563965,4217.436035,4205.128418,450.000000,4.000000,91.000000,,,,0.000000,4.000000,4.000000,4.000000,0.000000,4.000000,66.666664,,,,,,,,,,,,,,,,,,,,,,,,,,,,,,,,,,,,,,,,,,,,,,,,,,,,,,,,,,,,,,,
1649884894.164772,11.000000,0.000000,4277.436035,4258.974121,4203.077148,4228.717773,4239.487305,16197.000000,4.000000,91.000000,,,,0.000000,4.000000,4.000000,4.000000,0.000000,4.000000,66.666664,,,,,,,,,,,,,,,,,,,,,,,,,,,,,,,,,,,,,,,,,,,,,,,,,,,,,,,,,,,,,,,
1649884894.172586,12.000000,0.000000,4294.871582,4269.230957,4208.717773,4226.153809,4260.512695,450.000000,4.000000,91.000000,,,,0.000000,4.000000,4.000000,4.000000,0.000000,4.000000,66.666664,,,,,,,,,,,,,,,,,,,,,,,,,,,,,,,,,,,,,,,,,,,,,,,,,,,,,,,,,,,,,,,
1649884894.180501,13.000000,0.000000,4277.948730,4254.871582,4184.102539,4221.538574,4238.461426,450.000000,4.000000,91.000000,,,,0.000000,4.000000,4.000000,4.000000,0.000000,4.000000,66.666664,,,,,,,,,,,,,,,,,,,,,,,,,,,,,,,,,,,,,,,,,,,,,,,,,,,,,,,,,,,,,,,
1649884894.188315,14.000000,0.000000,4280.512695,4252.307617,4181.025879,4225.128418,4244.615234,450.000000,4.000000,91.000000,,,,0.000000,4.000000,4.000000,4.000000,0.000000,4.000000,66.666664,,,,,,,,,,,,,,,,,,,,,,,,,,,,,,,,,,,,,,,,,,,,,,,,,,,,,,,,,,,,,,,
1649884894.196129,15.000000,0.000000,4304.615234,4256.410156,4187.692383,4222.051270,4271.282227,16197.000000,4.000000,91.000000,,,,0.000000,4.000000,4.000000,4.000000,0.000000,4.000000,66.666664,,,,,,,,,,,,,,,,,,,,,,,,,,,,,,,,,,,,,,,,,,,,,,,,,,,,,,,,,,,,,,,
1649884894.204044,16.000000,0.000000,4309.230957,4245.641113,4175.384766,4220.000000,4268.205078,0.000000,4.000000,91.000000,,,,0.000000,4.000000,4.000000,4.000000,0.000000,4.000000,66.666664,,,,,,,,,,,,,,,,,,,,,,,,,,,,,,,,,,,,,,,,,,,,,,,,,,,,,,,,,,,,,,,
1649884894.211858,17.000000,0.000000,4298.974121,4238.974121,4168.717773,4225.641113,4259.487305,0.000000,4.000000,91.000000,,,,0.000000,4.000000,4.000000,4.000000,0.000000,4.000000,66.666664,,,,,,,,,,,,,,,,,,,,,,,,,,,,,,,,,,,,,,,,,,,,,,,,,,,,,,,,,,,,,,,
1649884894.219772,18.000000,0.000000,4278.974121,4234.358887,4169.230957,4221.025879,4252.307617,0.000000,4.000000,91.000000,,,,0.000000,4.000000,4.000000,4.000000,0.000000,4.000000,66.666664,,,,,,,,,,,,,,,,,,,,,,,,,,,,,,,,,,,,,,,,,,,,,,,,,,,,,,,,,,,,,,,
1649884894.227687,19.000000,0.000000,4261.025879,4236.922852,4171.794922,4213.846191,4239.487305,0.000000,4.000000,91.000000,,,,0.000000,4.000000,4.000000,4.000000,0.000000,4.000000,66.666664,,,,,,,,,,,,,,,,,,,,,,,,,,,,,,,,,,,,,,,5.070707,6.243503,4.717624,2.342551,2.225245,1.387849,0.869117,1.614227,2.466521,1.646870,2.288751,4.061636,5.221715,2.931046,2.250603,0.059471,0.079340,0.132754,0.086617,0.081634,6.778118,5.781075,5.015969,2.579695,2.703045
1649884894.235501,20.000000,0.000000,4261.538574,4250.256348,4183.589844,4218.461426,4240.000000,0.000000,4.000000,91.000000,,,,0.000000,4.000000,4.000000,4.000000,0.000000,4.000000,66.666664,,,,,,,,,,,,,,,,,,,,,,,,,,,,,,,,,,,,,,,,,,,,,,,,,,,,,,,,,,,,,,,
1649884894.243316,21.000000,0.000000,4253.846191,4246.153809,4183.589844,4217.948730,4230.256348,0.000000,4.000000,91.000000,,,,0.000000,4.000000,4.000000,4.000000,0.000000,4.000000,66.666664,,,,,,,,,,,,,,,,,,,,,,,,,,,,,,,,,,,,,,,,,,,,,,,,,,,,,,,,,,,,,,,
1649884894.251230,22.000000,0.000000,4246.153809,4236.922852,4178.974121,4216.922852,4213.846191,0.000000,4.000000,91.000000,,,,0.000000,4.000000,4.000000,4.000000,0.000000,4.000000,66.666664,,,,,,,,,,,,,,,,,,,,,,,,,,,,,,,,,,,,,,,,,,,,,,,,,,,,,,,,,,,,,,,
1649884894.259144,23.000000,0.000000,4246.666504,4236.922852,4176.410156,4218.974121,4213.846191,0.000000,4.000000,91.000000,,,,0.000000,4.000000,4.000000,4.000000,0.000000,4.000000,66.666664,,,,,,,,,,,,,,,,,,,,,,,,,,,,,,,,,,,,,,,,,,,,,,,,,,,,,,,,,,,,,,,
1649884894.266959,24.000000,0.000000,4241.025879,4231.794922,4174.871582,4217.948730,4216.922852,0.000000,4.000000,91.000000,,,,0.000000,4.000000,4.000000,4.000000,0.000000,4.000000,66.666664,,,,,,,,,,,,,,,,,,,,,,,,,,,,,,,,,,,,,,,,,,,,,,,,,,,,,,,,,,,,,,,
1649884894.274873,25.000000,0.000000,4246.666504,4231.282227,4188.717773,4217.948730,4212.307617,0.000000,4.000000,91.000000,,,,0.000000,4.000000,4.000000,4.000000,0.000000,4.000000,66.666664,,,,,,,,,,,,,,,,,,,,,,,,,,,,,,,,,,,,,,,,,,,,,,,,,,,,,,,,,,,,,,,
1649884894.282687,26.000000,0.000000,4253.846191,4240.000000,4191.794922,4217.436035,4208.717773,0.000000,4.000000,91.000000,,,,0.000000,4.000000,4.000000,4.000000,0.000000,4.000000,66.666664,,,,,,,,,,,,,,,,,,,,,,,,,,,,,,,,,,,,,,,,,,,,,,,,,,,,,,,,,,,,,,,
1649884894.290602,27.000000,0.000000,4238.461426,4236.410156,4162.563965,4217.948730,4205.641113,0.000000,4.000000,91.000000,,,,0.000000,4.000000,4.000000,4.000000,0.000000,4.000000,66.666664,,,,,,,,,,,,,,,,,,,,,,,,,,,,,,,,,,,,,,,,,,,,,,,,,,,,,,,,,,,,,,,
1649884894.298516,28.000000,0.000000,4245.641113,4241.538574,4159.487305,4218.974121,4221.025879,0.000000,4.000000,91.000000,,,,0.000000,4.000000,4.000000,4.000000,0.000000,4.000000,66.666664,,,,,,,,,,,,,,,,,,,,,,,,,,,,,,,,,,,,,,,,,,,,,,,,,,,,,,,,,,,,,,,
1649884894.306330,29.000000,0.000000,4271.282227,4250.769043,4171.282227,4218.461426,4234.871582,0.000000,4.000000,91.000000,,,,0.000000,4.000000,4.000000,4.000000,0.000000,4.000000,66.666664,,,,,,,,,,,,,,,,,,,,,,,,,,,,,,,,,,,,,,,,,,,,,,,,,,,,,,,,,,,,,,,
1649884894.314145,30.000000,0.000000,4278.461426,4244.615234,4163.077148,4216.922852,4234.358887,0.000000,4.000000,91.000000,,,,0.000000,4.000000,4.000000,4.000000,0.000000,4.000000,66.666664,,,,,,,,,,,,,,,,,,,,,,,,,,,,,,,,,,,,,,,,,,,,,,,,,,,,,,,,,,,,,,,
1649884894.322059,31.000000,0.000000,4295.897461,4253.846191,4184.102539,4222.051270,4256.922852,0.000000,4.000000,91.000000,,,,0.000000,4.000000,4.000000,4.000000,0.000000,4.000000,66.666664,,,,,,,,,,,,,,,,,,,,,,,,,,,,,,,,,,,,,,,,,,,,,,,,,,,,,,,,,,,,,,,
1649884894.329873,32.000000,0.000000,4307.692383,4267.179688,4209.230957,4225.641113,4267.179688,0.000000,4.000000,91.000000,,,,0.000000,4.000000,4.000000,4.000000,0.000000,4.000000,66.666664,,,,,,,,,,,,,,,,,,,,,,,,,,,,,,,,,,,,,,,,,,,,,,,,,,,,,,,,,,,,,,,
1649884894.337788,33.000000,0.000000,4280.512695,4258.461426,4193.333496,4220.000000,4236.410156,0.000000,4.000000,91.000000,,,,0.000000,4.000000,4.000000,4.000000,0.000000,4.000000,66.666664,,,,,,,,,,,,,,,,,,,,,,,,,,,,,,,,,,,,,,,,,,,,,,,,,,,,,,,,,,,,,,,
1649884894.345602,34.000000,0.000000,4263.589844,4253.333496,4186.666504,4215.897461,4227.692383,0.000000,4.000000,91.000000,,,,0.000000,4.000000,4.000000,4.000000,0.000000,4.000000,66.666664,,,,,,,,,,,,,,,,,,,,,,,,,,,,,,,,,,,,,,,,,,,,,,,,,,,,,,,,,,,,,,,
1649884894.353516,35.000000,0.000000,4266.153809,4255.384766,4193.333496,4218.461426,4240.000000,0.000000,4.000000,91.000000,,,,0.000000,4.000000,4.000000,4.000000,0.000000,4.000000,66.666664,,,,,,,,,,,,,,,,,,,,,,,,,,,,,,,,,,,,,,,4.750241,5.940636,4.453205,2.232907,2.216944,1.366548,0.932439,1.476242,2.375501,1.570281,2.288845,4.102777,4.553455,2.592728,2.180127,0.070858,0.089754,0.119710,0.097608,0.083015,6.413811,5.737411,4.860559,2.515982,2.618496
1649884894.361331,36.000000,0.000000,4261.025879,4248.205078,4181.538574,4220.512695,4229.230957,0.000000,4.000000,91.000000,,,,0.000000,4.000000,4.000000,4.000000,0.000000,4.000000,66.666664,,,,,,,,,,,,,,,,,,,,,,,,,,,,,,,,,,,,,,,,,,,,,,,,,,,,,,,,,,,,,,,
1649884894.369245,37.000000,0.000000,4245.128418,4229.230957,4168.205078,4217.948730,4202.563965,0.000000,4.000000,91.000000,,,,0.000000,4.000000,4.000000,4.000000,0.000000,4.000000,66.666664,,,,,,,,,,,,,,,,,,,,,,,,,,,,,,,,,,,,,,,,,,,,,,,,,,,,,,,,,,,,,,,
1649884894.377060,38.000000,0.000000,4238.461426,4218.461426,4167.692383,4217.436035,4199.487305,0.000000,4.000000,91.000000,,,,0.000000,4.000000,4.000000,4.000000,0.000000,4.000000,66.666664,,,,,,,,,,,,,,,,,,,,,,,,,,,,,,,,,,,,,,,,,,,,,,,,,,,,,,,,,,,,,,,
1649884894.384974,39.000000,0.000000,4260.000000,4230.256348,4170.256348,4222.563965,4230.769043,0.000000,4.000000,91.000000,,,,0.000000,4.000000,4.000000,4.000000,0.000000,4.000000,66.666664,,,,,,,,,,,,,,,,,,,,,,,,,,,,,,,,,,,,,,,,,,,,,,,,,,,,,,,,,,,,,,,
1649884894.392788,40.000000,0.000000,4277.436035,4250.256348,4170.256348,4223.589844,4258.461426,0.000000,4.000000,91.000000,,,,0.000000,4.000000,4.000000,4.000000,0.000000,4.000000,66.666664,,,,,,,,,,,,,,,,,,,,,,,,,,,,,,,,,,,,,,,,,,,,,,,,,,,,,,,,,,,,,,,
1649884894.400703,41.000000,0.000000,4270.769043,4251.282227,4167.179688,4221.025879,4255.384766,0.000000,4.000000,91.000000,,,,0.000000,4.000000,4.000000,4.000000,0.000000,4.000000,66.666664,,,,,,,,,,,,,,,,,,,,,,,,,,,,,,,,,,,,,,,,,,,,,,,,,,,,,,,,,,,,,,,
1649884894.408617,42.000000,0.000000,4280.512695,4250.256348,4174.871582,4221.538574,4251.794922,0.000000,4.000000,91.000000,,,,0.000000,4.000000,4.000000,4.000000,0.000000,4.000000,66.666664,,,,,,,,,,,,,,,,,,,,,,,,,,,,,,,,,,,,,,,,,,,,,,,,,,,,,,,,,,,,,,,
1649884894.416431,43.000000,0.000000,4286.666504,4255.384766,4183.077148,4222.051270,4251.282227,0.000000,4.000000,91.000000,,,,0.000000,4.000000,4.000000,4.000000,0.000000,4.000000,66.666664,,,,,,,,,,,,,,,,,,,,,,,,,,,,,,,,,,,,,,,,,,,,,,,,,,,,,,,,,,,,,,,
1649884894.424346,44.000000,0.000000,4258.974121,4248.205078,4172.820313,4219.487305,4238.461426,0.000000,4.000000,91.000000,,,,0.000000,4.000000,4.000000,4.000000,0.000000,4.000000,66.666664,,,,,,,,,,,,,,,,,,,,,,,,,,,,,,,,,,,,,,,,,,,,,,,,,,,,,,,,,,,,,,,
1649884894.432160,45.000000,0.000000,4251.282227,4240.000000,4168.205078,4216.410156,4233.846191,0.000000,4.000000,91.000000,,,,0.000000,4.000000,4.000000,4.000000,0.000000,4.000000,66.666664,,,,,,,,,,,,,,,,,,,,,,,,,,,,,,,,,,,,,,,,,,,,,,,,,,,,,,,,,,,,,,,
1649884894.440074,46.000000,0.000000,4263.077148,4235.384766,4167.692383,4218.974121,4231.282227,0.000000,4.000000,91.000000,,,,0.000000,4.000000,4.000000,4.000000,0.000000,4.000000,66.666664,,,,,,,,,,,,,,,,,,,,,,,,,,,,,,,,,,,,,,,,,,,,,,,,,,,,,,,,,,,,,,,
1649884894.447889,47.000000,0.000000,4269.230957,4235.384766,4167.692383,4225.641113,4233.333496,0.000000,4.000000,91.000000,,,,0.000000,4.000000,4.000000,4.000000,0.000000,4.000000,66.666664,,,,,,,,,,,,,,,,,,,,,,,,,,,,,,,,,,,,,,,,,,,,,,,,,,,,,,,,,,,,,,,
1649884894.455803,48.000000,0.000000,4284.102539,4243.077148,4178.461426,4226.153809,4254.358887,0.000000,4.000000,91.000000,,,,0.000000,4.000000,4.000000,4.000000,0.000000,4.000000,66.666664,,,,,,,,,,,,,,,,,,,,,,,,,,,,,,,,,,,,,,,,,,,,,,,,,,,,,,,,,,,,,,,
1649884894.463617,49.000000,0.000000,4273.846191,4236.922852,4168.205078,4217.436035,4245.641113,0.000000,4.000000,91.000000,,,,0.000000,4.000000,4.000000,4.000000,0.000000,4.000000,66.666664,,,,,,,,,,,,,,,,,,,,,,,,,,,,,,,,,,,,,,,,,,,,,,,,,,,,,,,,,,,,,,,
1649884894.471532,50.000000,0.000000,4243.589844,4221.538574,4147.692383,4215.384766,4214.871582,0.000000,4.000000,91.000000,,,,0.000000,4.000000,4.000000,4.000000,0.000000,4.000000,66.666664,,,,,,,,,,,,,,,,,,,,,,,,,,,,,,,,,,,,,,,,,,,,,,,,,,,,,,,,,,,,,,,
1649884894.479346,51.000000,0.000000,4252.820313,4231.794922,4168.717773,4220.000000,4226.666504,0.000000,4.000000,91.000000,,,,0.000000,4.000000,4.000000,4.000000,0.000000,4.000000,66.666664,0.968750,58.333332,4.000000,4.000000,4.000000,0.000000,3.000000,,,,,,,,,,,,,,,,,,,,,,,,,,,,,,,,5.013439,5.753921,4.104348,2.228349,2.315544,1.468825,1.068125,1.363114,2.182338,1.540671,2.384893,4.181078,3.908013,2.307899,2.183437,0.085330,0.101768,0.102405,0.103109,0.084477,6.436349,5.704353,4.563745,2.483164,2.610452
1649884894.487260,52.000000,0.000000,4273.846191,4261.025879,4195.384766,4218.461426,4253.333496,0.000000,4.000000,91.000000,,,,0.000000,4.000000,4.000000,4.000000,0.000000,4.000000,66.666664,,,,,,,,,,,,,,,,,,,,,,,,,,,,,,,,,,,,,,,,,,,,,,,,,,,,,,,,,,,,,,,
1649884894.495075,53.000000,0.000000,4253.333496,4255.897461,4168.717773,4217.436035,4229.230957,0.000000,4.000000,91.000000,,,,0.000000,4.000000,4.000000,4.000000,0.000000,4.000000,66.666664,,,,,,,,,,,,,,,,,,,,,,,,,,,,,,,,,,,,,,,,,,,,,,,,,,,,,,,,,,,,,,,
1649884894.502989,54.000000,0.000000,4245.641113,4237.948730,4147.692383,4217.948730,4203.077148,0.000000,4.000000,91.000000,,,,0.000000,4.000000,4.000000,4.000000,0.000000,4.000000,66.666664,,,,,,,,,,,,,,,,,,,,,,,,,,,,,,,,,,,,,,,,,,,,,,,,,,,,,,,,,,,,,,,
1649884894.510804,55.000000,0.000000,4273.333496,4250.769043,4174.358887,4217.948730,4227.179688,0.000000,4.000000,91.000000,,,,0.000000,4.000000,4.000000,4.000000,0.000000,4.000000,66.666664,,,,,,,,,,,,,,,,,,,,,,,,,,,,,,,,,,,,,,,,,,,,,,,,,,,,,,,,,,,,,,,
1649884894.518718,56.000000,0.000000,4276.922852,4255.384766,4181.538574,4218.461426,4239.487305,0.000000,4.000000,91.000000,,,,0.000000,4.000000,4.000000,4.000000,0.000000,4.000000,66.666664,,,,,,,,,,,,,,,,,,,,,,,,,,,,,,,,,,,,,,,,,,,,,,,,,,,,,,,,,,,,,,,
1649884894.526632,57.000000,0.000000,4265.641113,4238.461426,4164.615234,4218.974121,4226.666504,0.000000,4.000000,91.000000,,,,0.000000,4.000000,4.000000,4.000000,0.000000,4.000000,66.666664,,,,,,,,,,,,,,,,,,,,,,,,,,,,,,,,,,,,,,,,,,,,,,,,,,,,,,,,,,,,,,,
1649884894.534447,58.000000,0.000000,4265.128418,4229.230957,4156.410156,4219.487305,4221.538574,0.000000,4.000000,91.000000,,,,0.000000,4.000000,4.000000,4.000000,0.000000,4.000000,66.666664,,,,,,,,,,,,,,,,,,,,,,,,,,,,,,,,,,,,,,,,,,,,,,,,,,,,,,,,,,,,,,,
1649884894.542261,59.000000,0.000000,4257.948730,4232.307617,4144.615234,4218.974121,4216.410156,0.000000,4.000000,91.000000,,,,0.000000,4.000000,4.000000,4.000000,0.000000,4.000000,66.666664,,,,,,,,,,,,,,,,,,,,,,,,,,,,,,,,,,,,,,,,,,,,,,,,,,,,,,,,,,,,,,,
1649884894.550175,60.000000,0.000000,4265.641113,4244.102539,4149.230957,4217.948730,4228.717773,0.000000,4.000000,91.000000,,,,0.000000,4.000000,4.000000,4.000000,0.000000,4.000000,66.666664,,,,,,,,,,,,,,,,,,,,,,,,,,,,,,,,,,,,,,,,,,,,,,,,,,,,,,,,,,,,,,,
1649884894.557990,61.000000,0.000000,4283.589844,4263.589844,4183.077148,4218.461426,4255.897461,0.000000,4.000000,91.000000,,,,0.000000,4.000000,4.000000,4.000000,0.000000,4.000000,66.666664,,,,,,,,,,,,,,,,,,,,,,,,,,,,,,,,,,,,,,,,,,,,,,,,,,,,,,,,,,,,,,,
1649884894.565904,62.000000,0.000000,4270.256348,4263.077148,4193.846191,4218.974121,4250.256348,0.000000,4.000000,91.000000,,,,0.000000,4.000000,4.000000,4.000000,0.000000,4.000000,66.666664,,,,,,,,,,,,,,,,,,,,,,,,,,,,,,,,,,,,,,,,,,,,,,,,,,,,,,,,,,,,,,,
