title:david_g_Forward, start timestamp:1656264292.933109, stop timestamp:1656264297.993848, headset type:INSIGHT, headset serial:A2D201AE, headset firmware:932, channels:84, sampling rate:eeg_128;pm_0.1;pow_8, samples:649       , version:2.1, 
Timestamp,EEG.Counter,EEG.Interpolated,EEG.AF3,EEG.T7,EEG.Pz,EEG.T8,EEG.AF4,EEG.RawCq,EEG.Battery,EEG.BatteryPercent,MarkerIndex,MarkerType,MarkerValueInt,EEG.MarkerHardware,CQ.AF3,CQ.T7,CQ.Pz,CQ.T8,CQ.AF4,CQ.Overall,EQ.SampleRateQuality,EQ.OVERALL,EQ.AF3,EQ.T7,EQ.Pz,EQ.T8,EQ.AF4,PM.Engagement.IsActive,PM.Engagement.Scaled,PM.Engagement.Raw,PM.Engagement.Min,PM.Engagement.Max,PM.Excitement.IsActive,PM.Excitement.Scaled,PM.Excitement.Raw,PM.Excitement.Min,PM.Excitement.Max,PM.LongTermExcitement,PM.Stress.IsActive,PM.Stress.Scaled,PM.Stress.Raw,PM.Stress.Min,PM.Stress.Max,PM.Relaxation.IsActive,PM.Relaxation.Scaled,PM.Relaxation.Raw,PM.Relaxation.Min,PM.Relaxation.Max,PM.Interest.IsActive,PM.Interest.Scaled,PM.Interest.Raw,PM.Interest.Min,PM.Interest.Max,PM.Focus.IsActive,PM.Focus.Scaled,PM.Focus.Raw,PM.Focus.Min,PM.Focus.Max,POW.AF3.Theta,POW.AF3.Alpha,POW.AF3.BetaL,POW.AF3.BetaH,POW.AF3.Gamma,POW.T7.Theta,POW.T7.Alpha,POW.T7.BetaL,POW.T7.BetaH,POW.T7.Gamma,POW.Pz.Theta,POW.Pz.Alpha,POW.Pz.BetaL,POW.Pz.BetaH,POW.Pz.Gamma,POW.T8.Theta,POW.T8.Alpha,POW.T8.BetaL,POW.T8.BetaH,POW.T8.Gamma,POW.AF4.Theta,POW.AF4.Alpha,POW.AF4.BetaL,POW.AF4.BetaH,POW.AF4.Gamma
1656264292.933109,21.000000,0.000000,4263.077148,4253.846191,4093.333252,4101.538574,4219.487305,0.000000,4.000000,91.000000,,,,0.000000,4.000000,4.000000,4.000000,4.000000,4.000000,100.000000,,,,,,,,,,,,,,,,,,,,,,,,,,,,,,,,,,,,,,,,,,,,,,,,,,,,,,,,,,,,,,,
1656264292.941023,22.000000,0.000000,4240.512695,4265.641113,4082.564209,4086.153809,4199.487305,0.000000,4.000000,91.000000,,,,0.000000,4.000000,4.000000,4.000000,4.000000,4.000000,100.000000,,,,,,,,,,,,,,,,,,,,,,,,,,,,,,,,,,,,,,,,,,,,,,,,,,,,,,,,,,,,,,,
1656264292.948837,23.000000,0.000000,4228.205078,4275.897461,4081.538574,4087.179443,4194.871582,0.000000,4.000000,91.000000,,,,0.000000,4.000000,4.000000,4.000000,4.000000,4.000000,100.000000,,,,,,,,,,,,,,,,,,,,,,,,,,,,,,,,,,,,,,,,,,,,,,,,,,,,,,,,,,,,,,,
1656264292.956652,24.000000,0.000000,4245.641113,4242.051270,4082.564209,4066.153809,4187.179688,0.000000,4.000000,91.000000,,,,0.000000,4.000000,4.000000,4.000000,4.000000,4.000000,100.000000,,,,,,,,,,,,,,,,,,,,,,,,,,,,,,,,,,,,,,,,,,,,,,,,,,,,,,,,,,,,,,,
1656264292.964466,25.000000,0.000000,4246.153809,4218.461426,4063.076904,4052.307617,4180.000000,0.000000,4.000000,91.000000,,,,0.000000,4.000000,4.000000,4.000000,4.000000,4.000000,100.000000,,,,,,,,,,,,,,,,,,,,,,,,,,,,,,,,,,,,,,,,,,,,,,,,,,,,,,,,,,,,,,,
1656264292.972380,26.000000,0.000000,4236.922852,4212.820313,4061.025635,4080.512939,4176.410156,0.000000,4.000000,91.000000,,,,0.000000,4.000000,4.000000,4.000000,4.000000,4.000000,100.000000,,,,,,,,,,,,,,,,,,,,,,,,,,,,,,,,,,,,,,,,,,,,,,,,,,,,,,,,,,,,,,,
1656264292.980195,27.000000,0.000000,4234.358887,4201.025879,4074.358887,4087.179443,4170.256348,0.000000,4.000000,91.000000,,,,0.000000,4.000000,4.000000,4.000000,4.000000,4.000000,100.000000,,,,,,,,,,,,,,,,,,,,,,,,,,,,,,,,,,,,,,,,,,,,,,,,,,,,,,,,,,,,,,,
1656264292.988109,28.000000,0.000000,4243.077148,4216.922852,4071.794922,4081.025635,4186.153809,0.000000,4.000000,91.000000,,,,0.000000,4.000000,4.000000,4.000000,4.000000,4.000000,100.000000,,,,,,,,,,,,,,,,,,,,,,,,,,,,,,,,,,,,,,,,,,,,,,,,,,,,,,,,,,,,,,,
1656264292.995924,29.000000,0.000000,4256.922852,4218.974121,4076.923096,4093.333252,4190.256348,0.000000,4.000000,91.000000,,,,0.000000,4.000000,4.000000,4.000000,4.000000,4.000000,100.000000,,,,,,,,,,,,,,,,,,,,,,,,,,,,,,,,,,,,,,,,,,,,,,,,,,,,,,,,,,,,,,,
1656264293.003838,30.000000,0.000000,4256.922852,4206.666504,4087.179443,4090.256348,4177.436035,0.000000,4.000000,91.000000,,,,0.000000,4.000000,4.000000,4.000000,4.000000,4.000000,100.000000,,,,,,,,,,,,,,,,,,,,,,,,,,,,,,,,,,,,,,,37.221157,13.565919,2.675108,1.930920,1.140754,5.351127,1.710302,2.094250,2.336995,1.511593,14.463946,9.519031,4.706685,3.191716,1.886570,2.920962,4.698715,1.303045,1.182769,1.610577,20.209175,3.086085,3.379138,2.043344,1.062961
1656264293.011652,31.000000,0.000000,4265.641113,4228.717773,4064.615479,4097.948730,4206.666504,0.000000,4.000000,91.000000,,,,0.000000,4.000000,4.000000,4.000000,4.000000,4.000000,100.000000,,,,,,,,,,,,,,,,,,,,,,,,,,,,,,,,,,,,,,,,,,,,,,,,,,,,,,,,,,,,,,,
1656264293.019567,32.000000,0.000000,4283.589844,4232.820313,4037.948730,4116.922852,4232.820313,0.000000,4.000000,91.000000,,,,0.000000,4.000000,4.000000,4.000000,4.000000,4.000000,100.000000,,,,,,,,,,,,,,,,,,,,,,,,,,,,,,,,,,,,,,,,,,,,,,,,,,,,,,,,,,,,,,,
1656264293.027381,33.000000,0.000000,4271.282227,4211.282227,4049.743652,4090.256348,4208.205078,0.000000,4.000000,91.000000,,,,0.000000,4.000000,4.000000,4.000000,4.000000,4.000000,100.000000,,,,,,,,,,,,,,,,,,,,,,,,,,,,,,,,,,,,,,,,,,,,,,,,,,,,,,,,,,,,,,,
1656264293.035295,34.000000,0.000000,4230.769043,4232.307617,4052.820557,4043.076904,4190.256348,0.000000,4.000000,91.000000,,,,0.000000,4.000000,4.000000,4.000000,4.000000,4.000000,100.000000,,,,,,,,,,,,,,,,,,,,,,,,,,,,,,,,,,,,,,,,,,,,,,,,,,,,,,,,,,,,,,,
1656264293.043110,35.000000,0.000000,4214.871582,4258.461426,4029.743652,4037.948730,4199.487305,0.000000,4.000000,91.000000,,,,0.000000,4.000000,4.000000,4.000000,4.000000,4.000000,100.000000,,,,,,,,,,,,,,,,,,,,,,,,,,,,,,,,,,,,,,,,,,,,,,,,,,,,,,,,,,,,,,,
1656264293.051024,36.000000,0.000000,4254.358887,4233.333496,4013.846191,4084.102539,4215.897461,0.000000,4.000000,91.000000,,,,0.000000,4.000000,4.000000,4.000000,4.000000,4.000000,100.000000,,,,,,,,,,,,,,,,,,,,,,,,,,,,,,,,,,,,,,,,,,,,,,,,,,,,,,,,,,,,,,,
1656264293.058838,37.000000,0.000000,4295.384766,4214.871582,4020.512939,4116.922852,4227.692383,0.000000,4.000000,91.000000,,,,0.000000,4.000000,4.000000,4.000000,4.000000,4.000000,100.000000,,,,,,,,,,,,,,,,,,,,,,,,,,,,,,,,,,,,,,,,,,,,,,,,,,,,,,,,,,,,,,,
1656264293.066753,38.000000,0.000000,4292.820313,4243.077148,4037.435791,4103.589844,4236.410156,0.000000,4.000000,91.000000,,,,0.000000,4.000000,4.000000,4.000000,4.000000,4.000000,100.000000,,,,,,,,,,,,,,,,,,,,,,,,,,,,,,,,,,,,,,,,,,,,,,,,,,,,,,,,,,,,,,,
1656264293.074667,39.000000,0.000000,4268.205078,4256.410156,4027.179443,4095.897461,4244.615234,0.000000,4.000000,91.000000,,,,0.000000,4.000000,4.000000,4.000000,4.000000,4.000000,100.000000,,,,,,,,,,,,,,,,,,,,,,,,,,,,,,,,,,,,,,,,,,,,,,,,,,,,,,,,,,,,,,,
1656264293.082481,40.000000,0.000000,4258.461426,4234.871582,4018.461426,4092.820557,4235.384766,0.000000,4.000000,91.000000,,,,0.000000,4.000000,4.000000,4.000000,4.000000,4.000000,100.000000,,,,,,,,,,,,,,,,,,,,,,,,,,,,,,,,,,,,,,,,,,,,,,,,,,,,,,,,,,,,,,,
1656264293.090296,41.000000,0.000000,4278.461426,4235.897461,4045.128174,4091.281982,4224.615234,0.000000,4.000000,91.000000,,,,0.000000,4.000000,4.000000,4.000000,4.000000,4.000000,100.000000,,,,,,,,,,,,,,,,,,,,,,,,,,,,,,,,,,,,,,,,,,,,,,,,,,,,,,,,,,,,,,,
1656264293.098110,42.000000,0.000000,4289.743652,4244.615234,4049.230713,4119.487305,4232.307617,0.000000,4.000000,91.000000,,,,0.000000,4.000000,4.000000,4.000000,4.000000,4.000000,100.000000,,,,,,,,,,,,,,,,,,,,,,,,,,,,,,,,,,,,,,,,,,,,,,,,,,,,,,,,,,,,,,,
1656264293.106025,43.000000,0.000000,4266.666504,4226.666504,4044.615479,4123.077148,4222.051270,0.000000,4.000000,91.000000,,,,0.000000,4.000000,4.000000,4.000000,4.000000,4.000000,100.000000,,,,,,,,,,,,,,,,,,,,,,,,,,,,,,,,,,,,,,,,,,,,,,,,,,,,,,,,,,,,,,,
1656264293.113839,44.000000,0.000000,4248.205078,4228.205078,4081.025635,4084.615479,4207.692383,0.000000,4.000000,91.000000,,,,0.000000,4.000000,4.000000,4.000000,4.000000,4.000000,100.000000,,,,,,,,,,,,,,,,,,,,,,,,,,,,,,,,,,,,,,,,,,,,,,,,,,,,,,,,,,,,,,,
1656264293.121753,45.000000,0.000000,4246.153809,4231.794922,4098.974121,4072.820557,4210.769043,0.000000,4.000000,91.000000,,,,0.000000,4.000000,4.000000,4.000000,4.000000,4.000000,100.000000,,,,,,,,,,,,,,,,,,,,,,,,,,,,,,,,,,,,,,,,,,,,,,,,,,,,,,,,,,,,,,,
1656264293.129568,46.000000,0.000000,4213.846191,4202.563965,4046.666748,4055.897461,4175.384766,0.000000,4.000000,91.000000,,,,0.000000,4.000000,4.000000,4.000000,4.000000,4.000000,100.000000,,,,,,,,,,,,,,,,,,,,,,,,,,,,,,,,,,,,,,,27.139183,13.669880,2.494594,1.744465,1.057178,6.153411,1.964942,1.891241,2.303680,1.489623,12.612933,9.687328,5.155820,2.759728,1.794334,2.592531,4.990224,1.661038,1.134517,1.494381,16.715931,3.399545,4.334512,1.824853,1.102132
1656264293.137482,47.000000,0.000000,4164.102539,4205.128418,4010.256348,4004.102539,4134.871582,0.000000,4.000000,91.000000,,,,0.000000,4.000000,4.000000,4.000000,4.000000,4.000000,100.000000,,,,,,,,,,,,,,,,,,,,,,,,,,,,,,,,,,,,,,,,,,,,,,,,,,,,,,,,,,,,,,,
1656264293.145296,48.000000,0.000000,4203.589844,4247.179688,4073.333252,4032.820557,4187.179688,0.000000,4.000000,91.000000,,,,0.000000,4.000000,4.000000,4.000000,4.000000,4.000000,100.000000,,,,,,,,,,,,,,,,,,,,,,,,,,,,,,,,,,,,,,,,,,,,,,,,,,,,,,,,,,,,,,,
1656264293.153211,49.000000,0.000000,4300.000000,4248.205078,4136.410156,4118.974121,4251.794922,0.000000,4.000000,91.000000,,,,0.000000,4.000000,4.000000,4.000000,4.000000,4.000000,100.000000,,,,,,,,,,,,,,,,,,,,,,,,,,,,,,,,,,,,,,,,,,,,,,,,,,,,,,,,,,,,,,,
1656264293.161025,50.000000,0.000000,4300.512695,4229.743652,4111.794922,4117.948730,4233.846191,0.000000,4.000000,91.000000,,,,0.000000,4.000000,4.000000,4.000000,4.000000,4.000000,100.000000,,,,,,,,,,,,,,,,,,,,,,,,,,,,,,,,,,,,,,,,,,,,,,,,,,,,,,,,,,,,,,,
1656264293.168939,51.000000,0.000000,4257.948730,4245.641113,4082.564209,4101.538574,4223.077148,0.000000,4.000000,91.000000,,,,0.000000,4.000000,4.000000,4.000000,4.000000,4.000000,100.000000,,,,,,,,,,,,,,,,,,,,,,,,,,,,,,,,,,,,,,,,,,,,,,,,,,,,,,,,,,,,,,,
1656264293.176754,52.000000,0.000000,4282.563965,4234.871582,4085.128174,4123.589844,4237.436035,0.000000,4.000000,91.000000,,,,0.000000,4.000000,4.000000,4.000000,4.000000,4.000000,100.000000,,,,,,,,,,,,,,,,,,,,,,,,,,,,,,,,,,,,,,,,,,,,,,,,,,,,,,,,,,,,,,,
1656264293.184668,53.000000,0.000000,4298.974121,4205.128418,4083.076904,4097.948730,4217.948730,0.000000,4.000000,91.000000,,,,0.000000,4.000000,4.000000,4.000000,4.000000,4.000000,100.000000,,,,,,,,,,,,,,,,,,,,,,,,,,,,,,,,,,,,,,,,,,,,,,,,,,,,,,,,,,,,,,,
1656264293.192483,54.000000,0.000000,4265.641113,4231.282227,4080.000000,4063.589844,4211.794922,0.000000,4.000000,91.000000,,,,0.000000,4.000000,4.000000,4.000000,4.000000,4.000000,100.000000,,,,,,,,,,,,,,,,,,,,,,,,,,,,,,,,,,,,,,,,,,,,,,,,,,,,,,,,,,,,,,,
1656264293.200397,55.000000,0.000000,4248.717773,4254.871582,4077.435791,4077.435791,4229.743652,0.000000,4.000000,91.000000,,,,0.000000,4.000000,4.000000,4.000000,4.000000,4.000000,100.000000,,,,,,,,,,,,,,,,,,,,,,,,,,,,,,,,,,,,,,,,,,,,,,,,,,,,,,,,,,,,,,,
1656264293.208211,56.000000,0.000000,4260.512695,4241.025879,4089.743652,4080.512939,4226.153809,0.000000,4.000000,91.000000,,,,0.000000,4.000000,4.000000,4.000000,4.000000,4.000000,100.000000,,,,,,,,,,,,,,,,,,,,,,,,,,,,,,,,,,,,,,,,,,,,,,,,,,,,,,,,,,,,,,,
1656264293.216126,57.000000,0.000000,4255.897461,4241.538574,4106.153809,4065.641113,4213.846191,0.000000,4.000000,91.000000,,,,0.000000,4.000000,4.000000,4.000000,4.000000,4.000000,100.000000,,,,,,,,,,,,,,,,,,,,,,,,,,,,,,,,,,,,,,,,,,,,,,,,,,,,,,,,,,,,,,,
1656264293.223940,58.000000,0.000000,4240.512695,4243.589844,4091.794922,4067.692383,4212.307617,0.000000,4.000000,91.000000,,,,0.000000,4.000000,4.000000,4.000000,4.000000,4.000000,100.000000,,,,,,,,,,,,,,,,,,,,,,,,,,,,,,,,,,,,,,,,,,,,,,,,,,,,,,,,,,,,,,,
1656264293.231854,59.000000,0.000000,4244.615234,4226.666504,4072.820557,4074.871826,4214.871582,0.000000,4.000000,91.000000,,,,0.000000,4.000000,4.000000,4.000000,4.000000,4.000000,100.000000,,,,,,,,,,,,,,,,,,,,,,,,,,,,,,,,,,,,,,,,,,,,,,,,,,,,,,,,,,,,,,,
1656264293.239769,60.000000,0.000000,4253.846191,4227.692383,4061.025635,4082.051270,4223.077148,0.000000,4.000000,91.000000,,,,0.000000,4.000000,4.000000,4.000000,4.000000,4.000000,100.000000,,,,,,,,,,,,,,,,,,,,,,,,,,,,,,,,,,,,,,,,,,,,,,,,,,,,,,,,,,,,,,,
1656264293.247583,61.000000,0.000000,4259.487305,4241.025879,4048.718018,4092.307617,4227.179688,0.000000,4.000000,91.000000,,,,0.000000,4.000000,4.000000,4.000000,4.000000,4.000000,100.000000,,,,,,,,,,,,,,,,,,,,,,,,,,,,,,,,,,,,,,,,,,,,,,,,,,,,,,,,,,,,,,,
1656264293.255497,62.000000,0.000000,4272.820313,4224.102539,4059.487061,4091.281982,4206.666504,0.000000,4.000000,91.000000,,,,0.000000,4.000000,4.000000,4.000000,4.000000,4.000000,100.000000,1.000000,100.000000,4.000000,4.000000,4.000000,4.000000,4.000000,,,,,,,,,,,,,,,,,,,,,,,,,,,,,,,,17.184662,12.969853,2.295659,1.525341,1.007462,6.897808,2.190446,1.889858,2.232966,1.494234,10.466743,9.316304,5.563286,2.249367,1.634879,2.439619,4.943164,2.160177,1.097309,1.363634,13.684020,3.691696,5.259017,1.730707,1.111457
1656264293.263312,63.000000,0.000000,4274.358887,4208.205078,4076.410156,4088.205078,4192.820313,0.000000,4.000000,91.000000,,,,0.000000,4.000000,4.000000,4.000000,4.000000,4.000000,100.000000,,,,,,,,,,,,,,,,,,,,,,,,,,,,,,,,,,,,,,,,,,,,,,,,,,,,,,,,,,,,,,,
1656264293.271226,64.000000,0.000000,4265.641113,4222.563965,4076.410156,4084.102539,4206.153809,450.000000,4.000000,91.000000,,,,0.000000,4.000000,4.000000,4.000000,4.000000,4.000000,100.000000,,,,,,,,,,,,,,,,,,,,,,,,,,,,,,,,,,,,,,,,,,,,,,,,,,,,,,,,,,,,,,,
1656264293.279040,65.000000,0.000000,4260.000000,4222.563965,4078.974365,4060.000000,4195.897461,450.000000,4.000000,91.000000,,,,0.000000,4.000000,4.000000,4.000000,4.000000,4.000000,100.000000,,,,,,,,,,,,,,,,,,,,,,,,,,,,,,,,,,,,,,,,,,,,,,,,,,,,,,,,,,,,,,,
1656264293.286955,66.000000,0.000000,4253.333496,4205.641113,4085.641113,4052.820557,4175.897461,16224.000000,4.000000,91.000000,,,,0.000000,4.000000,4.000000,4.000000,4.000000,4.000000,100.000000,,,,,,,,,,,,,,,,,,,,,,,,,,,,,,,,,,,,,,,,,,,,,,,,,,,,,,,,,,,,,,,
1656264293.294769,67.000000,0.000000,4247.692383,4217.436035,4084.102539,4086.153809,4200.000000,450.000000,4.000000,91.000000,,,,0.000000,4.000000,4.000000,4.000000,4.000000,4.000000,100.000000,,,,,,,,,,,,,,,,,,,,,,,,,,,,,,,,,,,,,,,,,,,,,,,,,,,,,,,,,,,,,,,
1656264293.302683,68.000000,0.000000,4246.153809,4249.743652,4094.358887,4103.589844,4231.794922,16209.000000,4.000000,91.000000,,,,0.000000,4.000000,4.000000,4.000000,4.000000,4.000000,100.000000,,,,,,,,,,,,,,,,,,,,,,,,,,,,,,,,,,,,,,,,,,,,,,,,,,,,,,,,,,,,,,,
1656264293.310498,69.000000,0.000000,4263.077148,4247.692383,4116.922852,4105.128418,4227.692383,450.000000,4.000000,91.000000,,,,0.000000,4.000000,4.000000,4.000000,4.000000,4.000000,100.000000,,,,,,,,,,,,,,,,,,,,,,,,,,,,,,,,,,,,,,,,,,,,,,,,,,,,,,,,,,,,,,,
1656264293.318412,70.000000,0.000000,4281.025879,4204.102539,4114.358887,4106.153809,4199.487305,16178.000000,4.000000,91.000000,,,,0.000000,4.000000,4.000000,4.000000,4.000000,4.000000,100.000000,,,,,,,,,,,,,,,,,,,,,,,,,,,,,,,,,,,,,,,,,,,,,,,,,,,,,,,,,,,,,,,
1656264293.326227,71.000000,0.000000,4275.897461,4187.179688,4096.410156,4096.922852,4194.871582,450.000000,4.000000,91.000000,,,,0.000000,4.000000,4.000000,4.000000,4.000000,4.000000,100.000000,,,,,,,,,,,,,,,,,,,,,,,,,,,,,,,,,,,,,,,,,,,,,,,,,,,,,,,,,,,,,,,
1656264293.334141,72.000000,0.000000,4272.820313,4215.384766,4082.051270,4098.461426,4222.563965,450.000000,4.000000,91.000000,,,,0.000000,4.000000,4.000000,4.000000,4.000000,4.000000,100.000000,,,,,,,,,,,,,,,,,,,,,,,,,,,,,,,,,,,,,,,,,,,,,,,,,,,,,,,,,,,,,,,
1656264293.341955,73.000000,0.000000,4277.948730,4231.794922,4073.846191,4109.230957,4229.230957,16208.000000,4.000000,91.000000,,,,0.000000,4.000000,4.000000,4.000000,4.000000,4.000000,100.000000,,,,,,,,,,,,,,,,,,,,,,,,,,,,,,,,,,,,,,,,,,,,,,,,,,,,,,,,,,,,,,,
1656264293.349870,74.000000,0.000000,4288.717773,4227.692383,4095.384521,4130.256348,4222.563965,450.000000,4.000000,91.000000,,,,0.000000,4.000000,4.000000,4.000000,4.000000,4.000000,100.000000,,,,,,,,,,,,,,,,,,,,,,,,,,,,,,,,,,,,,,,,,,,,,,,,,,,,,,,,,,,,,,,
1656264293.357684,75.000000,0.000000,4284.615234,4226.153809,4123.589844,4127.179688,4220.512695,16195.000000,4.000000,91.000000,,,,0.000000,4.000000,4.000000,4.000000,4.000000,4.000000,100.000000,,,,,,,,,,,,,,,,,,,,,,,,,,,,,,,,,,,,,,,,,,,,,,,,,,,,,,,,,,,,,,,
1656264293.365598,76.000000,0.000000,4266.666504,4225.641113,4131.282227,4093.333252,4211.794922,450.000000,4.000000,91.000000,,,,0.000000,4.000000,4.000000,4.000000,4.000000,4.000000,100.000000,,,,,,,,,,,,,,,,,,,,,,,,,,,,,,,,,,,,,,,,,,,,,,,,,,,,,,,,,,,,,,,
1656264293.373413,77.000000,0.000000,4268.205078,4231.794922,4135.384766,4092.820557,4212.820313,450.000000,4.000000,91.000000,,,,0.000000,4.000000,4.000000,4.000000,4.000000,4.000000,100.000000,,,,,,,,,,,,,,,,,,,,,,,,,,,,,,,,,,,,,,,,,,,,,,,,,,,,,,,,,,,,,,,
1656264293.381327,78.000000,0.000000,4277.948730,4233.333496,4142.563965,4114.358887,4214.358887,450.000000,4.000000,91.000000,,,,0.000000,4.000000,4.000000,4.000000,4.000000,4.000000,100.000000,,,,,,,,,,,,,,,,,,,,,,,,,,,,,,,,,,,,,,,9.725094,11.684128,2.308891,1.393744,1.021915,7.473731,2.322278,2.140465,2.131467,1.534516,8.528246,8.337223,5.790586,1.803012,1.445998,2.377372,4.588155,2.811433,1.155295,1.244224,12.097243,3.922406,6.092690,1.793281,1.097328
1656264293.389141,79.000000,0.000000,4270.769043,4237.436035,4141.538574,4100.512695,4212.307617,16195.000000,4.000000,91.000000,,,,0.000000,4.000000,4.000000,4.000000,4.000000,4.000000,100.000000,,,,,,,,,,,,,,,,,,,,,,,,,,,,,,,,,,,,,,,,,,,,,,,,,,,,,,,,,,,,,,,
1656264293.397056,80.000000,0.000000,4254.358887,4260.000000,4129.743652,4079.487061,4229.743652,450.000000,4.000000,91.000000,,,,0.000000,4.000000,4.000000,4.000000,4.000000,4.000000,100.000000,,,,,,,,,,,,,,,,,,,,,,,,,,,,,,,,,,,,,,,,,,,,,,,,,,,,,,,,,,,,,,,
1656264293.404870,81.000000,0.000000,4258.974121,4266.153809,4129.230957,4093.846191,4245.128418,450.000000,4.000000,91.000000,,,,0.000000,4.000000,4.000000,4.000000,4.000000,4.000000,100.000000,,,,,,,,,,,,,,,,,,,,,,,,,,,,,,,,,,,,,,,,,,,,,,,,,,,,,,,,,,,,,,,
1656264293.412585,82.000000,0.000000,4271.282227,4262.051270,4127.179688,4109.230957,4237.948730,450.000000,4.000000,91.000000,,,,0.000000,4.000000,4.000000,4.000000,4.000000,4.000000,100.000000,,,,,,,,,,,,,,,,,,,,,,,,,,,,,,,,,,,,,,,,,,,,,,,,,,,,,,,,,,,,,,,
1656264293.420499,83.000000,0.000000,4252.307617,4260.000000,4098.974121,4100.512695,4230.769043,16195.000000,4.000000,91.000000,,,,0.000000,4.000000,4.000000,4.000000,4.000000,4.000000,100.000000,,,,,,,,,,,,,,,,,,,,,,,,,,,,,,,,,,,,,,,,,,,,,,,,,,,,,,,,,,,,,,,
1656264293.428313,84.000000,0.000000,4245.128418,4233.846191,4089.743652,4095.897461,4230.769043,450.000000,4.000000,91.000000,,,,0.000000,4.000000,4.000000,4.000000,4.000000,4.000000,100.000000,,,,,,,,,,,,,,,,,,,,,,,,,,,,,,,,,,,,,,,,,,,,,,,,,,,,,,,,,,,,,,,
1656264293.436228,85.000000,0.000000,4268.717773,4200.512695,4110.769043,4101.025879,4221.538574,450.000000,4.000000,91.000000,,,,0.000000,4.000000,4.000000,4.000000,4.000000,4.000000,100.000000,,,,,,,,,,,,,,,,,,,,,,,,,,,,,,,,,,,,,,,,,,,,,,,,,,,,,,,,,,,,,,,
1656264293.444042,86.000000,0.000000,4273.333496,4206.666504,4117.948730,4103.589844,4215.897461,450.000000,4.000000,91.000000,,,,0.000000,4.000000,4.000000,4.000000,4.000000,4.000000,100.000000,,,,,,,,,,,,,,,,,,,,,,,,,,,,,,,,,,,,,,,,,,,,,,,,,,,,,,,,,,,,,,,
1656264293.451956,87.000000,0.000000,4268.205078,4237.436035,4117.948730,4117.436035,4234.358887,16195.000000,4.000000,91.000000,,,,0.000000,4.000000,4.000000,4.000000,4.000000,4.000000,100.000000,,,,,,,,,,,,,,,,,,,,,,,,,,,,,,,,,,,,,,,,,,,,,,,,,,,,,,,,,,,,,,,
1656264293.459771,88.000000,0.000000,4280.512695,4213.333496,4131.794922,4125.128418,4229.230957,450.000000,4.000000,91.000000,,,,0.000000,4.000000,4.000000,4.000000,4.000000,4.000000,100.000000,,,,,,,,,,,,,,,,,,,,,,,,,,,,,,,,,,,,,,,,,,,,,,,,,,,,,,,,,,,,,,,
1656264293.467685,89.000000,0.000000,4276.410156,4183.589844,4137.948730,4104.102539,4204.615234,450.000000,4.000000,91.000000,,,,0.000000,4.000000,4.000000,4.000000,4.000000,4.000000,100.000000,,,,,,,,,,,,,,,,,,,,,,,,,,,,,,,,,,,,,,,,,,,,,,,,,,,,,,,,,,,,,,,
1656264293.475499,90.000000,0.000000,4253.333496,4222.563965,4118.974121,4096.410156,4215.897461,450.000000,4.000000,91.000000,,,,0.000000,4.000000,4.000000,4.000000,4.000000,4.000000,100.000000,,,,,,,,,,,,,,,,,,,,,,,,,,,,,,,,,,,,,,,,,,,,,,,,,,,,,,,,,,,,,,,
1656264293.483414,91.000000,0.000000,4262.563965,4251.282227,4094.871826,4103.589844,4240.000000,16195.000000,4.000000,91.000000,,,,0.000000,4.000000,4.000000,4.000000,4.000000,4.000000,100.000000,,,,,,,,,,,,,,,,,,,,,,,,,,,,,,,,,,,,,,,,,,,,,,,,,,,,,,,,,,,,,,,
1656264293.491228,92.000000,0.000000,4288.205078,4240.000000,4100.512695,4092.307617,4237.948730,450.000000,4.000000,91.000000,,,,0.000000,4.000000,4.000000,4.000000,4.000000,4.000000,100.000000,,,,,,,,,,,,,,,,,,,,,,,,,,,,,,,,,,,,,,,,,,,,,,,,,,,,,,,,,,,,,,,
1656264293.499142,93.000000,0.000000,4267.179688,4242.563965,4133.846191,4070.256348,4215.897461,450.000000,4.000000,91.000000,,,,0.000000,4.000000,4.000000,4.000000,4.000000,4.000000,100.000000,,,,,,,,,,,,,,,,,,,,,,,,,,,,,,,,,,,,,,,,,,,,,,,,,,,,,,,,,,,,,,,
1656264293.506957,94.000000,0.000000,4240.000000,4249.230957,4143.077148,4071.794922,4202.563965,450.000000,4.000000,91.000000,,,,0.000000,4.000000,4.000000,4.000000,4.000000,4.000000,100.000000,,,,,,,,,,,,,,,,,,,,,,,,,,,,,,,,,,,,,,,5.540348,10.198310,2.733949,1.469901,1.127032,7.822279,2.337580,2.602242,2.013254,1.620479,7.251321,6.897654,5.723701,1.555728,1.300942,2.381484,4.170340,3.686184,1.427414,1.173553,11.955127,4.042726,6.833357,2.013609,1.092847
1656264293.514871,95.000000,0.000000,4255.384766,4241.025879,4113.333496,4099.487305,4215.897461,16195.000000,4.000000,91.000000,,,,0.000000,4.000000,4.000000,4.000000,4.000000,4.000000,100.000000,,,,,,,,,,,,,,,,,,,,,,,,,,,,,,,,,,,,,,,,,,,,,,,,,,,,,,,,,,,,,,,
1656264293.522686,96.000000,0.000000,4258.461426,4242.051270,4101.025879,4112.820313,4225.641113,450.000000,4.000000,91.000000,,,,0.000000,4.000000,4.000000,4.000000,4.000000,4.000000,100.000000,,,,,,,,,,,,,,,,,,,,,,,,,,,,,,,,,,,,,,,,,,,,,,,,,,,,,,,,,,,,,,,
1656264293.530600,97.000000,0.000000,4248.717773,4246.666504,4118.974121,4113.333496,4217.948730,450.000000,4.000000,91.000000,,,,0.000000,4.000000,4.000000,4.000000,4.000000,4.000000,100.000000,,,,,,,,,,,,,,,,,,,,,,,,,,,,,,,,,,,,,,,,,,,,,,,,,,,,,,,,,,,,,,,
1656264293.538414,98.000000,0.000000,4271.282227,4238.974121,4108.717773,4130.256348,4230.769043,450.000000,4.000000,91.000000,,,,0.000000,4.000000,4.000000,4.000000,4.000000,4.000000,100.000000,,,,,,,,,,,,,,,,,,,,,,,,,,,,,,,,,,,,,,,,,,,,,,,,,,,,,,,,,,,,,,,
1656264293.546229,99.000000,0.000000,4290.256348,4232.307617,4072.307617,4132.307617,4248.205078,16195.000000,4.000000,91.000000,,,,0.000000,4.000000,4.000000,4.000000,4.000000,4.000000,100.000000,,,,,,,,,,,,,,,,,,,,,,,,,,,,,,,,,,,,,,,,,,,,,,,,,,,,,,,,,,,,,,,
1656264293.554043,100.000000,0.000000,4275.384766,4224.615234,4084.102539,4101.025879,4228.205078,450.000000,4.000000,91.000000,,,,0.000000,4.000000,4.000000,4.000000,4.000000,4.000000,100.000000,,,,,,,,,,,,,,,,,,,,,,,,,,,,,,,,,,,,,,,,,,,,,,,,,,,,,,,,,,,,,,,
1656264293.561758,101.000000,0.000000,4252.820313,4225.641113,4120.512695,4084.615479,4210.769043,450.000000,4.000000,91.000000,,,,0.000000,4.000000,4.000000,4.000000,4.000000,4.000000,100.000000,,,,,,,,,,,,,,,,,,,,,,,,,,,,,,,,,,,,,,,,,,,,,,,,,,,,,,,,,,,,,,,
1656264293.569672,102.000000,0.000000,4263.077148,4243.077148,4127.692383,4103.589844,4231.794922,450.000000,4.000000,91.000000,,,,0.000000,4.000000,4.000000,4.000000,4.000000,4.000000,100.000000,,,,,,,,,,,,,,,,,,,,,,,,,,,,,,,,,,,,,,,,,,,,,,,,,,,,,,,,,,,,,,,
1656264293.577486,103.000000,0.000000,4296.922852,4236.922852,4124.615234,4117.436035,4241.538574,16195.000000,4.000000,91.000000,,,,0.000000,4.000000,4.000000,4.000000,4.000000,4.000000,100.000000,,,,,,,,,,,,,,,,,,,,,,,,,,,,,,,,,,,,,,,,,,,,,,,,,,,,,,,,,,,,,,,
1656264293.585401,104.000000,0.000000,4304.102539,4210.256348,4121.025879,4104.102539,4238.461426,450.000000,4.000000,91.000000,,,,0.000000,4.000000,4.000000,4.000000,4.000000,4.000000,100.000000,,,,,,,,,,,,,,,,,,,,,,,,,,,,,,,,,,,,,,,,,,,,,,,,,,,,,,,,,,,,,,,
1656264293.593215,105.000000,0.000000,4293.333496,4226.666504,4118.461426,4087.692383,4252.820313,450.000000,4.000000,91.000000,,,,0.000000,4.000000,4.000000,4.000000,4.000000,4.000000,100.000000,,,,,,,,,,,,,,,,,,,,,,,,,,,,,,,,,,,,,,,,,,,,,,,,,,,,,,,,,,,,,,,
1656264293.601129,106.000000,0.000000,4280.512695,4254.871582,4120.512695,4087.179443,4246.153809,450.000000,4.000000,91.000000,,,,0.000000,4.000000,4.000000,4.000000,4.000000,4.000000,100.000000,,,,,,,,,,,,,,,,,,,,,,,,,,,,,,,,,,,,,,,,,,,,,,,,,,,,,,,,,,,,,,,
1656264293.608944,107.000000,0.000000,4267.179688,4244.102539,4126.666504,4107.179688,4230.256348,16195.000000,4.000000,91.000000,,,,0.000000,4.000000,4.000000,4.000000,4.000000,4.000000,100.000000,,,,,,,,,,,,,,,,,,,,,,,,,,,,,,,,,,,,,,,,,,,,,,,,,,,,,,,,,,,,,,,
1656264293.616858,108.000000,0.000000,4271.794922,4238.974121,4118.974121,4124.102539,4245.128418,450.000000,4.000000,91.000000,,,,0.000000,4.000000,4.000000,4.000000,4.000000,4.000000,100.000000,,,,,,,,,,,,,,,,,,,,,,,,,,,,,,,,,,,,,,,,,,,,,,,,,,,,,,,,,,,,,,,
1656264293.624672,109.000000,0.000000,4275.384766,4251.794922,4104.615234,4118.974121,4248.205078,450.000000,4.000000,91.000000,,,,0.000000,4.000000,4.000000,4.000000,4.000000,4.000000,100.000000,,,,,,,,,,,,,,,,,,,,,,,,,,,,,,,,,,,,,,,,,,,,,,,,,,,,,,,,,,,,,,,
1656264293.632587,110.000000,0.000000,4262.051270,4247.179688,4096.410156,4117.948730,4228.205078,450.000000,4.000000,91.000000,,,,0.000000,4.000000,4.000000,4.000000,4.000000,4.000000,100.000000,,,,,,,,,,,,,,,,,,,,,,,,,,,,,,,,,,,,,,,3.947531,8.935295,3.619928,1.798226,1.326108,7.903319,2.270880,3.154212,1.902051,1.747922,6.914738,5.309721,5.355768,1.588015,1.265916,2.428962,4.014602,4.823038,1.988669,1.181477,12.557003,4.018941,7.475895,2.360480,1.134685
1656264293.640401,111.000000,0.000000,4262.051270,4223.589844,4072.820557,4127.692383,4217.436035,16195.000000,4.000000,91.000000,,,,0.000000,4.000000,4.000000,4.000000,4.000000,4.000000,100.000000,,,,,,,,,,,,,,,,,,,,,,,,,,,,,,,,,,,,,,,,,,,,,,,,,,,,,,,,,,,,,,,
1656264293.648315,112.000000,0.000000,4278.461426,4221.025879,4076.923096,4131.282227,4223.077148,450.000000,4.000000,91.000000,,,,0.000000,4.000000,4.000000,4.000000,4.000000,4.000000,100.000000,,,,,,,,,,,,,,,,,,,,,,,,,,,,,,,,,,,,,,,,,,,,,,,,,,,,,,,,,,,,,,,
1656264293.656130,113.000000,0.000000,4291.794922,4229.743652,4115.897461,4124.102539,4230.769043,450.000000,4.000000,91.000000,,,,0.000000,4.000000,4.000000,4.000000,4.000000,4.000000,100.000000,,,,,,,,,,,,,,,,,,,,,,,,,,,,,,,,,,,,,,,,,,,,,,,,,,,,,,,,,,,,,,,
1656264293.664044,114.000000,0.000000,4289.230957,4224.102539,4134.871582,4110.769043,4220.512695,450.000000,4.000000,91.000000,,,,0.000000,4.000000,4.000000,4.000000,4.000000,4.000000,100.000000,,,,,,,,,,,,,,,,,,,,,,,,,,,,,,,,,,,,,,,,,,,,,,,,,,,,,,,,,,,,,,,
1656264293.671859,115.000000,0.000000,4277.948730,4231.282227,4129.743652,4113.333496,4204.615234,16195.000000,4.000000,91.000000,,,,0.000000,4.000000,4.000000,4.000000,4.000000,4.000000,100.000000,,,,,,,,,,,,,,,,,,,,,,,,,,,,,,,,,,,,,,,,,,,,,,,,,,,,,,,,,,,,,,,
1656264293.679773,116.000000,0.000000,4277.948730,4236.410156,4109.230957,4131.282227,4213.333496,450.000000,4.000000,91.000000,,,,0.000000,4.000000,4.000000,4.000000,4.000000,4.000000,100.000000,,,,,,,,,,,,,,,,,,,,,,,,,,,,,,,,,,,,,,,,,,,,,,,,,,,,,,,,,,,,,,,
1656264293.687587,117.000000,0.000000,4293.846191,4222.563965,4102.563965,4149.743652,4241.025879,450.000000,4.000000,91.000000,,,,0.000000,4.000000,4.000000,4.000000,4.000000,4.000000,100.000000,,,,,,,,,,,,,,,,,,,,,,,,,,,,,,,,,,,,,,,,,,,,,,,,,,,,,,,,,,,,,,,
1656264293.695502,118.000000,0.000000,4292.820313,4238.461426,4115.384766,4145.128418,4254.358887,450.000000,4.000000,91.000000,,,,0.000000,4.000000,4.000000,4.000000,4.000000,4.000000,100.000000,,,,,,,,,,,,,,,,,,,,,,,,,,,,,,,,,,,,,,,,,,,,,,,,,,,,,,,,,,,,,,,
1656264293.703316,119.000000,0.000000,4264.102539,4265.641113,4108.717773,4104.615234,4233.333496,16195.000000,4.000000,91.000000,,,,0.000000,4.000000,4.000000,4.000000,4.000000,4.000000,100.000000,,,,,,,,,,,,,,,,,,,,,,,,,,,,,,,,,,,,,,,,,,,,,,,,,,,,,,,,,,,,,,,
1656264293.711130,120.000000,0.000000,4259.487305,4252.820313,4075.897461,4086.666748,4211.282227,450.000000,4.000000,91.000000,,,,0.000000,4.000000,4.000000,4.000000,4.000000,4.000000,100.000000,,,,,,,,,,,,,,,,,,,,,,,,,,,,,,,,,,,,,,,,,,,,,,,,,,,,,,,,,,,,,,,
1656264293.718845,121.000000,0.000000,4271.282227,4241.025879,4049.230713,4113.846191,4226.153809,450.000000,4.000000,91.000000,,,,0.000000,4.000000,4.000000,4.000000,4.000000,4.000000,100.000000,,,,,,,,,,,,,,,,,,,,,,,,,,,,,,,,,,,,,,,,,,,,,,,,,,,,,,,,,,,,,,,
1656264293.726659,122.000000,0.000000,4264.102539,4257.436035,4054.358887,4134.358887,4244.102539,450.000000,4.000000,91.000000,,,,0.000000,4.000000,4.000000,4.000000,4.000000,4.000000,100.000000,,,,,,,,,,,,,,,,,,,,,,,,,,,,,,,,,,,,,,,,,,,,,,,,,,,,,,,,,,,,,,,
1656264293.734574,123.000000,0.000000,4264.615234,4236.410156,4082.564209,4121.025879,4222.051270,16195.000000,4.000000,91.000000,,,,0.000000,4.000000,4.000000,4.000000,4.000000,4.000000,100.000000,,,,,,,,,,,,,,,,,,,,,,,,,,,,,,,,,,,,,,,,,,,,,,,,,,,,,,,,,,,,,,,
1656264293.742388,124.000000,0.000000,4284.615234,4189.230957,4103.077148,4102.051270,4198.461426,450.000000,4.000000,91.000000,,,,0.000000,4.000000,4.000000,4.000000,4.000000,4.000000,100.000000,,,,,,,,,,,,,,,,,,,,,,,,,,,,,,,,,,,,,,,,,,,,,,,,,,,,,,,,,,,,,,,
1656264293.750302,125.000000,0.000000,4289.743652,4203.589844,4112.820313,4103.589844,4217.948730,450.000000,4.000000,91.000000,,,,0.000000,4.000000,4.000000,4.000000,4.000000,4.000000,100.000000,,,,,,,,,,,,,,,,,,,,,,,,,,,,,,,,,,,,,,,,,,,,,,,,,,,,,,,,,,,,,,,
1656264293.758117,126.000000,0.000000,4262.563965,4247.692383,4125.641113,4094.358887,4231.282227,450.000000,4.000000,91.000000,,,,0.000000,4.000000,4.000000,4.000000,4.000000,4.000000,100.000000,1.000000,100.000000,4.000000,4.000000,4.000000,4.000000,4.000000,,,,,,,,,,,,,,,,,,,,,,,,,,,,,,,,3.630616,8.174714,4.801971,2.309331,1.589574,7.746621,2.269392,3.620644,1.816173,1.894846,7.418176,3.950960,4.804411,1.903237,1.360122,2.501351,4.363645,6.101943,2.788526,1.276691,12.935285,3.866842,7.949508,2.755196,1.235275
1656264293.765931,127.000000,0.000000,4240.512695,4247.692383,4129.743652,4081.025635,4209.230957,242.000000,4.000000,91.000000,,,,0.000000,4.000000,4.000000,4.000000,4.000000,4.000000,100.000000,,,,,,,,,,,,,,,,,,,,,,,,,,,,,,,,,,,,,,,,,,,,,,,,,,,,,,,,,,,,,,,
1656264293.773646,0.000000,0.000000,4238.461426,4230.769043,4119.487305,4090.769287,4194.358887,450.000000,4.000000,91.000000,,,,0.000000,4.000000,4.000000,4.000000,4.000000,4.000000,100.000000,,,,,,,,,,,,,,,,,,,,,,,,,,,,,,,,,,,,,,,,,,,,,,,,,,,,,,,,,,,,,,,
1656264293.781460,1.000000,0.000000,4243.589844,4224.615234,4100.000000,4093.333252,4191.794922,450.000000,4.000000,91.000000,,,,0.000000,4.000000,4.000000,4.000000,4.000000,4.000000,100.000000,,,,,,,,,,,,,,,,,,,,,,,,,,,,,,,,,,,,,,,,,,,,,,,,,,,,,,,,,,,,,,,
1656264293.789175,2.000000,0.000000,4266.666504,4242.563965,4096.410156,4100.000000,4205.641113,16181.000000,4.000000,91.000000,,,,0.000000,4.000000,4.000000,4.000000,4.000000,4.000000,100.000000,,,,,,,,,,,,,,,,,,,,,,,,,,,,,,,,,,,,,,,,,,,,,,,,,,,,,,,,,,,,,,,
1656264293.797089,3.000000,0.000000,4284.102539,4258.974121,4116.922852,4126.153809,4224.102539,450.000000,4.000000,91.000000,,,,0.000000,4.000000,4.000000,4.000000,4.000000,4.000000,100.000000,,,,,,,,,,,,,,,,,,,,,,,,,,,,,,,,,,,,,,,,,,,,,,,,,,,,,,,,,,,,,,,
1656264293.804903,4.000000,0.000000,4265.128418,4241.538574,4127.692383,4115.897461,4204.615234,16153.000000,4.000000,91.000000,,,,0.000000,4.000000,4.000000,4.000000,4.000000,4.000000,100.000000,,,,,,,,,,,,,,,,,,,,,,,,,,,,,,,,,,,,,,,,,,,,,,,,,,,,,,,,,,,,,,,
1656264293.812818,5.000000,0.000000,4262.563965,4233.333496,4105.641113,4100.512695,4200.000000,450.000000,4.000000,91.000000,,,,0.000000,4.000000,4.000000,4.000000,4.000000,4.000000,100.000000,,,,,,,,,,,,,,,,,,,,,,,,,,,,,,,,,,,,,,,,,,,,,,,,,,,,,,,,,,,,,,,
1656264293.820632,6.000000,0.000000,4283.077148,4252.307617,4055.897461,4127.692383,4251.282227,16170.000000,4.000000,91.000000,,,,0.000000,4.000000,4.000000,4.000000,4.000000,4.000000,100.000000,,,,,,,,,,,,,,,,,,,,,,,,,,,,,,,,,,,,,,,,,,,,,,,,,,,,,,,,,,,,,,,
1656264293.828546,7.000000,0.000000,4286.666504,4261.025879,4053.333252,4139.487305,4271.794922,450.000000,4.000000,91.000000,,,,0.000000,4.000000,4.000000,4.000000,4.000000,4.000000,100.000000,,,,,,,,,,,,,,,,,,,,,,,,,,,,,,,,,,,,,,,,,,,,,,,,,,,,,,,,,,,,,,,
1656264293.836361,8.000000,0.000000,4271.794922,4243.077148,4113.846191,4117.948730,4222.563965,450.000000,4.000000,91.000000,,,,0.000000,4.000000,4.000000,4.000000,4.000000,4.000000,100.000000,,,,,,,,,,,,,,,,,,,,,,,,,,,,,,,,,,,,,,,,,,,,,,,,,,,,,,,,,,,,,,,
1656264293.844175,9.000000,0.000000,4255.384766,4207.179688,4151.794922,4090.256348,4176.410156,16156.000000,4.000000,91.000000,,,,0.000000,4.000000,4.000000,4.000000,4.000000,4.000000,100.000000,,,,,,,,,,,,,,,,,,,,,,,,,,,,,,,,,,,,,,,,,,,,,,,,,,,,,,,,,,,,,,,
1656264293.851890,10.000000,0.000000,4264.615234,4213.846191,4139.487305,4087.692383,4196.410156,450.000000,4.000000,91.000000,,,,0.000000,4.000000,4.000000,4.000000,4.000000,4.000000,100.000000,,,,,,,,,,,,,,,,,,,,,,,,,,,,,,,,,,,,,,,,,,,,,,,,,,,,,,,,,,,,,,,
1656264293.859804,11.000000,0.000000,4270.769043,4261.025879,4128.717773,4114.358887,4238.461426,16224.000000,4.000000,91.000000,,,,0.000000,4.000000,4.000000,4.000000,4.000000,4.000000,100.000000,,,,,,,,,,,,,,,,,,,,,,,,,,,,,,,,,,,,,,,,,,,,,,,,,,,,,,,,,,,,,,,
1656264293.867618,12.000000,0.000000,4265.641113,4262.051270,4150.769043,4120.512695,4238.974121,450.000000,4.000000,91.000000,,,,0.000000,4.000000,4.000000,4.000000,4.000000,4.000000,100.000000,,,,,,,,,,,,,,,,,,,,,,,,,,,,,,,,,,,,,,,,,,,,,,,,,,,,,,,,,,,,,,,
1656264293.875433,13.000000,0.000000,4271.282227,4251.282227,4143.077148,4117.436035,4235.897461,450.000000,4.000000,91.000000,,,,0.000000,4.000000,4.000000,4.000000,4.000000,4.000000,100.000000,,,,,,,,,,,,,,,,,,,,,,,,,,,,,,,,,,,,,,,,,,,,,,,,,,,,,,,,,,,,,,,
1656264293.883247,14.000000,0.000000,4264.615234,4266.666504,4111.282227,4125.128418,4243.589844,450.000000,4.000000,91.000000,,,,0.000000,4.000000,4.000000,4.000000,4.000000,4.000000,100.000000,,,,,,,,,,,,,,,,,,,,,,,,,,,,,,,,,,,,,,,3.681032,7.984827,5.929533,2.853234,1.861724,7.413181,2.522190,3.844745,1.762675,2.029693,8.405334,3.164645,4.261307,2.408378,1.544039,2.573422,5.218228,7.250467,3.630921,1.433048,12.542933,3.657489,8.106010,3.086410,1.377368
1656264293.891161,15.000000,0.000000,4261.025879,4258.974121,4114.358887,4125.641113,4235.897461,16224.000000,4.000000,91.000000,,,,0.000000,4.000000,4.000000,4.000000,4.000000,4.000000,100.000000,,,,,,,,,,,,,,,,,,,,,,,,,,,,,,,,,,,,,,,,,,,,,,,,,,,,,,,,,,,,,,,
1656264293.898976,16.000000,0.000000,4276.922852,4244.615234,4103.589844,4117.948730,4231.794922,0.000000,4.000000,91.000000,,,,0.000000,4.000000,4.000000,4.000000,4.000000,4.000000,100.000000,,,,,,,,,,,,,,,,,,,,,,,,,,,,,,,,,,,,,,,,,,,,,,,,,,,,,,,,,,,,,,,
1656264293.906690,17.000000,0.000000,4285.128418,4250.769043,4074.358887,4120.512695,4238.974121,0.000000,4.000000,91.000000,,,,0.000000,4.000000,4.000000,4.000000,4.000000,4.000000,100.000000,,,,,,,,,,,,,,,,,,,,,,,,,,,,,,,,,,,,,,,,,,,,,,,,,,,,,,,,,,,,,,,
1656264293.914505,18.000000,0.000000,4289.230957,4257.948730,4089.230713,4131.282227,4244.102539,0.000000,4.000000,91.000000,,,,0.000000,4.000000,4.000000,4.000000,4.000000,4.000000,100.000000,,,,,,,,,,,,,,,,,,,,,,,,,,,,,,,,,,,,,,,,,,,,,,,,,,,,,,,,,,,,,,,
1656264293.922219,19.000000,0.000000,4280.000000,4254.871582,4101.538574,4112.820313,4236.922852,0.000000,4.000000,91.000000,,,,0.000000,4.000000,4.000000,4.000000,4.000000,4.000000,100.000000,,,,,,,,,,,,,,,,,,,,,,,,,,,,,,,,,,,,,,,,,,,,,,,,,,,,,,,,,,,,,,,
1656264293.930134,20.000000,0.000000,4261.025879,4254.358887,4093.333252,4091.794922,4232.820313,0.000000,4.000000,91.000000,,,,0.000000,4.000000,4.000000,4.000000,4.000000,4.000000,100.000000,,,,,,,,,,,,,,,,,,,,,,,,,,,,,,,,,,,,,,,,,,,,,,,,,,,,,,,,,,,,,,,
1656264293.937948,21.000000,0.000000,4283.077148,4248.205078,4134.358887,4111.794922,4226.666504,0.000000,4.000000,91.000000,,,,0.000000,4.000000,4.000000,4.000000,4.000000,4.000000,100.000000,,,,,,,,,,,,,,,,,,,,,,,,,,,,,,,,,,,,,,,,,,,,,,,,,,,,,,,,,,,,,,,
1656264293.945762,22.000000,0.000000,4309.743652,4244.102539,4169.743652,4148.205078,4226.666504,0.000000,4.000000,91.000000,,,,0.000000,4.000000,4.000000,4.000000,4.000000,4.000000,100.000000,,,,,,,,,,,,,,,,,,,,,,,,,,,,,,,,,,,,,,,,,,,,,,,,,,,,,,,,,,,,,,,
1656264293.953477,23.000000,0.000000,4270.256348,4250.256348,4152.307617,4133.333496,4224.102539,0.000000,4.000000,91.000000,,,,0.000000,4.000000,4.000000,4.000000,4.000000,4.000000,100.000000,,,,,,,,,,,,,,,,,,,,,,,,,,,,,,,,,,,,,,,,,,,,,,,,,,,,,,,,,,,,,,,
1656264293.961391,24.000000,0.000000,4222.563965,4247.179688,4146.666504,4085.641113,4188.717773,0.000000,4.000000,91.000000,,,,0.000000,4.000000,4.000000,4.000000,4.000000,4.000000,100.000000,,,,,,,,,,,,,,,,,,,,,,,,,,,,,,,,,,,,,,,,,,,,,,,,,,,,,,,,,,,,,,,
1656264293.969206,25.000000,0.000000,4235.384766,4245.641113,4144.102539,4080.512939,4186.153809,0.000000,4.000000,91.000000,,,,0.000000,4.000000,4.000000,4.000000,4.000000,4.000000,100.000000,,,,,,,,,,,,,,,,,,,,,,,,,,,,,,,,,,,,,,,,,,,,,,,,,,,,,,,,,,,,,,,
1656264293.977120,26.000000,0.000000,4253.333496,4253.333496,4126.153809,4083.589844,4217.436035,0.000000,4.000000,91.000000,,,,0.000000,4.000000,4.000000,4.000000,4.000000,4.000000,100.000000,,,,,,,,,,,,,,,,,,,,,,,,,,,,,,,,,,,,,,,,,,,,,,,,,,,,,,,,,,,,,,,
1656264293.984934,27.000000,0.000000,4244.102539,4242.051270,4122.563965,4063.589844,4203.589844,0.000000,4.000000,91.000000,,,,0.000000,4.000000,4.000000,4.000000,4.000000,4.000000,100.000000,,,,,,,,,,,,,,,,,,,,,,,,,,,,,,,,,,,,,,,,,,,,,,,,,,,,,,,,,,,,,,,
1656264293.992849,28.000000,0.000000,4253.846191,4227.692383,4102.051270,4075.384521,4199.487305,0.000000,4.000000,91.000000,,,,0.000000,4.000000,4.000000,4.000000,4.000000,4.000000,100.000000,,,,,,,,,,,,,,,,,,,,,,,,,,,,,,,,,,,,,,,,,,,,,,,,,,,,,,,,,,,,,,,
1656264294.000663,29.000000,0.000000,4272.307617,4249.743652,4050.769287,4108.717773,4244.615234,0.000000,4.000000,91.000000,,,,0.000000,4.000000,4.000000,4.000000,4.000000,4.000000,100.000000,,,,,,,,,,,,,,,,,,,,,,,,,,,,,,,,,,,,,,,,,,,,,,,,,,,,,,,,,,,,,,,
1656264294.008577,30.000000,0.000000,4263.589844,4281.538574,4043.076904,4111.794922,4255.384766,0.000000,4.000000,91.000000,,,,0.000000,4.000000,4.000000,4.000000,4.000000,4.000000,100.000000,,,,,,,,,,,,,,,,,,,,,,,,,,,,,,,,,,,,,,,3.834626,8.168957,6.678527,3.264945,2.074650,6.958714,3.098413,3.749323,1.738038,2.127741,9.365409,3.194596,3.945597,2.971590,1.742166,2.630306,6.282564,7.933777,4.270514,1.603337,11.504990,3.409404,7.797270,3.242467,1.529180
1656264294.016392,31.000000,0.000000,4265.128418,4261.538574,4077.435791,4096.922852,4210.256348,0.000000,4.000000,91.000000,,,,0.000000,4.000000,4.000000,4.000000,4.000000,4.000000,100.000000,,,,,,,,,,,,,,,,,,,,,,,,,,,,,,,,,,,,,,,,,,,,,,,,,,,,,,,,,,,,,,,
1656264294.024306,32.000000,0.000000,4281.025879,4205.128418,4090.769287,4091.281982,4186.666504,0.000000,4.000000,91.000000,,,,0.000000,4.000000,4.000000,4.000000,4.000000,4.000000,100.000000,,,,,,,,,,,,,,,,,,,,,,,,,,,,,,,,,,,,,,,,,,,,,,,,,,,,,,,,,,,,,,,
1656264294.032121,33.000000,0.000000,4273.333496,4205.641113,4090.769287,4091.794922,4207.692383,0.000000,4.000000,91.000000,,,,0.000000,4.000000,4.000000,4.000000,4.000000,4.000000,100.000000,,,,,,,,,,,,,,,,,,,,,,,,,,,,,,,,,,,,,,,,,,,,,,,,,,,,,,,,,,,,,,,
1656264294.040035,34.000000,0.000000,4256.922852,4261.538574,4094.871826,4100.512695,4230.769043,0.000000,4.000000,91.000000,,,,0.000000,4.000000,4.000000,4.000000,4.000000,4.000000,100.000000,,,,,,,,,,,,,,,,,,,,,,,,,,,,,,,,,,,,,,,,,,,,,,,,,,,,,,,,,,,,,,,
1656264294.047849,35.000000,0.000000,4256.922852,4267.692383,4102.051270,4106.666504,4225.641113,0.000000,4.000000,91.000000,,,,0.000000,4.000000,4.000000,4.000000,4.000000,4.000000,100.000000,,,,,,,,,,,,,,,,,,,,,,,,,,,,,,,,,,,,,,,,,,,,,,,,,,,,,,,,,,,,,,,
1656264294.055764,36.000000,0.000000,4258.461426,4242.563965,4121.025879,4107.692383,4217.436035,0.000000,4.000000,91.000000,,,,0.000000,4.000000,4.000000,4.000000,4.000000,4.000000,100.000000,,,,,,,,,,,,,,,,,,,,,,,,,,,,,,,,,,,,,,,,,,,,,,,,,,,,,,,,,,,,,,,
1656264294.063578,37.000000,0.000000,4254.358887,4262.563965,4146.666504,4092.820557,4227.179688,0.000000,4.000000,91.000000,,,,0.000000,4.000000,4.000000,4.000000,4.000000,4.000000,100.000000,,,,,,,,,,,,,,,,,,,,,,,,,,,,,,,,,,,,,,,,,,,,,,,,,,,,,,,,,,,,,,,
1656264294.071492,38.000000,0.000000,4266.153809,4280.512695,4153.846191,4086.666748,4232.307617,0.000000,4.000000,91.000000,,,,0.000000,4.000000,4.000000,4.000000,4.000000,4.000000,100.000000,,,,,,,,,,,,,,,,,,,,,,,,,,,,,,,,,,,,,,,,,,,,,,,,,,,,,,,,,,,,,,,
1656264294.079307,39.000000,0.000000,4277.948730,4254.871582,4121.538574,4114.871582,4236.922852,0.000000,4.000000,91.000000,,,,0.000000,4.000000,4.000000,4.000000,4.000000,4.000000,100.000000,,,,,,,,,,,,,,,,,,,,,,,,,,,,,,,,,,,,,,,,,,,,,,,,,,,,,,,,,,,,,,,
1656264294.087021,40.000000,0.000000,4261.538574,4251.794922,4090.769287,4128.205078,4250.256348,0.000000,4.000000,91.000000,,,,0.000000,4.000000,4.000000,4.000000,4.000000,4.000000,100.000000,,,,,,,,,,,,,,,,,,,,,,,,,,,,,,,,,,,,,,,,,,,,,,,,,,,,,,,,,,,,,,,
1656264294.094836,41.000000,0.000000,4261.025879,4254.871582,4108.205078,4109.743652,4235.384766,0.000000,4.000000,91.000000,,,,0.000000,4.000000,4.000000,4.000000,4.000000,4.000000,100.000000,,,,,,,,,,,,,,,,,,,,,,,,,,,,,,,,,,,,,,,,,,,,,,,,,,,,,,,,,,,,,,,
1656264294.102550,42.000000,0.000000,4283.077148,4215.897461,4129.230957,4111.282227,4202.563965,0.000000,4.000000,91.000000,,,,0.000000,4.000000,4.000000,4.000000,4.000000,4.000000,100.000000,,,,,,,,,,,,,,,,,,,,,,,,,,,,,,,,,,,,,,,,,,,,,,,,,,,,,,,,,,,,,,,
1656264294.110464,43.000000,0.000000,4271.794922,4210.769043,4115.897461,4130.769043,4206.666504,0.000000,4.000000,91.000000,,,,0.000000,4.000000,4.000000,4.000000,4.000000,4.000000,100.000000,,,,,,,,,,,,,,,,,,,,,,,,,,,,,,,,,,,,,,,,,,,,,,,,,,,,,,,,,,,,,,,
1656264294.118279,44.000000,0.000000,4238.461426,4243.589844,4110.769043,4109.230957,4217.436035,0.000000,4.000000,91.000000,,,,0.000000,4.000000,4.000000,4.000000,4.000000,4.000000,100.000000,,,,,,,,,,,,,,,,,,,,,,,,,,,,,,,,,,,,,,,,,,,,,,,,,,,,,,,,,,,,,,,
1656264294.126093,45.000000,0.000000,4234.871582,4234.358887,4121.025879,4078.974365,4204.615234,0.000000,4.000000,91.000000,,,,0.000000,4.000000,4.000000,4.000000,4.000000,4.000000,100.000000,,,,,,,,,,,,,,,,,,,,,,,,,,,,,,,,,,,,,,,,,,,,,,,,,,,,,,,,,,,,,,,
1656264294.133808,46.000000,0.000000,4241.538574,4218.974121,4120.000000,4086.153809,4207.179688,0.000000,4.000000,91.000000,,,,0.000000,4.000000,4.000000,4.000000,4.000000,4.000000,100.000000,,,,,,,,,,,,,,,,,,,,,,,,,,,,,,,,,,,,,,,3.883551,8.411231,6.852487,3.423327,2.171884,6.329517,3.924871,3.366934,1.735324,2.184274,9.788296,4.204515,3.923980,3.463408,1.892074,2.718755,7.152341,7.911434,4.519910,1.739339,9.977922,3.138855,6.972182,3.184924,1.673560
1656264294.141622,47.000000,0.000000,4229.230957,4236.410156,4116.922852,4092.307617,4214.358887,0.000000,4.000000,91.000000,,,,0.000000,4.000000,4.000000,4.000000,4.000000,4.000000,100.000000,,,,,,,,,,,,,,,,,,,,,,,,,,,,,,,,,,,,,,,,,,,,,,,,,,,,,,,,,,,,,,,
1656264294.149337,48.000000,0.000000,4237.436035,4245.128418,4124.615234,4094.358887,4208.205078,0.000000,4.000000,91.000000,,,,0.000000,4.000000,4.000000,4.000000,4.000000,4.000000,100.000000,,,,,,,,,,,,,,,,,,,,,,,,,,,,,,,,,,,,,,,,,,,,,,,,,,,,,,,,,,,,,,,
1656264294.157151,49.000000,0.000000,4254.871582,4233.846191,4120.512695,4105.641113,4207.692383,0.000000,4.000000,91.000000,,,,0.000000,4.000000,4.000000,4.000000,4.000000,4.000000,100.000000,,,,,,,,,,,,,,,,,,,,,,,,,,,,,,,,,,,,,,,,,,,,,,,,,,,,,,,,,,,,,,,
1656264294.164866,50.000000,0.000000,4241.538574,4222.563965,4097.436035,4091.281982,4199.487305,0.000000,4.000000,91.000000,,,,0.000000,4.000000,4.000000,4.000000,4.000000,4.000000,100.000000,,,,,,,,,,,,,,,,,,,,,,,,,,,,,,,,,,,,,,,,,,,,,,,,,,,,,,,,,,,,,,,
1656264294.172780,51.000000,0.000000,4236.410156,4218.974121,4086.153809,4082.051270,4201.025879,0.000000,4.000000,91.000000,,,,0.000000,4.000000,4.000000,4.000000,4.000000,4.000000,100.000000,,,,,,,,,,,,,,,,,,,,,,,,,,,,,,,,,,,,,,,,,,,,,,,,,,,,,,,,,,,,,,,
1656264294.180594,52.000000,0.000000,4246.153809,4226.153809,4079.487061,4103.077148,4228.205078,0.000000,4.000000,91.000000,,,,0.000000,4.000000,4.000000,4.000000,4.000000,4.000000,100.000000,,,,,,,,,,,,,,,,,,,,,,,,,,,,,,,,,,,,,,,,,,,,,,,,,,,,,,,,,,,,,,,
1656264294.188509,53.000000,0.000000,4246.666504,4236.410156,4074.358887,4109.230957,4231.794922,0.000000,4.000000,91.000000,,,,0.000000,4.000000,4.000000,4.000000,4.000000,4.000000,100.000000,,,,,,,,,,,,,,,,,,,,,,,,,,,,,,,,,,,,,,,,,,,,,,,,,,,,,,,,,,,,,,,
1656264294.196323,54.000000,0.000000,4261.538574,4246.153809,4073.846191,4115.897461,4219.487305,0.000000,4.000000,91.000000,,,,0.000000,4.000000,4.000000,4.000000,4.000000,4.000000,100.000000,,,,,,,,,,,,,,,,,,,,,,,,,,,,,,,,,,,,,,,,,,,,,,,,,,,,,,,,,,,,,,,
1656264294.204237,55.000000,0.000000,4282.563965,4255.384766,4073.846191,4128.717773,4232.820313,0.000000,4.000000,91.000000,,,,0.000000,4.000000,4.000000,4.000000,4.000000,4.000000,100.000000,,,,,,,,,,,,,,,,,,,,,,,,,,,,,,,,,,,,,,,,,,,,,,,,,,,,,,,,,,,,,,,
1656264294.212052,56.000000,0.000000,4275.384766,4262.051270,4097.436035,4119.487305,4246.153809,0.000000,4.000000,91.000000,,,,0.000000,4.000000,4.000000,4.000000,4.000000,4.000000,100.000000,,,,,,,,,,,,,,,,,,,,,,,,,,,,,,,,,,,,,,,,,,,,,,,,,,,,,,,,,,,,,,,
1656264294.219966,57.000000,0.000000,4256.410156,4252.307617,4112.307617,4104.102539,4228.717773,0.000000,4.000000,91.000000,,,,0.000000,4.000000,4.000000,4.000000,4.000000,4.000000,100.000000,,,,,,,,,,,,,,,,,,,,,,,,,,,,,,,,,,,,,,,,,,,,,,,,,,,,,,,,,,,,,,,
1656264294.227780,58.000000,0.000000,4250.256348,4233.846191,4090.256348,4101.538574,4210.256348,0.000000,4.000000,91.000000,,,,0.000000,4.000000,4.000000,4.000000,4.000000,4.000000,100.000000,,,,,,,,,,,,,,,,,,,,,,,,,,,,,,,,,,,,,,,,,,,,,,,,,,,,,,,,,,,,,,,
1656264294.235695,59.000000,0.000000,4253.333496,4227.179688,4082.564209,4103.589844,4207.692383,0.000000,4.000000,91.000000,,,,0.000000,4.000000,4.000000,4.000000,4.000000,4.000000,100.000000,,,,,,,,,,,,,,,,,,,,,,,,,,,,,,,,,,,,,,,,,,,,,,,,,,,,,,,,,,,,,,,
1656264294.243509,60.000000,0.000000,4255.384766,4223.077148,4092.820557,4095.897461,4208.717773,0.000000,4.000000,91.000000,,,,0.000000,4.000000,4.000000,4.000000,4.000000,4.000000,100.000000,,,,,,,,,,,,,,,,,,,,,,,,,,,,,,,,,,,,,,,,,,,,,,,,,,,,,,,,,,,,,,,
1656264294.251324,61.000000,0.000000,4263.589844,4229.743652,4085.128174,4100.000000,4218.974121,0.000000,4.000000,91.000000,,,,0.000000,4.000000,4.000000,4.000000,4.000000,4.000000,100.000000,,,,,,,,,,,,,,,,,,,,,,,,,,,,,,,,,,,,,,,,,,,,,,,,,,,,,,,,,,,,,,,
1656264294.259138,62.000000,0.000000,4261.025879,4249.230957,4067.179443,4114.871582,4231.282227,0.000000,4.000000,91.000000,,,,0.000000,4.000000,4.000000,4.000000,4.000000,4.000000,100.000000,1.000000,100.000000,4.000000,4.000000,4.000000,4.000000,4.000000,,,,,,,,,,,,,,,,,,,,,,,,,,,,,,,,3.745270,8.355617,6.423554,3.301617,2.135090,5.494359,4.799706,2.811781,1.750996,2.216172,9.417253,6.395610,4.034305,3.814602,1.970439,2.928966,7.493727,7.195460,4.343887,1.812722,8.280787,2.901545,5.759537,2.968396,1.815316
1656264294.266852,63.000000,0.000000,4245.641113,4250.256348,4066.153809,4104.615234,4229.743652,0.000000,4.000000,91.000000,,,,0.000000,4.000000,4.000000,4.000000,4.000000,4.000000,100.000000,,,,,,,,,,,,,,,,,,,,,,,,,,,,,,,,,,,,,,,,,,,,,,,,,,,,,,,,,,,,,,,
1656264294.274667,64.000000,0.000000,4260.000000,4234.871582,4079.487061,4082.051270,4226.666504,450.000000,4.000000,91.000000,,,,0.000000,4.000000,4.000000,4.000000,4.000000,4.000000,100.000000,,,,,,,,,,,,,,,,,,,,,,,,,,,,,,,,,,,,,,,,,,,,,,,,,,,,,,,,,,,,,,,
1656264294.282381,65.000000,0.000000,4277.436035,4224.615234,4071.794922,4092.307617,4223.077148,450.000000,4.000000,91.000000,,,,0.000000,4.000000,4.000000,4.000000,4.000000,4.000000,100.000000,,,,,,,,,,,,,,,,,,,,,,,,,,,,,,,,,,,,,,,,,,,,,,,,,,,,,,,,,,,,,,,
1656264294.290196,66.000000,0.000000,4260.000000,4232.307617,4050.256348,4113.846191,4217.436035,16206.000000,4.000000,91.000000,,,,0.000000,4.000000,4.000000,4.000000,4.000000,4.000000,100.000000,,,,,,,,,,,,,,,,,,,,,,,,,,,,,,,,,,,,,,,,,,,,,,,,,,,,,,,,,,,,,,,
1656264294.297910,67.000000,0.000000,4233.846191,4237.948730,4054.871826,4101.025879,4209.230957,450.000000,4.000000,91.000000,,,,0.000000,4.000000,4.000000,4.000000,4.000000,4.000000,100.000000,,,,,,,,,,,,,,,,,,,,,,,,,,,,,,,,,,,,,,,,,,,,,,,,,,,,,,,,,,,,,,,
1656264294.305725,68.000000,0.000000,4233.333496,4225.641113,4086.666748,4084.615479,4198.974121,16156.000000,4.000000,91.000000,,,,0.000000,4.000000,4.000000,4.000000,4.000000,4.000000,100.000000,,,,,,,,,,,,,,,,,,,,,,,,,,,,,,,,,,,,,,,,,,,,,,,,,,,,,,,,,,,,,,,
1656264294.313439,69.000000,0.000000,4257.948730,4231.794922,4108.205078,4105.641113,4207.692383,450.000000,4.000000,91.000000,,,,0.000000,4.000000,4.000000,4.000000,4.000000,4.000000,100.000000,,,,,,,,,,,,,,,,,,,,,,,,,,,,,,,,,,,,,,,,,,,,,,,,,,,,,,,,,,,,,,,
1656264294.321254,70.000000,0.000000,4263.589844,4246.666504,4106.153809,4116.922852,4211.794922,16202.000000,4.000000,91.000000,,,,0.000000,4.000000,4.000000,4.000000,4.000000,4.000000,100.000000,,,,,,,,,,,,,,,,,,,,,,,,,,,,,,,,,,,,,,,,,,,,,,,,,,,,,,,,,,,,,,,
1656264294.328968,71.000000,0.000000,4250.256348,4231.794922,4111.794922,4090.769287,4194.871582,450.000000,4.000000,91.000000,,,,0.000000,4.000000,4.000000,4.000000,4.000000,4.000000,100.000000,,,,,,,,,,,,,,,,,,,,,,,,,,,,,,,,,,,,,,,,,,,,,,,,,,,,,,,,,,,,,,,
1656264294.336783,72.000000,0.000000,4252.820313,4221.025879,4120.512695,4082.564209,4198.974121,450.000000,4.000000,91.000000,,,,0.000000,4.000000,4.000000,4.000000,4.000000,4.000000,100.000000,,,,,,,,,,,,,,,,,,,,,,,,,,,,,,,,,,,,,,,,,,,,,,,,,,,,,,,,,,,,,,,
1656264294.344497,73.000000,0.000000,4249.743652,4236.922852,4104.615234,4097.436035,4215.384766,16173.000000,4.000000,91.000000,,,,0.000000,4.000000,4.000000,4.000000,4.000000,4.000000,100.000000,,,,,,,,,,,,,,,,,,,,,,,,,,,,,,,,,,,,,,,,,,,,,,,,,,,,,,,,,,,,,,,
1656264294.352411,74.000000,0.000000,4240.512695,4254.871582,4089.230713,4104.615234,4211.282227,450.000000,4.000000,91.000000,,,,0.000000,4.000000,4.000000,4.000000,4.000000,4.000000,100.000000,,,,,,,,,,,,,,,,,,,,,,,,,,,,,,,,,,,,,,,,,,,,,,,,,,,,,,,,,,,,,,,
1656264294.360226,75.000000,0.000000,4247.179688,4247.692383,4099.487305,4095.384521,4196.410156,16212.000000,4.000000,91.000000,,,,0.000000,4.000000,4.000000,4.000000,4.000000,4.000000,100.000000,,,,,,,,,,,,,,,,,,,,,,,,,,,,,,,,,,,,,,,,,,,,,,,,,,,,,,,,,,,,,,,
1656264294.368040,76.000000,0.000000,4254.871582,4234.358887,4108.205078,4090.769287,4196.922852,450.000000,4.000000,91.000000,,,,0.000000,4.000000,4.000000,4.000000,4.000000,4.000000,100.000000,,,,,,,,,,,,,,,,,,,,,,,,,,,,,,,,,,,,,,,,,,,,,,,,,,,,,,,,,,,,,,,
1656264294.375755,77.000000,0.000000,4255.897461,4237.436035,4086.153809,4103.589844,4212.820313,450.000000,4.000000,91.000000,,,,0.000000,4.000000,4.000000,4.000000,4.000000,4.000000,100.000000,,,,,,,,,,,,,,,,,,,,,,,,,,,,,,,,,,,,,,,,,,,,,,,,,,,,,,,,,,,,,,,
1656264294.383669,78.000000,0.000000,4256.922852,4232.820313,4058.974365,4101.538574,4212.307617,450.000000,4.000000,91.000000,,,,0.000000,4.000000,4.000000,4.000000,4.000000,4.000000,100.000000,,,,,,,,,,,,,,,,,,,,,,,,,,,,,,,,,,,,,,,3.420687,7.831948,5.563447,2.975349,1.992673,4.508672,5.481324,2.270220,1.781606,2.252178,8.399353,9.916967,4.053725,4.010379,1.991678,3.319277,7.183196,6.040888,3.865624,1.823217,6.757680,2.770663,4.457713,2.699376,1.965611
1656264294.391483,79.000000,0.000000,4258.461426,4226.666504,4068.205078,4097.436035,4213.333496,16212.000000,4.000000,91.000000,,,,0.000000,4.000000,4.000000,4.000000,4.000000,4.000000,100.000000,,,,,,,,,,,,,,,,,,,,,,,,,,,,,,,,,,,,,,,,,,,,,,,,,,,,,,,,,,,,,,,
1656264294.399398,80.000000,0.000000,4253.333496,4239.487305,4085.641113,4108.205078,4228.205078,450.000000,4.000000,91.000000,,,,0.000000,4.000000,4.000000,4.000000,4.000000,4.000000,100.000000,,,,,,,,,,,,,,,,,,,,,,,,,,,,,,,,,,,,,,,,,,,,,,,,,,,,,,,,,,,,,,,
1656264294.407212,81.000000,0.000000,4248.205078,4241.538574,4091.281982,4109.743652,4226.666504,450.000000,4.000000,91.000000,,,,0.000000,4.000000,4.000000,4.000000,4.000000,4.000000,100.000000,,,,,,,,,,,,,,,,,,,,,,,,,,,,,,,,,,,,,,,,,,,,,,,,,,,,,,,,,,,,,,,
1656264294.415126,82.000000,0.000000,4259.487305,4234.871582,4097.948730,4109.230957,4223.077148,450.000000,4.000000,91.000000,,,,0.000000,4.000000,4.000000,4.000000,4.000000,4.000000,100.000000,,,,,,,,,,,,,,,,,,,,,,,,,,,,,,,,,,,,,,,,,,,,,,,,,,,,,,,,,,,,,,,
1656264294.422941,83.000000,0.000000,4266.153809,4244.615234,4090.769287,4107.179688,4227.179688,16212.000000,4.000000,91.000000,,,,0.000000,4.000000,4.000000,4.000000,4.000000,4.000000,100.000000,,,,,,,,,,,,,,,,,,,,,,,,,,,,,,,,,,,,,,,,,,,,,,,,,,,,,,,,,,,,,,,
1656264294.430855,84.000000,0.000000,4261.025879,4244.615234,4080.512939,4095.384521,4223.589844,450.000000,4.000000,91.000000,,,,0.000000,4.000000,4.000000,4.000000,4.000000,4.000000,100.000000,,,,,,,,,,,,,,,,,,,,,,,,,,,,,,,,,,,,,,,,,,,,,,,,,,,,,,,,,,,,,,,
1656264294.438669,85.000000,0.000000,4260.000000,4232.307617,4071.794922,4092.307617,4224.102539,450.000000,4.000000,91.000000,,,,0.000000,4.000000,4.000000,4.000000,4.000000,4.000000,100.000000,,,,,,,,,,,,,,,,,,,,,,,,,,,,,,,,,,,,,,,,,,,,,,,,,,,,,,,,,,,,,,,
1656264294.446384,86.000000,0.000000,4260.000000,4240.512695,4060.000000,4097.948730,4233.333496,450.000000,4.000000,91.000000,,,,0.000000,4.000000,4.000000,4.000000,4.000000,4.000000,100.000000,,,,,,,,,,,,,,,,,,,,,,,,,,,,,,,,,,,,,,,,,,,,,,,,,,,,,,,,,,,,,,,
1656264294.454198,87.000000,0.000000,4258.974121,4246.153809,4054.871826,4092.820557,4224.102539,16212.000000,4.000000,91.000000,,,,0.000000,4.000000,4.000000,4.000000,4.000000,4.000000,100.000000,,,,,,,,,,,,,,,,,,,,,,,,,,,,,,,,,,,,,,,,,,,,,,,,,,,,,,,,,,,,,,,
1656264294.461913,88.000000,0.000000,4264.102539,4226.666504,4045.641113,4094.871826,4211.282227,450.000000,4.000000,91.000000,,,,0.000000,4.000000,4.000000,4.000000,4.000000,4.000000,100.000000,,,,,,,,,,,,,,,,,,,,,,,,,,,,,,,,,,,,,,,,,,,,,,,,,,,,,,,,,,,,,,,
1656264294.469727,89.000000,0.000000,4268.205078,4222.051270,4041.025635,4116.922852,4225.128418,450.000000,4.000000,91.000000,,,,0.000000,4.000000,4.000000,4.000000,4.000000,4.000000,100.000000,,,,,,,,,,,,,,,,,,,,,,,,,,,,,,,,,,,,,,,,,,,,,,,,,,,,,,,,,,,,,,,
1656264294.477442,90.000000,0.000000,4278.461426,4232.307617,4069.230713,4118.974121,4232.307617,450.000000,4.000000,91.000000,,,,0.000000,4.000000,4.000000,4.000000,4.000000,4.000000,100.000000,,,,,,,,,,,,,,,,,,,,,,,,,,,,,,,,,,,,,,,,,,,,,,,,,,,,,,,,,,,,,,,
1656264294.485256,91.000000,0.000000,4293.333496,4233.333496,4101.025879,4103.589844,4217.436035,16212.000000,4.000000,91.000000,,,,0.000000,4.000000,4.000000,4.000000,4.000000,4.000000,100.000000,,,,,,,,,,,,,,,,,,,,,,,,,,,,,,,,,,,,,,,,,,,,,,,,,,,,,,,,,,,,,,,
1656264294.492971,92.000000,0.000000,4283.077148,4241.538574,4091.281982,4108.205078,4218.461426,450.000000,4.000000,91.000000,,,,0.000000,4.000000,4.000000,4.000000,4.000000,4.000000,100.000000,,,,,,,,,,,,,,,,,,,,,,,,,,,,,,,,,,,,,,,,,,,,,,,,,,,,,,,,,,,,,,,
1656264294.500785,93.000000,0.000000,4254.871582,4234.358887,4072.820557,4100.512695,4221.025879,450.000000,4.000000,91.000000,,,,0.000000,4.000000,4.000000,4.000000,4.000000,4.000000,100.000000,,,,,,,,,,,,,,,,,,,,,,,,,,,,,,,,,,,,,,,,,,,,,,,,,,,,,,,,,,,,,,,
1656264294.508500,94.000000,0.000000,4265.641113,4221.025879,4091.281982,4083.076904,4221.025879,450.000000,4.000000,91.000000,,,,0.000000,4.000000,4.000000,4.000000,4.000000,4.000000,100.000000,,,,,,,,,,,,,,,,,,,,,,,,,,,,,,,,,,,,,,,3.044526,6.969304,4.569165,2.577995,1.800856,3.554788,5.782469,1.943988,1.823395,2.307213,7.318505,14.510783,3.821319,4.063408,1.987807,3.860814,6.338809,4.823220,3.294756,1.790613,5.588112,2.767723,3.411014,2.481264,2.120441
1656264294.516314,95.000000,0.000000,4292.307617,4247.692383,4114.358887,4103.077148,4239.487305,16212.000000,4.000000,91.000000,,,,0.000000,4.000000,4.000000,4.000000,4.000000,4.000000,100.000000,,,,,,,,,,,,,,,,,,,,,,,,,,,,,,,,,,,,,,,,,,,,,,,,,,,,,,,,,,,,,,,
1656264294.524029,96.000000,0.000000,4269.230957,4255.897461,4100.000000,4122.563965,4238.461426,450.000000,4.000000,91.000000,,,,0.000000,4.000000,4.000000,4.000000,4.000000,4.000000,100.000000,,,,,,,,,,,,,,,,,,,,,,,,,,,,,,,,,,,,,,,,,,,,,,,,,,,,,,,,,,,,,,,
1656264294.531943,97.000000,0.000000,4253.846191,4226.666504,4080.512939,4117.948730,4224.615234,450.000000,4.000000,91.000000,,,,0.000000,4.000000,4.000000,4.000000,4.000000,4.000000,100.000000,,,,,,,,,,,,,,,,,,,,,,,,,,,,,,,,,,,,,,,,,,,,,,,,,,,,,,,,,,,,,,,
1656264294.539757,98.000000,0.000000,4275.897461,4229.743652,4072.307617,4117.948730,4237.948730,450.000000,4.000000,91.000000,,,,0.000000,4.000000,4.000000,4.000000,4.000000,4.000000,100.000000,,,,,,,,,,,,,,,,,,,,,,,,,,,,,,,,,,,,,,,,,,,,,,,,,,,,,,,,,,,,,,,
1656264294.547672,99.000000,0.000000,4279.487305,4256.410156,4061.025635,4121.538574,4249.743652,16212.000000,4.000000,91.000000,,,,0.000000,4.000000,4.000000,4.000000,4.000000,4.000000,100.000000,,,,,,,,,,,,,,,,,,,,,,,,,,,,,,,,,,,,,,,,,,,,,,,,,,,,,,,,,,,,,,,
1656264294.555486,100.000000,0.000000,4274.871582,4243.077148,4053.846191,4100.000000,4233.846191,450.000000,4.000000,91.000000,,,,0.000000,4.000000,4.000000,4.000000,4.000000,4.000000,100.000000,,,,,,,,,,,,,,,,,,,,,,,,,,,,,,,,,,,,,,,,,,,,,,,,,,,,,,,,,,,,,,,
1656264294.563400,101.000000,0.000000,4292.307617,4212.307617,4064.102539,4081.025635,4224.102539,450.000000,4.000000,91.000000,,,,0.000000,4.000000,4.000000,4.000000,4.000000,4.000000,100.000000,,,,,,,,,,,,,,,,,,,,,,,,,,,,,,,,,,,,,,,,,,,,,,,,,,,,,,,,,,,,,,,
1656264294.571215,102.000000,0.000000,4318.461426,4230.256348,4082.564209,4104.615234,4251.794922,450.000000,4.000000,91.000000,,,,0.000000,4.000000,4.000000,4.000000,4.000000,4.000000,100.000000,,,,,,,,,,,,,,,,,,,,,,,,,,,,,,,,,,,,,,,,,,,,,,,,,,,,,,,,,,,,,,,
1656264294.579129,103.000000,0.000000,4330.769043,4261.025879,4078.974365,4127.692383,4277.948730,16212.000000,4.000000,91.000000,,,,0.000000,4.000000,4.000000,4.000000,4.000000,4.000000,100.000000,,,,,,,,,,,,,,,,,,,,,,,,,,,,,,,,,,,,,,,,,,,,,,,,,,,,,,,,,,,,,,,
1656264294.586943,104.000000,0.000000,4334.358887,4247.179688,4066.153809,4122.051270,4277.436035,450.000000,4.000000,91.000000,,,,0.000000,4.000000,4.000000,4.000000,4.000000,4.000000,100.000000,,,,,,,,,,,,,,,,,,,,,,,,,,,,,,,,,,,,,,,,,,,,,,,,,,,,,,,,,,,,,,,
1656264294.594858,105.000000,0.000000,4350.256348,4231.794922,4078.974365,4120.512695,4288.205078,450.000000,4.000000,91.000000,,,,0.000000,4.000000,4.000000,4.000000,4.000000,4.000000,100.000000,,,,,,,,,,,,,,,,,,,,,,,,,,,,,,,,,,,,,,,,,,,,,,,,,,,,,,,,,,,,,,,
1656264294.602672,106.000000,0.000000,4366.153809,4248.717773,4095.384521,4113.846191,4299.487305,450.000000,4.000000,91.000000,,,,0.000000,4.000000,4.000000,4.000000,4.000000,4.000000,100.000000,,,,,,,,,,,,,,,,,,,,,,,,,,,,,,,,,,,,,,,,,,,,,,,,,,,,,,,,,,,,,,,
1656264294.610586,107.000000,0.000000,4370.256348,4256.410156,4092.307617,4092.307617,4286.153809,16212.000000,4.000000,91.000000,,,,0.000000,4.000000,4.000000,4.000000,4.000000,4.000000,100.000000,,,,,,,,,,,,,,,,,,,,,,,,,,,,,,,,,,,,,,,,,,,,,,,,,,,,,,,,,,,,,,,
1656264294.618401,108.000000,0.000000,4376.410156,4242.563965,4077.435791,4092.820557,4283.589844,450.000000,4.000000,91.000000,,,,0.000000,4.000000,4.000000,4.000000,4.000000,4.000000,100.000000,,,,,,,,,,,,,,,,,,,,,,,,,,,,,,,,,,,,,,,,,,,,,,,,,,,,,,,,,,,,,,,
1656264294.626315,109.000000,0.000000,4397.948730,4242.563965,4069.230713,4105.641113,4307.179688,450.000000,4.000000,91.000000,,,,0.000000,4.000000,4.000000,4.000000,4.000000,4.000000,100.000000,,,,,,,,,,,,,,,,,,,,,,,,,,,,,,,,,,,,,,,,,,,,,,,,,,,,,,,,,,,,,,,
1656264294.634130,110.000000,0.000000,4425.128418,4248.205078,4067.179443,4100.000000,4318.974121,450.000000,4.000000,91.000000,,,,0.000000,4.000000,4.000000,4.000000,4.000000,4.000000,100.000000,,,,,,,,,,,,,,,,,,,,,,,,,,,,,,,,,,,,,,,2.814783,6.034268,3.663018,2.236777,1.616688,2.803287,5.596717,1.937597,1.872116,2.366785,6.821037,19.361822,3.297668,3.994274,1.981270,4.455609,5.234503,3.864127,2.811807,1.737319,4.901152,2.859118,2.829139,2.360102,2.248200
1656264294.641944,111.000000,0.000000,4422.563965,4233.333496,4046.666748,4094.358887,4302.051270,16212.000000,4.000000,91.000000,,,,0.000000,4.000000,4.000000,4.000000,4.000000,4.000000,100.000000,,,,,,,,,,,,,,,,,,,,,,,,,,,,,,,,,,,,,,,,,,,,,,,,,,,,,,,,,,,,,,,
1656264294.649758,112.000000,0.000000,4413.846191,4239.487305,4033.846191,4107.692383,4293.846191,450.000000,4.000000,91.000000,,,,0.000000,4.000000,4.000000,4.000000,4.000000,4.000000,100.000000,,,,,,,,,,,,,,,,,,,,,,,,,,,,,,,,,,,,,,,,,,,,,,,,,,,,,,,,,,,,,,,
1656264294.657473,113.000000,0.000000,4441.025879,4262.051270,4051.794922,4129.230957,4317.948730,450.000000,4.000000,91.000000,,,,0.000000,4.000000,4.000000,4.000000,4.000000,4.000000,100.000000,,,,,,,,,,,,,,,,,,,,,,,,,,,,,,,,,,,,,,,,,,,,,,,,,,,,,,,,,,,,,,,
1656264294.665287,114.000000,0.000000,4460.512695,4247.692383,4066.153809,4136.922852,4335.897461,450.000000,4.000000,91.000000,,,,0.000000,4.000000,4.000000,4.000000,4.000000,4.000000,100.000000,,,,,,,,,,,,,,,,,,,,,,,,,,,,,,,,,,,,,,,,,,,,,,,,,,,,,,,,,,,,,,,
1656264294.673002,115.000000,0.000000,4427.179688,4246.153809,4063.076904,4136.922852,4326.666504,16212.000000,4.000000,91.000000,,,,0.000000,4.000000,4.000000,4.000000,4.000000,4.000000,100.000000,,,,,,,,,,,,,,,,,,,,,,,,,,,,,,,,,,,,,,,,,,,,,,,,,,,,,,,,,,,,,,,
1656264294.680916,116.000000,0.000000,4373.333496,4276.922852,4062.564209,4120.000000,4309.743652,450.000000,4.000000,91.000000,,,,0.000000,4.000000,4.000000,4.000000,4.000000,4.000000,100.000000,,,,,,,,,,,,,,,,,,,,,,,,,,,,,,,,,,,,,,,,,,,,,,,,,,,,,,,,,,,,,,,
1656264294.688731,117.000000,0.000000,4352.307617,4282.051270,4081.538574,4101.025879,4297.948730,450.000000,4.000000,91.000000,,,,0.000000,4.000000,4.000000,4.000000,4.000000,4.000000,100.000000,,,,,,,,,,,,,,,,,,,,,,,,,,,,,,,,,,,,,,,,,,,,,,,,,,,,,,,,,,,,,,,
1656264294.696645,118.000000,0.000000,4362.051270,4273.333496,4091.794922,4115.384766,4302.563965,450.000000,4.000000,91.000000,,,,0.000000,4.000000,4.000000,4.000000,4.000000,4.000000,100.000000,,,,,,,,,,,,,,,,,,,,,,,,,,,,,,,,,,,,,,,,,,,,,,,,,,,,,,,,,,,,,,,
1656264294.704459,119.000000,0.000000,4360.512695,4273.333496,4090.256348,4131.282227,4303.589844,16212.000000,4.000000,91.000000,,,,0.000000,4.000000,4.000000,4.000000,4.000000,4.000000,100.000000,,,,,,,,,,,,,,,,,,,,,,,,,,,,,,,,,,,,,,,,,,,,,,,,,,,,,,,,,,,,,,,
1656264294.712374,120.000000,0.000000,4345.641113,4264.102539,4104.615234,4126.153809,4289.230957,450.000000,4.000000,91.000000,,,,0.000000,4.000000,4.000000,4.000000,4.000000,4.000000,100.000000,,,,,,,,,,,,,,,,,,,,,,,,,,,,,,,,,,,,,,,,,,,,,,,,,,,,,,,,,,,,,,,
1656264294.720188,121.000000,0.000000,4330.769043,4266.666504,4085.128174,4124.615234,4284.102539,450.000000,4.000000,91.000000,,,,0.000000,4.000000,4.000000,4.000000,4.000000,4.000000,100.000000,,,,,,,,,,,,,,,,,,,,,,,,,,,,,,,,,,,,,,,,,,,,,,,,,,,,,,,,,,,,,,,
1656264294.728102,122.000000,0.000000,4313.333496,4277.948730,4035.897461,4125.641113,4285.128418,450.000000,4.000000,91.000000,,,,0.000000,4.000000,4.000000,4.000000,4.000000,4.000000,100.000000,,,,,,,,,,,,,,,,,,,,,,,,,,,,,,,,,,,,,,,,,,,,,,,,,,,,,,,,,,,,,,,
1656264294.735917,123.000000,0.000000,4299.487305,4261.538574,4047.179443,4107.179688,4257.436035,16212.000000,4.000000,91.000000,,,,0.000000,4.000000,4.000000,4.000000,4.000000,4.000000,100.000000,,,,,,,,,,,,,,,,,,,,,,,,,,,,,,,,,,,,,,,,,,,,,,,,,,,,,,,,,,,,,,,
1656264294.743831,124.000000,0.000000,4285.128418,4242.051270,4077.948730,4090.769287,4221.538574,450.000000,4.000000,91.000000,,,,0.000000,4.000000,4.000000,4.000000,4.000000,4.000000,100.000000,,,,,,,,,,,,,,,,,,,,,,,,,,,,,,,,,,,,,,,,,,,,,,,,,,,,,,,,,,,,,,,
1656264294.751645,125.000000,0.000000,4276.922852,4250.769043,4045.641113,4092.820557,4231.794922,450.000000,4.000000,91.000000,,,,0.000000,4.000000,4.000000,4.000000,4.000000,4.000000,100.000000,,,,,,,,,,,,,,,,,,,,,,,,,,,,,,,,,,,,,,,,,,,,,,,,,,,,,,,,,,,,,,,
1656264294.759560,126.000000,0.000000,4283.589844,4242.563965,4017.948730,4096.410156,4235.897461,450.000000,4.000000,91.000000,,,,0.000000,4.000000,4.000000,4.000000,4.000000,4.000000,100.000000,1.000000,100.000000,4.000000,4.000000,4.000000,4.000000,4.000000,,,,,,,,,,,,,,,,,,,,,,,,,,,,,,,,2.883479,5.209611,2.959612,2.008555,1.473123,2.335826,4.941114,2.199398,1.905076,2.391577,7.169300,23.315243,2.565627,3.813157,1.965627,4.889510,4.161025,3.281090,2.488341,1.674431,4.659805,2.944293,2.687164,2.290240,2.296117
1656264294.767374,127.000000,0.000000,4284.615234,4217.948730,4041.538574,4103.589844,4206.666504,242.000000,4.000000,91.000000,,,,0.000000,4.000000,4.000000,4.000000,4.000000,4.000000,100.000000,,,,,,,,,,,,,,,,,,,,,,,,,,,,,,,,,,,,,,,,,,,,,,,,,,,,,,,,,,,,,,,
1656264294.775288,0.000000,0.000000,4278.461426,4224.615234,4048.718018,4128.717773,4215.384766,450.000000,4.000000,91.000000,,,,0.000000,4.000000,4.000000,4.000000,4.000000,4.000000,100.000000,,,,,,,,,,,,,,,,,,,,,,,,,,,,,,,,,,,,,,,,,,,,,,,,,,,,,,,,,,,,,,,
1656264294.783103,1.000000,0.000000,4266.153809,4239.487305,4033.333252,4139.487305,4240.512695,450.000000,4.000000,91.000000,,,,0.000000,4.000000,4.000000,4.000000,4.000000,4.000000,100.000000,,,,,,,,,,,,,,,,,,,,,,,,,,,,,,,,,,,,,,,,,,,,,,,,,,,,,,,,,,,,,,,
1656264294.790917,2.000000,0.000000,4253.846191,4248.717773,4060.000000,4128.717773,4231.794922,16203.000000,4.000000,91.000000,,,,0.000000,4.000000,4.000000,4.000000,4.000000,4.000000,100.000000,,,,,,,,,,,,,,,,,,,,,,,,,,,,,,,,,,,,,,,,,,,,,,,,,,,,,,,,,,,,,,,
1656264294.798732,3.000000,0.000000,4255.384766,4252.820313,4098.974121,4127.179688,4227.692383,450.000000,4.000000,91.000000,,,,0.000000,4.000000,4.000000,4.000000,4.000000,4.000000,100.000000,,,,,,,,,,,,,,,,,,,,,,,,,,,,,,,,,,,,,,,,,,,,,,,,,,,,,,,,,,,,,,,
1656264294.806446,4.000000,0.000000,4251.282227,4238.461426,4086.666748,4123.589844,4236.410156,16209.000000,4.000000,91.000000,,,,0.000000,4.000000,4.000000,4.000000,4.000000,4.000000,100.000000,,,,,,,,,,,,,,,,,,,,,,,,,,,,,,,,,,,,,,,,,,,,,,,,,,,,,,,,,,,,,,,
1656264294.814360,5.000000,0.000000,4236.410156,4236.410156,4062.564209,4098.974121,4224.615234,450.000000,4.000000,91.000000,,,,0.000000,4.000000,4.000000,4.000000,4.000000,4.000000,100.000000,,,,,,,,,,,,,,,,,,,,,,,,,,,,,,,,,,,,,,,,,,,,,,,,,,,,,,,,,,,,,,,
1656264294.822175,6.000000,0.000000,4221.538574,4245.641113,4066.666748,4073.333252,4200.000000,16151.000000,4.000000,91.000000,,,,0.000000,4.000000,4.000000,4.000000,4.000000,4.000000,100.000000,,,,,,,,,,,,,,,,,,,,,,,,,,,,,,,,,,,,,,,,,,,,,,,,,,,,,,,,,,,,,,,
1656264294.830089,7.000000,0.000000,4222.051270,4232.820313,4071.281982,4083.076904,4192.820313,450.000000,4.000000,91.000000,,,,0.000000,4.000000,4.000000,4.000000,4.000000,4.000000,100.000000,,,,,,,,,,,,,,,,,,,,,,,,,,,,,,,,,,,,,,,,,,,,,,,,,,,,,,,,,,,,,,,
1656264294.837904,8.000000,0.000000,4244.102539,4211.282227,4064.102539,4105.128418,4193.333496,450.000000,4.000000,91.000000,,,,0.000000,4.000000,4.000000,4.000000,4.000000,4.000000,100.000000,,,,,,,,,,,,,,,,,,,,,,,,,,,,,,,,,,,,,,,,,,,,,,,,,,,,,,,,,,,,,,,
1656264294.845818,9.000000,0.000000,4253.333496,4211.282227,4061.025635,4084.102539,4181.025879,16180.000000,4.000000,91.000000,,,,0.000000,4.000000,4.000000,4.000000,4.000000,4.000000,100.000000,,,,,,,,,,,,,,,,,,,,,,,,,,,,,,,,,,,,,,,,,,,,,,,,,,,,,,,,,,,,,,,
1656264294.853632,10.000000,0.000000,4239.487305,4227.692383,4065.641113,4065.128174,4180.512695,450.000000,4.000000,91.000000,,,,0.000000,4.000000,4.000000,4.000000,4.000000,4.000000,100.000000,,,,,,,,,,,,,,,,,,,,,,,,,,,,,,,,,,,,,,,,,,,,,,,,,,,,,,,,,,,,,,,
1656264294.861447,11.000000,0.000000,4226.666504,4229.230957,4069.230713,4088.718018,4193.333496,16170.000000,4.000000,91.000000,,,,0.000000,4.000000,4.000000,4.000000,4.000000,4.000000,100.000000,,,,,,,,,,,,,,,,,,,,,,,,,,,,,,,,,,,,,,,,,,,,,,,,,,,,,,,,,,,,,,,
1656264294.869161,12.000000,0.000000,4225.128418,4219.487305,4075.897461,4106.153809,4195.384766,450.000000,4.000000,91.000000,,,,0.000000,4.000000,4.000000,4.000000,4.000000,4.000000,100.000000,,,,,,,,,,,,,,,,,,,,,,,,,,,,,,,,,,,,,,,,,,,,,,,,,,,,,,,,,,,,,,,
1656264294.876976,13.000000,0.000000,4220.000000,4238.974121,4089.743652,4096.410156,4199.487305,450.000000,4.000000,91.000000,,,,0.000000,4.000000,4.000000,4.000000,4.000000,4.000000,100.000000,,,,,,,,,,,,,,,,,,,,,,,,,,,,,,,,,,,,,,,,,,,,,,,,,,,,,,,,,,,,,,,
1656264294.884690,14.000000,0.000000,4215.384766,4265.128418,4089.230713,4094.358887,4210.256348,450.000000,4.000000,91.000000,,,,0.000000,4.000000,4.000000,4.000000,4.000000,4.000000,100.000000,,,,,,,,,,,,,,,,,,,,,,,,,,,,,,,,,,,,,,,3.625909,4.499811,2.484637,1.870943,1.375940,2.108467,3.978230,2.558296,1.887837,2.344795,8.227763,25.420813,1.797282,3.521612,1.915900,4.974728,3.300604,2.974542,2.292963,1.597156,4.845050,2.932323,2.783142,2.178035,2.219847
1656264294.892604,15.000000,0.000000,4223.589844,4255.897461,4092.307617,4095.384521,4206.666504,16170.000000,4.000000,91.000000,,,,0.000000,4.000000,4.000000,4.000000,4.000000,4.000000,100.000000,,,,,,,,,,,,,,,,,,,,,,,,,,,,,,,,,,,,,,,,,,,,,,,,,,,,,,,,,,,,,,,
1656264294.900419,16.000000,0.000000,4226.153809,4230.256348,4111.794922,4075.384521,4192.820313,0.000000,4.000000,91.000000,,,,0.000000,4.000000,4.000000,4.000000,4.000000,4.000000,100.000000,,,,,,,,,,,,,,,,,,,,,,,,,,,,,,,,,,,,,,,,,,,,,,,,,,,,,,,,,,,,,,,
1656264294.908233,17.000000,0.000000,4225.128418,4227.179688,4117.436035,4067.692383,4201.025879,0.000000,4.000000,91.000000,,,,0.000000,4.000000,4.000000,4.000000,4.000000,4.000000,100.000000,,,,,,,,,,,,,,,,,,,,,,,,,,,,,,,,,,,,,,,,,,,,,,,,,,,,,,,,,,,,,,,
1656264294.915948,18.000000,0.000000,4245.641113,4238.461426,4109.230957,4091.281982,4222.563965,0.000000,4.000000,91.000000,,,,0.000000,4.000000,4.000000,4.000000,4.000000,4.000000,100.000000,,,,,,,,,,,,,,,,,,,,,,,,,,,,,,,,,,,,,,,,,,,,,,,,,,,,,,,,,,,,,,,
1656264294.923762,19.000000,0.000000,4261.025879,4229.743652,4110.769043,4096.410156,4211.282227,0.000000,4.000000,91.000000,,,,0.000000,4.000000,4.000000,4.000000,4.000000,4.000000,100.000000,,,,,,,,,,,,,,,,,,,,,,,,,,,,,,,,,,,,,,,,,,,,,,,,,,,,,,,,,,,,,,,
1656264294.931477,20.000000,0.000000,4241.538574,4217.948730,4107.179688,4085.128174,4186.666504,0.000000,4.000000,91.000000,,,,0.000000,4.000000,4.000000,4.000000,4.000000,4.000000,100.000000,,,,,,,,,,,,,,,,,,,,,,,,,,,,,,,,,,,,,,,,,,,,,,,,,,,,,,,,,,,,,,,
1656264294.939391,21.000000,0.000000,4220.000000,4240.512695,4083.076904,4092.307617,4196.410156,0.000000,4.000000,91.000000,,,,0.000000,4.000000,4.000000,4.000000,4.000000,4.000000,100.000000,,,,,,,,,,,,,,,,,,,,,,,,,,,,,,,,,,,,,,,,,,,,,,,,,,,,,,,,,,,,,,,
1656264294.947205,22.000000,0.000000,4223.589844,4256.410156,4082.051270,4093.333252,4215.897461,0.000000,4.000000,91.000000,,,,0.000000,4.000000,4.000000,4.000000,4.000000,4.000000,100.000000,,,,,,,,,,,,,,,,,,,,,,,,,,,,,,,,,,,,,,,,,,,,,,,,,,,,,,,,,,,,,,,
1656264294.955020,23.000000,0.000000,4227.179688,4230.769043,4112.307617,4074.871826,4205.641113,0.000000,4.000000,91.000000,,,,0.000000,4.000000,4.000000,4.000000,4.000000,4.000000,100.000000,,,,,,,,,,,,,,,,,,,,,,,,,,,,,,,,,,,,,,,,,,,,,,,,,,,,,,,,,,,,,,,
1656264294.962734,24.000000,0.000000,4227.179688,4207.179688,4126.153809,4074.358887,4189.230957,0.000000,4.000000,91.000000,,,,0.000000,4.000000,4.000000,4.000000,4.000000,4.000000,100.000000,,,,,,,,,,,,,,,,,,,,,,,,,,,,,,,,,,,,,,,,,,,,,,,,,,,,,,,,,,,,,,,
1656264294.970649,25.000000,0.000000,4240.000000,4225.641113,4123.589844,4096.410156,4201.538574,0.000000,4.000000,91.000000,,,,0.000000,4.000000,4.000000,4.000000,4.000000,4.000000,100.000000,,,,,,,,,,,,,,,,,,,,,,,,,,,,,,,,,,,,,,,,,,,,,,,,,,,,,,,,,,,,,,,
1656264294.978463,26.000000,0.000000,4241.025879,4255.384766,4138.461426,4106.153809,4216.922852,0.000000,4.000000,91.000000,,,,0.000000,4.000000,4.000000,4.000000,4.000000,4.000000,100.000000,,,,,,,,,,,,,,,,,,,,,,,,,,,,,,,,,,,,,,,,,,,,,,,,,,,,,,,,,,,,,,,
1656264294.986277,27.000000,0.000000,4229.743652,4260.000000,4169.743652,4097.948730,4209.230957,0.000000,4.000000,91.000000,,,,0.000000,4.000000,4.000000,4.000000,4.000000,4.000000,100.000000,,,,,,,,,,,,,,,,,,,,,,,,,,,,,,,,,,,,,,,,,,,,,,,,,,,,,,,,,,,,,,,
1656264294.994092,28.000000,0.000000,4249.230957,4246.666504,4171.794922,4113.333496,4216.922852,0.000000,4.000000,91.000000,,,,0.000000,4.000000,4.000000,4.000000,4.000000,4.000000,100.000000,,,,,,,,,,,,,,,,,,,,,,,,,,,,,,,,,,,,,,,,,,,,,,,,,,,,,,,,,,,,,,,
1656264295.001806,29.000000,0.000000,4276.410156,4229.230957,4134.871582,4144.615234,4245.641113,0.000000,4.000000,91.000000,,,,0.000000,4.000000,4.000000,4.000000,4.000000,4.000000,100.000000,,,,,,,,,,,,,,,,,,,,,,,,,,,,,,,,,,,,,,,,,,,,,,,,,,,,,,,,,,,,,,,
1656264295.009621,30.000000,0.000000,4274.358887,4234.358887,4127.692383,4137.436035,4246.666504,0.000000,4.000000,91.000000,,,,0.000000,4.000000,4.000000,4.000000,4.000000,4.000000,100.000000,,,,,,,,,,,,,,,,,,,,,,,,,,,,,,,,,,,,,,,5.588181,3.839380,2.194181,1.768050,1.307078,2.046006,2.995689,2.830018,1.790262,2.215171,9.500730,25.310543,1.172041,3.129063,1.815809,4.591691,2.722813,2.776902,2.154534,1.491999,5.302431,2.801882,2.886397,1.958444,2.015003
1656264295.017335,31.000000,0.000000,4267.692383,4256.922852,4136.922852,4117.436035,4237.948730,0.000000,4.000000,91.000000,,,,0.000000,4.000000,4.000000,4.000000,4.000000,4.000000,100.000000,,,,,,,,,,,,,,,,,,,,,,,,,,,,,,,,,,,,,,,,,,,,,,,,,,,,,,,,,,,,,,,
1656264295.025150,32.000000,0.000000,4254.871582,4255.897461,4096.922852,4120.000000,4246.666504,0.000000,4.000000,91.000000,,,,0.000000,4.000000,4.000000,4.000000,4.000000,4.000000,100.000000,,,,,,,,,,,,,,,,,,,,,,,,,,,,,,,,,,,,,,,,,,,,,,,,,,,,,,,,,,,,,,,
1656264295.032864,33.000000,0.000000,4243.589844,4242.051270,4071.281982,4117.436035,4232.307617,0.000000,4.000000,91.000000,,,,0.000000,4.000000,4.000000,4.000000,4.000000,4.000000,100.000000,,,,,,,,,,,,,,,,,,,,,,,,,,,,,,,,,,,,,,,,,,,,,,,,,,,,,,,,,,,,,,,
1656264295.040679,34.000000,0.000000,4255.897461,4224.102539,4083.589844,4100.000000,4197.436035,0.000000,4.000000,91.000000,,,,0.000000,4.000000,4.000000,4.000000,4.000000,4.000000,100.000000,,,,,,,,,,,,,,,,,,,,,,,,,,,,,,,,,,,,,,,,,,,,,,,,,,,,,,,,,,,,,,,
1656264295.048393,35.000000,0.000000,4261.538574,4222.563965,4076.923096,4091.794922,4201.025879,0.000000,4.000000,91.000000,,,,0.000000,4.000000,4.000000,4.000000,4.000000,4.000000,100.000000,,,,,,,,,,,,,,,,,,,,,,,,,,,,,,,,,,,,,,,,,,,,,,,,,,,,,,,,,,,,,,,
1656264295.056207,36.000000,0.000000,4252.307617,4236.922852,4091.281982,4093.333252,4211.282227,0.000000,4.000000,91.000000,,,,0.000000,4.000000,4.000000,4.000000,4.000000,4.000000,100.000000,,,,,,,,,,,,,,,,,,,,,,,,,,,,,,,,,,,,,,,,,,,,,,,,,,,,,,,,,,,,,,,
1656264295.063922,37.000000,0.000000,4239.487305,4230.256348,4136.922852,4083.076904,4188.717773,0.000000,4.000000,91.000000,,,,0.000000,4.000000,4.000000,4.000000,4.000000,4.000000,100.000000,,,,,,,,,,,,,,,,,,,,,,,,,,,,,,,,,,,,,,,,,,,,,,,,,,,,,,,,,,,,,,,
1656264295.071736,38.000000,0.000000,4235.897461,4224.615234,4146.153809,4086.153809,4187.692383,0.000000,4.000000,91.000000,,,,0.000000,4.000000,4.000000,4.000000,4.000000,4.000000,100.000000,,,,,,,,,,,,,,,,,,,,,,,,,,,,,,,,,,,,,,,,,,,,,,,,,,,,,,,,,,,,,,,
1656264295.079451,39.000000,0.000000,4245.641113,4229.230957,4135.897461,4094.871826,4202.563965,0.000000,4.000000,91.000000,,,,0.000000,4.000000,4.000000,4.000000,4.000000,4.000000,100.000000,,,,,,,,,,,,,,,,,,,,,,,,,,,,,,,,,,,,,,,,,,,,,,,,,,,,,,,,,,,,,,,
1656264295.087265,40.000000,0.000000,4255.384766,4219.487305,4153.846191,4094.871826,4192.820313,0.000000,4.000000,91.000000,,,,0.000000,4.000000,4.000000,4.000000,4.000000,4.000000,100.000000,,,,,,,,,,,,,,,,,,,,,,,,,,,,,,,,,,,,,,,,,,,,,,,,,,,,,,,,,,,,,,,
1656264295.094980,41.000000,0.000000,4246.666504,4232.307617,4151.282227,4106.153809,4201.538574,0.000000,4.000000,91.000000,,,,0.000000,4.000000,4.000000,4.000000,4.000000,4.000000,100.000000,,,,,,,,,,,,,,,,,,,,,,,,,,,,,,,,,,,,,,,,,,,,,,,,,,,,,,,,,,,,,,,
1656264295.102794,42.000000,0.000000,4220.000000,4267.179688,4108.717773,4094.871826,4221.025879,0.000000,4.000000,91.000000,,,,0.000000,4.000000,4.000000,4.000000,4.000000,4.000000,100.000000,,,,,,,,,,,,,,,,,,,,,,,,,,,,,,,,,,,,,,,,,,,,,,,,,,,,,,,,,,,,,,,
1656264295.110509,43.000000,0.000000,4227.179688,4261.025879,4099.487305,4078.461426,4214.358887,0.000000,4.000000,91.000000,,,,0.000000,4.000000,4.000000,4.000000,4.000000,4.000000,100.000000,,,,,,,,,,,,,,,,,,,,,,,,,,,,,,,,,,,,,,,,,,,,,,,,,,,,,,,,,,,,,,,
1656264295.118423,44.000000,0.000000,4266.666504,4232.307617,4119.487305,4100.000000,4209.743652,0.000000,4.000000,91.000000,,,,0.000000,4.000000,4.000000,4.000000,4.000000,4.000000,100.000000,,,,,,,,,,,,,,,,,,,,,,,,,,,,,,,,,,,,,,,,,,,,,,,,,,,,,,,,,,,,,,,
1656264295.126237,45.000000,0.000000,4264.615234,4226.153809,4116.410156,4106.666504,4213.846191,0.000000,4.000000,91.000000,,,,0.000000,4.000000,4.000000,4.000000,4.000000,4.000000,100.000000,,,,,,,,,,,,,,,,,,,,,,,,,,,,,,,,,,,,,,,,,,,,,,,,,,,,,,,,,,,,,,,
1656264295.134052,46.000000,0.000000,4239.487305,4226.666504,4091.794922,4081.025635,4204.615234,0.000000,4.000000,91.000000,,,,0.000000,4.000000,4.000000,4.000000,4.000000,4.000000,100.000000,,,,,,,,,,,,,,,,,,,,,,,,,,,,,,,,,,,,,,,9.140800,3.190272,2.050910,1.667596,1.246381,2.099420,2.247362,2.883003,1.591857,2.022652,10.160942,23.378328,0.778169,2.680147,1.680227,3.810794,2.416835,2.631507,2.027939,1.356358,5.947368,2.619485,2.874458,1.626557,1.728665
1656264295.141766,47.000000,0.000000,4243.589844,4220.512695,4065.641113,4074.358887,4186.666504,0.000000,4.000000,91.000000,,,,0.000000,4.000000,4.000000,4.000000,4.000000,4.000000,100.000000,,,,,,,,,,,,,,,,,,,,,,,,,,,,,,,,,,,,,,,,,,,,,,,,,,,,,,,,,,,,,,,
1656264295.149681,48.000000,0.000000,4243.077148,4220.512695,4056.410156,4082.051270,4177.436035,0.000000,4.000000,91.000000,,,,0.000000,4.000000,4.000000,4.000000,4.000000,4.000000,100.000000,,,,,,,,,,,,,,,,,,,,,,,,,,,,,,,,,,,,,,,,,,,,,,,,,,,,,,,,,,,,,,,
1656264295.157495,49.000000,0.000000,4220.512695,4231.794922,4050.769287,4089.230713,4190.256348,0.000000,4.000000,91.000000,,,,0.000000,4.000000,4.000000,4.000000,4.000000,4.000000,100.000000,,,,,,,,,,,,,,,,,,,,,,,,,,,,,,,,,,,,,,,,,,,,,,,,,,,,,,,,,,,,,,,
1656264295.165409,50.000000,0.000000,4211.282227,4241.025879,4042.564209,4087.179443,4201.538574,0.000000,4.000000,91.000000,,,,0.000000,4.000000,4.000000,4.000000,4.000000,4.000000,100.000000,,,,,,,,,,,,,,,,,,,,,,,,,,,,,,,,,,,,,,,,,,,,,,,,,,,,,,,,,,,,,,,
1656264295.173224,51.000000,0.000000,4229.230957,4241.538574,4076.410156,4067.179443,4192.307617,0.000000,4.000000,91.000000,,,,0.000000,4.000000,4.000000,4.000000,4.000000,4.000000,100.000000,,,,,,,,,,,,,,,,,,,,,,,,,,,,,,,,,,,,,,,,,,,,,,,,,,,,,,,,,,,,,,,
1656264295.181038,52.000000,0.000000,4248.205078,4227.692383,4126.666504,4064.615479,4175.897461,0.000000,4.000000,91.000000,,,,0.000000,4.000000,4.000000,4.000000,4.000000,4.000000,100.000000,,,,,,,,,,,,,,,,,,,,,,,,,,,,,,,,,,,,,,,,,,,,,,,,,,,,,,,,,,,,,,,
1656264295.188753,53.000000,0.000000,4254.358887,4218.974121,4125.128418,4085.128174,4190.769043,0.000000,4.000000,91.000000,,,,0.000000,4.000000,4.000000,4.000000,4.000000,4.000000,100.000000,,,,,,,,,,,,,,,,,,,,,,,,,,,,,,,,,,,,,,,,,,,,,,,,,,,,,,,,,,,,,,,
1656264295.196467,54.000000,0.000000,4266.666504,4222.051270,4101.025879,4092.307617,4218.974121,0.000000,4.000000,91.000000,,,,0.000000,4.000000,4.000000,4.000000,4.000000,4.000000,100.000000,,,,,,,,,,,,,,,,,,,,,,,,,,,,,,,,,,,,,,,,,,,,,,,,,,,,,,,,,,,,,,,
1656264295.204282,55.000000,0.000000,4273.846191,4218.461426,4093.333252,4085.128174,4216.410156,0.000000,4.000000,91.000000,,,,0.000000,4.000000,4.000000,4.000000,4.000000,4.000000,100.000000,,,,,,,,,,,,,,,,,,,,,,,,,,,,,,,,,,,,,,,,,,,,,,,,,,,,,,,,,,,,,,,
1656264295.211996,56.000000,0.000000,4271.794922,4219.487305,4084.102539,4091.794922,4216.410156,0.000000,4.000000,91.000000,,,,0.000000,4.000000,4.000000,4.000000,4.000000,4.000000,100.000000,,,,,,,,,,,,,,,,,,,,,,,,,,,,,,,,,,,,,,,,,,,,,,,,,,,,,,,,,,,,,,,
1656264295.219811,57.000000,0.000000,4273.846191,4222.051270,4074.358887,4089.743652,4232.820313,0.000000,4.000000,91.000000,,,,0.000000,4.000000,4.000000,4.000000,4.000000,4.000000,100.000000,,,,,,,,,,,,,,,,,,,,,,,,,,,,,,,,,,,,,,,,,,,,,,,,,,,,,,,,,,,,,,,
1656264295.227525,58.000000,0.000000,4275.384766,4215.897461,4069.743652,4077.948730,4223.589844,0.000000,4.000000,91.000000,,,,0.000000,4.000000,4.000000,4.000000,4.000000,4.000000,100.000000,,,,,,,,,,,,,,,,,,,,,,,,,,,,,,,,,,,,,,,,,,,,,,,,,,,,,,,,,,,,,,,
1656264295.235339,59.000000,0.000000,4265.128418,4216.410156,4053.333252,4089.230713,4205.128418,0.000000,4.000000,91.000000,,,,0.000000,4.000000,4.000000,4.000000,4.000000,4.000000,100.000000,,,,,,,,,,,,,,,,,,,,,,,,,,,,,,,,,,,,,,,,,,,,,,,,,,,,,,,,,,,,,,,
1656264295.243054,60.000000,0.000000,4256.410156,4224.615234,4034.871826,4100.512695,4209.743652,0.000000,4.000000,91.000000,,,,0.000000,4.000000,4.000000,4.000000,4.000000,4.000000,100.000000,,,,,,,,,,,,,,,,,,,,,,,,,,,,,,,,,,,,,,,,,,,,,,,,,,,,,,,,,,,,,,,
1656264295.250868,61.000000,0.000000,4260.512695,4232.307617,4043.076904,4088.718018,4218.461426,0.000000,4.000000,91.000000,,,,0.000000,4.000000,4.000000,4.000000,4.000000,4.000000,100.000000,,,,,,,,,,,,,,,,,,,,,,,,,,,,,,,,,,,,,,,,,,,,,,,,,,,,,,,,,,,,,,,
1656264295.258583,62.000000,0.000000,4243.589844,4247.692383,4069.230713,4064.615479,4212.307617,0.000000,4.000000,91.000000,,,,0.000000,4.000000,4.000000,4.000000,4.000000,4.000000,100.000000,1.000000,100.000000,4.000000,4.000000,4.000000,4.000000,4.000000,,,,,,,,,,,,,,,,,,,,,,,,,,,,,,,,13.943213,2.611980,2.039633,1.590450,1.188507,2.196324,1.866506,2.674806,1.324577,1.813490,9.862519,20.719030,0.630024,2.254481,1.556924,2.863729,2.385272,2.630137,1.924823,1.208994,6.577083,2.539390,2.727726,1.250011,1.441580
1656264295.266497,63.000000,0.000000,4224.102539,4254.358887,4087.692383,4064.102539,4204.615234,0.000000,4.000000,91.000000,,,,0.000000,4.000000,4.000000,4.000000,4.000000,4.000000,100.000000,,,,,,,,,,,,,,,,,,,,,,,,,,,,,,,,,,,,,,,,,,,,,,,,,,,,,,,,,,,,,,,
1656264295.274312,64.000000,0.000000,4249.743652,4242.563965,4105.128418,4090.769287,4211.794922,450.000000,4.000000,91.000000,,,,0.000000,4.000000,4.000000,4.000000,4.000000,4.000000,100.000000,,,,,,,,,,,,,,,,,,,,,,,,,,,,,,,,,,,,,,,,,,,,,,,,,,,,,,,,,,,,,,,
1656264295.282226,65.000000,0.000000,4277.948730,4239.487305,4131.794922,4107.692383,4221.538574,450.000000,4.000000,91.000000,,,,0.000000,4.000000,4.000000,4.000000,4.000000,4.000000,100.000000,,,,,,,,,,,,,,,,,,,,,,,,,,,,,,,,,,,,,,,,,,,,,,,,,,,,,,,,,,,,,,,
1656264295.290040,66.000000,0.000000,4271.794922,4244.615234,4134.871582,4112.307617,4219.487305,16212.000000,4.000000,91.000000,,,,0.000000,4.000000,4.000000,4.000000,4.000000,4.000000,100.000000,,,,,,,,,,,,,,,,,,,,,,,,,,,,,,,,,,,,,,,,,,,,,,,,,,,,,,,,,,,,,,,
1656264295.297955,67.000000,0.000000,4255.384766,4233.333496,4093.846191,4113.333496,4212.820313,450.000000,4.000000,91.000000,,,,0.000000,4.000000,4.000000,4.000000,4.000000,4.000000,100.000000,,,,,,,,,,,,,,,,,,,,,,,,,,,,,,,,,,,,,,,,,,,,,,,,,,,,,,,,,,,,,,,
1656264295.305769,68.000000,0.000000,4257.948730,4208.717773,4084.102539,4105.128418,4207.179688,16188.000000,4.000000,91.000000,,,,0.000000,4.000000,4.000000,4.000000,4.000000,4.000000,100.000000,,,,,,,,,,,,,,,,,,,,,,,,,,,,,,,,,,,,,,,,,,,,,,,,,,,,,,,,,,,,,,,
1656264295.313683,69.000000,0.000000,4269.743652,4215.897461,4102.051270,4109.743652,4218.461426,450.000000,4.000000,91.000000,,,,0.000000,4.000000,4.000000,4.000000,4.000000,4.000000,100.000000,,,,,,,,,,,,,,,,,,,,,,,,,,,,,,,,,,,,,,,,,,,,,,,,,,,,,,,,,,,,,,,
1656264295.321498,70.000000,0.000000,4253.333496,4249.743652,4071.794922,4113.846191,4229.743652,16162.000000,4.000000,91.000000,,,,0.000000,4.000000,4.000000,4.000000,4.000000,4.000000,100.000000,,,,,,,,,,,,,,,,,,,,,,,,,,,,,,,,,,,,,,,,,,,,,,,,,,,,,,,,,,,,,,,
1656264295.329412,71.000000,0.000000,4234.871582,4261.025879,4059.487061,4100.000000,4223.589844,450.000000,4.000000,91.000000,,,,0.000000,4.000000,4.000000,4.000000,4.000000,4.000000,100.000000,,,,,,,,,,,,,,,,,,,,,,,,,,,,,,,,,,,,,,,,,,,,,,,,,,,,,,,,,,,,,,,
1656264295.337226,72.000000,0.000000,4256.922852,4233.846191,4090.256348,4091.281982,4219.487305,450.000000,4.000000,91.000000,,,,0.000000,4.000000,4.000000,4.000000,4.000000,4.000000,100.000000,,,,,,,,,,,,,,,,,,,,,,,,,,,,,,,,,,,,,,,,,,,,,,,,,,,,,,,,,,,,,,,
1656264295.345141,73.000000,0.000000,4270.256348,4189.743652,4092.307617,4087.179443,4207.179688,16179.000000,4.000000,91.000000,,,,0.000000,4.000000,4.000000,4.000000,4.000000,4.000000,100.000000,,,,,,,,,,,,,,,,,,,,,,,,,,,,,,,,,,,,,,,,,,,,,,,,,,,,,,,,,,,,,,,
1656264295.352955,74.000000,0.000000,4253.846191,4194.358887,4083.589844,4095.897461,4202.563965,450.000000,4.000000,91.000000,,,,0.000000,4.000000,4.000000,4.000000,4.000000,4.000000,100.000000,,,,,,,,,,,,,,,,,,,,,,,,,,,,,,,,,,,,,,,,,,,,,,,,,,,,,,,,,,,,,,,
1656264295.360869,75.000000,0.000000,4241.025879,4250.769043,4094.871826,4114.358887,4231.282227,16179.000000,4.000000,91.000000,,,,0.000000,4.000000,4.000000,4.000000,4.000000,4.000000,100.000000,,,,,,,,,,,,,,,,,,,,,,,,,,,,,,,,,,,,,,,,,,,,,,,,,,,,,,,,,,,,,,,
1656264295.368684,76.000000,0.000000,4241.025879,4262.563965,4117.436035,4114.871582,4249.743652,450.000000,4.000000,91.000000,,,,0.000000,4.000000,4.000000,4.000000,4.000000,4.000000,100.000000,,,,,,,,,,,,,,,,,,,,,,,,,,,,,,,,,,,,,,,,,,,,,,,,,,,,,,,,,,,,,,,
1656264295.376498,77.000000,0.000000,4251.282227,4216.922852,4139.487305,4110.769043,4232.307617,450.000000,4.000000,91.000000,,,,0.000000,4.000000,4.000000,4.000000,4.000000,4.000000,100.000000,,,,,,,,,,,,,,,,,,,,,,,,,,,,,,,,,,,,,,,,,,,,,,,,,,,,,,,,,,,,,,,
1656264295.384313,78.000000,0.000000,4270.256348,4195.897461,4145.641113,4118.974121,4217.436035,450.000000,4.000000,91.000000,,,,0.000000,4.000000,4.000000,4.000000,4.000000,4.000000,100.000000,,,,,,,,,,,,,,,,,,,,,,,,,,,,,,,,,,,,,,,18.866508,2.255579,2.145409,1.573652,1.144185,2.262225,1.836517,2.290622,1.080122,1.638874,8.812368,18.645060,0.712116,1.926857,1.494800,2.075515,2.645602,2.859544,1.865645,1.080986,6.981379,2.775691,2.508211,0.924645,1.230477
1656264295.392027,79.000000,0.000000,4267.692383,4229.230957,4148.205078,4121.025879,4223.077148,16179.000000,4.000000,91.000000,,,,0.000000,4.000000,4.000000,4.000000,4.000000,4.000000,100.000000,,,,,,,,,,,,,,,,,,,,,,,,,,,,,,,,,,,,,,,,,,,,,,,,,,,,,,,,,,,,,,,
1656264295.399842,80.000000,0.000000,4236.410156,4254.871582,4161.538574,4093.846191,4225.128418,450.000000,4.000000,91.000000,,,,0.000000,4.000000,4.000000,4.000000,4.000000,4.000000,100.000000,,,,,,,,,,,,,,,,,,,,,,,,,,,,,,,,,,,,,,,,,,,,,,,,,,,,,,,,,,,,,,,
1656264295.407556,81.000000,0.000000,4236.410156,4242.051270,4153.333496,4080.000000,4231.794922,450.000000,4.000000,91.000000,,,,0.000000,4.000000,4.000000,4.000000,4.000000,4.000000,100.000000,,,,,,,,,,,,,,,,,,,,,,,,,,,,,,,,,,,,,,,,,,,,,,,,,,,,,,,,,,,,,,,
1656264295.415371,82.000000,0.000000,4262.051270,4245.641113,4135.897461,4098.974121,4241.538574,450.000000,4.000000,91.000000,,,,0.000000,4.000000,4.000000,4.000000,4.000000,4.000000,100.000000,,,,,,,,,,,,,,,,,,,,,,,,,,,,,,,,,,,,,,,,,,,,,,,,,,,,,,,,,,,,,,,
1656264295.423085,83.000000,0.000000,4257.948730,4254.358887,4121.538574,4103.077148,4231.794922,16179.000000,4.000000,91.000000,,,,0.000000,4.000000,4.000000,4.000000,4.000000,4.000000,100.000000,,,,,,,,,,,,,,,,,,,,,,,,,,,,,,,,,,,,,,,,,,,,,,,,,,,,,,,,,,,,,,,
1656264295.430999,84.000000,0.000000,4248.717773,4238.461426,4101.025879,4095.384521,4225.128418,450.000000,4.000000,91.000000,,,,0.000000,4.000000,4.000000,4.000000,4.000000,4.000000,100.000000,,,,,,,,,,,,,,,,,,,,,,,,,,,,,,,,,,,,,,,,,,,,,,,,,,,,,,,,,,,,,,,
1656264295.438814,85.000000,0.000000,4251.282227,4235.897461,4100.512695,4091.794922,4222.051270,450.000000,4.000000,91.000000,,,,0.000000,4.000000,4.000000,4.000000,4.000000,4.000000,100.000000,,,,,,,,,,,,,,,,,,,,,,,,,,,,,,,,,,,,,,,,,,,,,,,,,,,,,,,,,,,,,,,
1656264295.446628,86.000000,0.000000,4248.717773,4246.666504,4120.512695,4071.281982,4209.743652,450.000000,4.000000,91.000000,,,,0.000000,4.000000,4.000000,4.000000,4.000000,4.000000,100.000000,,,,,,,,,,,,,,,,,,,,,,,,,,,,,,,,,,,,,,,,,,,,,,,,,,,,,,,,,,,,,,,
1656264295.454343,87.000000,0.000000,4275.384766,4236.922852,4122.563965,4083.589844,4225.128418,16179.000000,4.000000,91.000000,,,,0.000000,4.000000,4.000000,4.000000,4.000000,4.000000,100.000000,,,,,,,,,,,,,,,,,,,,,,,,,,,,,,,,,,,,,,,,,,,,,,,,,,,,,,,,,,,,,,,
1656264295.462257,88.000000,0.000000,4300.000000,4223.589844,4098.461426,4135.897461,4253.846191,450.000000,4.000000,91.000000,,,,0.000000,4.000000,4.000000,4.000000,4.000000,4.000000,100.000000,,,,,,,,,,,,,,,,,,,,,,,,,,,,,,,,,,,,,,,,,,,,,,,,,,,,,,,,,,,,,,,
1656264295.470071,89.000000,0.000000,4284.102539,4233.846191,4100.000000,4136.410156,4252.820313,450.000000,4.000000,91.000000,,,,0.000000,4.000000,4.000000,4.000000,4.000000,4.000000,100.000000,,,,,,,,,,,,,,,,,,,,,,,,,,,,,,,,,,,,,,,,,,,,,,,,,,,,,,,,,,,,,,,
1656264295.477986,90.000000,0.000000,4278.974121,4241.025879,4117.948730,4109.743652,4244.615234,450.000000,4.000000,91.000000,,,,0.000000,4.000000,4.000000,4.000000,4.000000,4.000000,100.000000,,,,,,,,,,,,,,,,,,,,,,,,,,,,,,,,,,,,,,,,,,,,,,,,,,,,,,,,,,,,,,,
1656264295.485800,91.000000,0.000000,4274.871582,4230.769043,4105.641113,4109.230957,4242.051270,16179.000000,4.000000,91.000000,,,,0.000000,4.000000,4.000000,4.000000,4.000000,4.000000,100.000000,,,,,,,,,,,,,,,,,,,,,,,,,,,,,,,,,,,,,,,,,,,,,,,,,,,,,,,,,,,,,,,
1656264295.493714,92.000000,0.000000,4252.307617,4235.897461,4102.051270,4105.128418,4228.717773,450.000000,4.000000,91.000000,,,,0.000000,4.000000,4.000000,4.000000,4.000000,4.000000,100.000000,,,,,,,,,,,,,,,,,,,,,,,,,,,,,,,,,,,,,,,,,,,,,,,,,,,,,,,,,,,,,,,
1656264295.501529,93.000000,0.000000,4247.692383,4236.922852,4113.333496,4098.974121,4207.692383,450.000000,4.000000,91.000000,,,,0.000000,4.000000,4.000000,4.000000,4.000000,4.000000,100.000000,,,,,,,,,,,,,,,,,,,,,,,,,,,,,,,,,,,,,,,,,,,,,,,,,,,,,,,,,,,,,,,
1656264295.509443,94.000000,0.000000,4262.563965,4225.641113,4102.563965,4117.948730,4210.769043,450.000000,4.000000,91.000000,,,,0.000000,4.000000,4.000000,4.000000,4.000000,4.000000,100.000000,,,,,,,,,,,,,,,,,,,,,,,,,,,,,,,,,,,,,,,22.407368,2.222779,2.346283,1.610021,1.117379,2.270764,2.036503,1.900362,0.954344,1.532864,7.357975,18.133902,0.978816,1.736608,1.507154,1.682833,3.158902,3.264897,1.827206,0.995147,6.981095,3.459183,2.290758,0.709278,1.126251
1656264295.517258,95.000000,0.000000,4261.025879,4237.948730,4081.538574,4120.512695,4234.358887,16179.000000,4.000000,91.000000,,,,0.000000,4.000000,4.000000,4.000000,4.000000,4.000000,100.000000,,,,,,,,,,,,,,,,,,,,,,,,,,,,,,,,,,,,,,,,,,,,,,,,,,,,,,,,,,,,,,,
1656264295.525172,96.000000,0.000000,4241.025879,4253.846191,4081.025635,4088.718018,4235.384766,450.000000,4.000000,91.000000,,,,0.000000,4.000000,4.000000,4.000000,4.000000,4.000000,100.000000,,,,,,,,,,,,,,,,,,,,,,,,,,,,,,,,,,,,,,,,,,,,,,,,,,,,,,,,,,,,,,,
1656264295.532986,97.000000,0.000000,4244.102539,4245.128418,4094.358887,4087.692383,4219.487305,450.000000,4.000000,91.000000,,,,0.000000,4.000000,4.000000,4.000000,4.000000,4.000000,100.000000,,,,,,,,,,,,,,,,,,,,,,,,,,,,,,,,,,,,,,,,,,,,,,,,,,,,,,,,,,,,,,,
1656264295.540901,98.000000,0.000000,4262.051270,4228.205078,4094.358887,4109.230957,4214.871582,450.000000,4.000000,91.000000,,,,0.000000,4.000000,4.000000,4.000000,4.000000,4.000000,100.000000,,,,,,,,,,,,,,,,,,,,,,,,,,,,,,,,,,,,,,,,,,,,,,,,,,,,,,,,,,,,,,,
1656264295.548715,99.000000,0.000000,4269.743652,4226.666504,4095.897461,4107.692383,4226.153809,16179.000000,4.000000,91.000000,,,,0.000000,4.000000,4.000000,4.000000,4.000000,4.000000,100.000000,,,,,,,,,,,,,,,,,,,,,,,,,,,,,,,,,,,,,,,,,,,,,,,,,,,,,,,,,,,,,,,
1656264295.556529,100.000000,0.000000,4265.128418,4247.179688,4112.820313,4096.922852,4236.410156,450.000000,4.000000,91.000000,,,,0.000000,4.000000,4.000000,4.000000,4.000000,4.000000,100.000000,,,,,,,,,,,,,,,,,,,,,,,,,,,,,,,,,,,,,,,,,,,,,,,,,,,,,,,,,,,,,,,
1656264295.564244,101.000000,0.000000,4250.256348,4258.461426,4126.666504,4104.615234,4230.769043,450.000000,4.000000,91.000000,,,,0.000000,4.000000,4.000000,4.000000,4.000000,4.000000,100.000000,,,,,,,,,,,,,,,,,,,,,,,,,,,,,,,,,,,,,,,,,,,,,,,,,,,,,,,,,,,,,,,
1656264295.571958,102.000000,0.000000,4250.769043,4248.717773,4124.615234,4110.256348,4225.641113,450.000000,4.000000,91.000000,,,,0.000000,4.000000,4.000000,4.000000,4.000000,4.000000,100.000000,,,,,,,,,,,,,,,,,,,,,,,,,,,,,,,,,,,,,,,,,,,,,,,,,,,,,,,,,,,,,,,
1656264295.579873,103.000000,0.000000,4263.589844,4235.897461,4120.000000,4083.076904,4222.051270,16179.000000,4.000000,91.000000,,,,0.000000,4.000000,4.000000,4.000000,4.000000,4.000000,100.000000,,,,,,,,,,,,,,,,,,,,,,,,,,,,,,,,,,,,,,,,,,,,,,,,,,,,,,,,,,,,,,,
1656264295.587687,104.000000,0.000000,4256.922852,4244.615234,4116.410156,4066.153809,4219.487305,450.000000,4.000000,91.000000,,,,0.000000,4.000000,4.000000,4.000000,4.000000,4.000000,100.000000,,,,,,,,,,,,,,,,,,,,,,,,,,,,,,,,,,,,,,,,,,,,,,,,,,,,,,,,,,,,,,,
1656264295.595601,105.000000,0.000000,4267.179688,4247.692383,4112.820313,4092.820557,4230.256348,450.000000,4.000000,91.000000,,,,0.000000,4.000000,4.000000,4.000000,4.000000,4.000000,100.000000,,,,,,,,,,,,,,,,,,,,,,,,,,,,,,,,,,,,,,,,,,,,,,,,,,,,,,,,,,,,,,,
1656264295.603416,106.000000,0.000000,4293.333496,4232.307617,4104.102539,4121.025879,4235.897461,450.000000,4.000000,91.000000,,,,0.000000,4.000000,4.000000,4.000000,4.000000,4.000000,100.000000,,,,,,,,,,,,,,,,,,,,,,,,,,,,,,,,,,,,,,,,,,,,,,,,,,,,,,,,,,,,,,,
1656264295.611330,107.000000,0.000000,4282.563965,4240.512695,4089.743652,4124.102539,4232.307617,16179.000000,4.000000,91.000000,,,,0.000000,4.000000,4.000000,4.000000,4.000000,4.000000,100.000000,,,,,,,,,,,,,,,,,,,,,,,,,,,,,,,,,,,,,,,,,,,,,,,,,,,,,,,,,,,,,,,
1656264295.619144,108.000000,0.000000,4265.641113,4243.589844,4087.179443,4110.769043,4226.153809,450.000000,4.000000,91.000000,,,,0.000000,4.000000,4.000000,4.000000,4.000000,4.000000,100.000000,,,,,,,,,,,,,,,,,,,,,,,,,,,,,,,,,,,,,,,,,,,,,,,,,,,,,,,,,,,,,,,
1656264295.627059,109.000000,0.000000,4282.563965,4224.102539,4100.512695,4107.692383,4221.538574,450.000000,4.000000,91.000000,,,,0.000000,4.000000,4.000000,4.000000,4.000000,4.000000,100.000000,,,,,,,,,,,,,,,,,,,,,,,,,,,,,,,,,,,,,,,,,,,,,,,,,,,,,,,,,,,,,,,
1656264295.634873,110.000000,0.000000,4279.487305,4249.230957,4114.871582,4117.948730,4234.871582,450.000000,4.000000,91.000000,,,,0.000000,4.000000,4.000000,4.000000,4.000000,4.000000,100.000000,,,,,,,,,,,,,,,,,,,,,,,,,,,,,,,,,,,,,,,23.272820,2.525355,2.576570,1.666220,1.108438,2.264080,2.326076,1.661176,0.997895,1.505042,5.947176,19.539944,1.416890,1.686717,1.571931,1.689699,3.818370,3.663271,1.766853,0.959916,6.466695,4.516012,2.100770,0.621644,1.107425
1656264295.642788,111.000000,0.000000,4239.487305,4275.384766,4102.563965,4089.743652,4238.974121,16179.000000,4.000000,91.000000,,,,0.000000,4.000000,4.000000,4.000000,4.000000,4.000000,100.000000,,,,,,,,,,,,,,,,,,,,,,,,,,,,,,,,,,,,,,,,,,,,,,,,,,,,,,,,,,,,,,,
1656264295.650602,112.000000,0.000000,4242.563965,4247.692383,4081.538574,4061.025635,4223.589844,450.000000,4.000000,91.000000,,,,0.000000,4.000000,4.000000,4.000000,4.000000,4.000000,100.000000,,,,,,,,,,,,,,,,,,,,,,,,,,,,,,,,,,,,,,,,,,,,,,,,,,,,,,,,,,,,,,,
1656264295.658516,113.000000,0.000000,4270.256348,4232.307617,4092.820557,4087.179443,4214.871582,450.000000,4.000000,91.000000,,,,0.000000,4.000000,4.000000,4.000000,4.000000,4.000000,100.000000,,,,,,,,,,,,,,,,,,,,,,,,,,,,,,,,,,,,,,,,,,,,,,,,,,,,,,,,,,,,,,,
1656264295.666331,114.000000,0.000000,4258.974121,4240.512695,4116.410156,4104.615234,4205.128418,450.000000,4.000000,91.000000,,,,0.000000,4.000000,4.000000,4.000000,4.000000,4.000000,100.000000,,,,,,,,,,,,,,,,,,,,,,,,,,,,,,,,,,,,,,,,,,,,,,,,,,,,,,,,,,,,,,,
1656264295.674145,115.000000,0.000000,4253.333496,4241.025879,4112.307617,4099.487305,4209.743652,16179.000000,4.000000,91.000000,,,,0.000000,4.000000,4.000000,4.000000,4.000000,4.000000,100.000000,,,,,,,,,,,,,,,,,,,,,,,,,,,,,,,,,,,,,,,,,,,,,,,,,,,,,,,,,,,,,,,
1656264295.681860,116.000000,0.000000,4264.102539,4252.307617,4092.307617,4111.794922,4231.794922,450.000000,4.000000,91.000000,,,,0.000000,4.000000,4.000000,4.000000,4.000000,4.000000,100.000000,,,,,,,,,,,,,,,,,,,,,,,,,,,,,,,,,,,,,,,,,,,,,,,,,,,,,,,,,,,,,,,
1656264295.689774,117.000000,0.000000,4263.077148,4255.384766,4096.410156,4114.358887,4229.743652,450.000000,4.000000,91.000000,,,,0.000000,4.000000,4.000000,4.000000,4.000000,4.000000,100.000000,,,,,,,,,,,,,,,,,,,,,,,,,,,,,,,,,,,,,,,,,,,,,,,,,,,,,,,,,,,,,,,
1656264295.697588,118.000000,0.000000,4264.615234,4261.538574,4104.102539,4117.948730,4231.282227,450.000000,4.000000,91.000000,,,,0.000000,4.000000,4.000000,4.000000,4.000000,4.000000,100.000000,,,,,,,,,,,,,,,,,,,,,,,,,,,,,,,,,,,,,,,,,,,,,,,,,,,,,,,,,,,,,,,
1656264295.705503,119.000000,0.000000,4261.025879,4285.128418,4091.794922,4125.641113,4244.102539,16179.000000,4.000000,91.000000,,,,0.000000,4.000000,4.000000,4.000000,4.000000,4.000000,100.000000,,,,,,,,,,,,,,,,,,,,,,,,,,,,,,,,,,,,,,,,,,,,,,,,,,,,,,,,,,,,,,,
1656264295.713317,120.000000,0.000000,4251.282227,4280.512695,4087.179443,4113.333496,4235.384766,450.000000,4.000000,91.000000,,,,0.000000,4.000000,4.000000,4.000000,4.000000,4.000000,100.000000,,,,,,,,,,,,,,,,,,,,,,,,,,,,,,,,,,,,,,,,,,,,,,,,,,,,,,,,,,,,,,,
1656264295.721031,121.000000,0.000000,4269.230957,4247.692383,4083.589844,4116.922852,4238.974121,450.000000,4.000000,91.000000,,,,0.000000,4.000000,4.000000,4.000000,4.000000,4.000000,100.000000,,,,,,,,,,,,,,,,,,,,,,,,,,,,,,,,,,,,,,,,,,,,,,,,,,,,,,,,,,,,,,,
1656264295.728846,122.000000,0.000000,4289.743652,4235.897461,4078.461426,4126.666504,4258.974121,450.000000,4.000000,91.000000,,,,0.000000,4.000000,4.000000,4.000000,4.000000,4.000000,100.000000,,,,,,,,,,,,,,,,,,,,,,,,,,,,,,,,,,,,,,,,,,,,,,,,,,,,,,,,,,,,,,,
1656264295.736660,123.000000,0.000000,4274.871582,4252.307617,4075.384521,4105.128418,4261.025879,16179.000000,4.000000,91.000000,,,,0.000000,4.000000,4.000000,4.000000,4.000000,4.000000,100.000000,,,,,,,,,,,,,,,,,,,,,,,,,,,,,,,,,,,,,,,,,,,,,,,,,,,,,,,,,,,,,,,
1656264295.744475,124.000000,0.000000,4267.692383,4261.025879,4061.025635,4101.538574,4262.563965,450.000000,4.000000,91.000000,,,,0.000000,4.000000,4.000000,4.000000,4.000000,4.000000,100.000000,,,,,,,,,,,,,,,,,,,,,,,,,,,,,,,,,,,,,,,,,,,,,,,,,,,,,,,,,,,,,,,
1656264295.752189,125.000000,0.000000,4281.025879,4258.461426,4060.512939,4123.077148,4275.384766,450.000000,4.000000,91.000000,,,,0.000000,4.000000,4.000000,4.000000,4.000000,4.000000,100.000000,,,,,,,,,,,,,,,,,,,,,,,,,,,,,,,,,,,,,,,,,,,,,,,,,,,,,,,,,,,,,,,
1656264295.760004,126.000000,0.000000,4267.692383,4255.384766,4074.358887,4102.563965,4251.282227,450.000000,4.000000,91.000000,,,,0.000000,4.000000,4.000000,4.000000,4.000000,4.000000,100.000000,1.000000,100.000000,4.000000,4.000000,4.000000,4.000000,4.000000,,,,,,,,,,,,,,,,,,,,,,,,,,,,,,,,21.189981,3.066623,2.752313,1.701129,1.117140,2.276345,2.528259,1.616428,1.198122,1.548862,4.942235,22.416788,1.979717,1.751178,1.644473,1.934582,4.474367,3.865427,1.661663,0.972064,5.530271,5.668572,1.921908,0.646162,1.121074
1656264295.767718,127.000000,0.000000,4245.641113,4253.333496,4072.820557,4081.025635,4215.384766,242.000000,4.000000,91.000000,,,,0.000000,4.000000,4.000000,4.000000,4.000000,4.000000,100.000000,,,,,,,,,,,,,,,,,,,,,,,,,,,,,,,,,,,,,,,,,,,,,,,,,,,,,,,,,,,,,,,
1656264295.775632,0.000000,0.000000,4256.410156,4257.948730,4073.846191,4103.077148,4223.077148,450.000000,4.000000,91.000000,,,,0.000000,4.000000,4.000000,4.000000,4.000000,4.000000,100.000000,,,,,,,,,,,,,,,,,,,,,,,,,,,,,,,,,,,,,,,,,,,,,,,,,,,,,,,,,,,,,,,
1656264295.783447,1.000000,0.000000,4259.487305,4244.615234,4084.102539,4097.436035,4224.615234,450.000000,4.000000,91.000000,,,,0.000000,4.000000,4.000000,4.000000,4.000000,4.000000,100.000000,,,,,,,,,,,,,,,,,,,,,,,,,,,,,,,,,,,,,,,,,,,,,,,,,,,,,,,,,,,,,,,
1656264295.791361,2.000000,0.000000,4244.102539,4221.538574,4072.307617,4080.512939,4204.615234,16205.000000,4.000000,91.000000,,,,0.000000,4.000000,4.000000,4.000000,4.000000,4.000000,100.000000,,,,,,,,,,,,,,,,,,,,,,,,,,,,,,,,,,,,,,,,,,,,,,,,,,,,,,,,,,,,,,,
1656264295.799176,3.000000,0.000000,4257.436035,4236.410156,4046.153809,4105.641113,4217.436035,450.000000,4.000000,91.000000,,,,0.000000,4.000000,4.000000,4.000000,4.000000,4.000000,100.000000,,,,,,,,,,,,,,,,,,,,,,,,,,,,,,,,,,,,,,,,,,,,,,,,,,,,,,,,,,,,,,,
1656264295.807090,4.000000,0.000000,4278.461426,4266.153809,4054.358887,4119.487305,4246.153809,16201.000000,4.000000,91.000000,,,,0.000000,4.000000,4.000000,4.000000,4.000000,4.000000,100.000000,,,,,,,,,,,,,,,,,,,,,,,,,,,,,,,,,,,,,,,,,,,,,,,,,,,,,,,,,,,,,,,
1656264295.814904,5.000000,0.000000,4287.179688,4252.820313,4073.846191,4114.871582,4253.333496,450.000000,4.000000,91.000000,,,,0.000000,4.000000,4.000000,4.000000,4.000000,4.000000,100.000000,,,,,,,,,,,,,,,,,,,,,,,,,,,,,,,,,,,,,,,,,,,,,,,,,,,,,,,,,,,,,,,
1656264295.822819,6.000000,0.000000,4301.538574,4229.230957,4060.512939,4120.512695,4257.948730,16172.000000,4.000000,91.000000,,,,0.000000,4.000000,4.000000,4.000000,4.000000,4.000000,100.000000,,,,,,,,,,,,,,,,,,,,,,,,,,,,,,,,,,,,,,,,,,,,,,,,,,,,,,,,,,,,,,,
1656264295.830633,7.000000,0.000000,4302.051270,4245.128418,4059.487061,4116.922852,4267.692383,450.000000,4.000000,91.000000,,,,0.000000,4.000000,4.000000,4.000000,4.000000,4.000000,100.000000,,,,,,,,,,,,,,,,,,,,,,,,,,,,,,,,,,,,,,,,,,,,,,,,,,,,,,,,,,,,,,,
1656264295.838547,8.000000,0.000000,4283.589844,4258.974121,4077.435791,4113.333496,4263.077148,450.000000,4.000000,91.000000,,,,0.000000,4.000000,4.000000,4.000000,4.000000,4.000000,100.000000,,,,,,,,,,,,,,,,,,,,,,,,,,,,,,,,,,,,,,,,,,,,,,,,,,,,,,,,,,,,,,,
1656264295.846362,9.000000,0.000000,4273.333496,4245.641113,4072.307617,4118.974121,4253.846191,16198.000000,4.000000,91.000000,,,,0.000000,4.000000,4.000000,4.000000,4.000000,4.000000,100.000000,,,,,,,,,,,,,,,,,,,,,,,,,,,,,,,,,,,,,,,,,,,,,,,,,,,,,,,,,,,,,,,
1656264295.854276,10.000000,0.000000,4286.666504,4249.743652,4069.743652,4115.384766,4257.948730,450.000000,4.000000,91.000000,,,,0.000000,4.000000,4.000000,4.000000,4.000000,4.000000,100.000000,,,,,,,,,,,,,,,,,,,,,,,,,,,,,,,,,,,,,,,,,,,,,,,,,,,,,,,,,,,,,,,
1656264295.862090,11.000000,0.000000,4283.589844,4260.512695,4089.743652,4108.205078,4252.820313,16181.000000,4.000000,91.000000,,,,0.000000,4.000000,4.000000,4.000000,4.000000,4.000000,100.000000,,,,,,,,,,,,,,,,,,,,,,,,,,,,,,,,,,,,,,,,,,,,,,,,,,,,,,,,,,,,,,,
1656264295.870005,12.000000,0.000000,4267.692383,4244.615234,4107.179688,4109.230957,4242.051270,450.000000,4.000000,91.000000,,,,0.000000,4.000000,4.000000,4.000000,4.000000,4.000000,100.000000,,,,,,,,,,,,,,,,,,,,,,,,,,,,,,,,,,,,,,,,,,,,,,,,,,,,,,,,,,,,,,,
1656264295.877819,13.000000,0.000000,4275.897461,4239.487305,4103.077148,4109.230957,4245.641113,450.000000,4.000000,91.000000,,,,0.000000,4.000000,4.000000,4.000000,4.000000,4.000000,100.000000,,,,,,,,,,,,,,,,,,,,,,,,,,,,,,,,,,,,,,,,,,,,,,,,,,,,,,,,,,,,,,,
1656264295.885733,14.000000,0.000000,4280.000000,4256.922852,4082.051270,4112.307617,4246.666504,450.000000,4.000000,91.000000,,,,0.000000,4.000000,4.000000,4.000000,4.000000,4.000000,100.000000,,,,,,,,,,,,,,,,,,,,,,,,,,,,,,,,,,,,,,,16.864100,3.671828,2.833381,1.689693,1.142194,2.314905,2.511658,1.700250,1.489973,1.649016,4.525233,25.699987,2.540426,1.874963,1.678258,2.211600,4.955758,3.810550,1.540958,1.023149,4.375101,6.548667,1.706661,0.754917,1.118899
1656264295.893548,15.000000,0.000000,4272.307617,4261.025879,4080.512939,4121.025879,4235.897461,16181.000000,4.000000,91.000000,,,,0.000000,4.000000,4.000000,4.000000,4.000000,4.000000,100.000000,,,,,,,,,,,,,,,,,,,,,,,,,,,,,,,,,,,,,,,,,,,,,,,,,,,,,,,,,,,,,,,
1656264295.901462,16.000000,0.000000,4264.102539,4251.282227,4097.436035,4102.563965,4223.077148,0.000000,4.000000,91.000000,,,,0.000000,4.000000,4.000000,4.000000,4.000000,4.000000,100.000000,,,,,,,,,,,,,,,,,,,,,,,,,,,,,,,,,,,,,,,,,,,,,,,,,,,,,,,,,,,,,,,
1656264295.909277,17.000000,0.000000,4263.077148,4258.461426,4085.128174,4086.153809,4235.384766,0.000000,4.000000,91.000000,,,,0.000000,4.000000,4.000000,4.000000,4.000000,4.000000,100.000000,,,,,,,,,,,,,,,,,,,,,,,,,,,,,,,,,,,,,,,,,,,,,,,,,,,,,,,,,,,,,,,
1656264295.916991,18.000000,0.000000,4269.743652,4266.153809,4075.384521,4095.897461,4249.230957,0.000000,4.000000,91.000000,,,,0.000000,4.000000,4.000000,4.000000,4.000000,4.000000,100.000000,,,,,,,,,,,,,,,,,,,,,,,,,,,,,,,,,,,,,,,,,,,,,,,,,,,,,,,,,,,,,,,
1656264295.924805,19.000000,0.000000,4268.205078,4251.282227,4086.666748,4092.820557,4238.974121,0.000000,4.000000,91.000000,,,,0.000000,4.000000,4.000000,4.000000,4.000000,4.000000,100.000000,,,,,,,,,,,,,,,,,,,,,,,,,,,,,,,,,,,,,,,,,,,,,,,,,,,,,,,,,,,,,,,
1656264295.932520,20.000000,0.000000,4268.205078,4245.128418,4084.102539,4092.307617,4241.538574,0.000000,4.000000,91.000000,,,,0.000000,4.000000,4.000000,4.000000,4.000000,4.000000,100.000000,,,,,,,,,,,,,,,,,,,,,,,,,,,,,,,,,,,,,,,,,,,,,,,,,,,,,,,,,,,,,,,
1656264295.940434,21.000000,0.000000,4282.563965,4238.974121,4076.923096,4104.615234,4244.102539,0.000000,4.000000,91.000000,,,,0.000000,4.000000,4.000000,4.000000,4.000000,4.000000,100.000000,,,,,,,,,,,,,,,,,,,,,,,,,,,,,,,,,,,,,,,,,,,,,,,,,,,,,,,,,,,,,,,
1656264295.948249,22.000000,0.000000,4280.000000,4232.307617,4073.333252,4087.179443,4226.153809,0.000000,4.000000,91.000000,,,,0.000000,4.000000,4.000000,4.000000,4.000000,4.000000,100.000000,,,,,,,,,,,,,,,,,,,,,,,,,,,,,,,,,,,,,,,,,,,,,,,,,,,,,,,,,,,,,,,
1656264295.956063,23.000000,0.000000,4274.871582,4241.538574,4070.256348,4086.666748,4229.743652,0.000000,4.000000,91.000000,,,,0.000000,4.000000,4.000000,4.000000,4.000000,4.000000,100.000000,,,,,,,,,,,,,,,,,,,,,,,,,,,,,,,,,,,,,,,,,,,,,,,,,,,,,,,,,,,,,,,
1656264295.963778,24.000000,0.000000,4297.436035,4231.794922,4083.589844,4133.333496,4248.205078,0.000000,4.000000,91.000000,,,,0.000000,4.000000,4.000000,4.000000,4.000000,4.000000,100.000000,,,,,,,,,,,,,,,,,,,,,,,,,,,,,,,,,,,,,,,,,,,,,,,,,,,,,,,,,,,,,,,
1656264295.971592,25.000000,0.000000,4300.000000,4217.948730,4093.333252,4140.000000,4243.077148,0.000000,4.000000,91.000000,,,,0.000000,4.000000,4.000000,4.000000,4.000000,4.000000,100.000000,,,,,,,,,,,,,,,,,,,,,,,,,,,,,,,,,,,,,,,,,,,,,,,,,,,,,,,,,,,,,,,
1656264295.979307,26.000000,0.000000,4273.846191,4251.282227,4061.025635,4113.846191,4248.205078,0.000000,4.000000,91.000000,,,,0.000000,4.000000,4.000000,4.000000,4.000000,4.000000,100.000000,,,,,,,,,,,,,,,,,,,,,,,,,,,,,,,,,,,,,,,,,,,,,,,,,,,,,,,,,,,,,,,
1656264295.987121,27.000000,0.000000,4265.128418,4277.948730,4054.358887,4107.179688,4255.384766,0.000000,4.000000,91.000000,,,,0.000000,4.000000,4.000000,4.000000,4.000000,4.000000,100.000000,,,,,,,,,,,,,,,,,,,,,,,,,,,,,,,,,,,,,,,,,,,,,,,,,,,,,,,,,,,,,,,
1656264295.994835,28.000000,0.000000,4271.794922,4266.666504,4087.692383,4105.128418,4240.512695,0.000000,4.000000,91.000000,,,,0.000000,4.000000,4.000000,4.000000,4.000000,4.000000,100.000000,,,,,,,,,,,,,,,,,,,,,,,,,,,,,,,,,,,,,,,,,,,,,,,,,,,,,,,,,,,,,,,
1656264296.002650,29.000000,0.000000,4255.384766,4269.743652,4068.205078,4101.538574,4232.307617,0.000000,4.000000,91.000000,,,,0.000000,4.000000,4.000000,4.000000,4.000000,4.000000,100.000000,,,,,,,,,,,,,,,,,,,,,,,,,,,,,,,,,,,,,,,,,,,,,,,,,,,,,,,,,,,,,,,
1656264296.010364,30.000000,0.000000,4241.538574,4268.717773,4036.923096,4102.051270,4227.692383,0.000000,4.000000,91.000000,,,,0.000000,4.000000,4.000000,4.000000,4.000000,4.000000,100.000000,,,,,,,,,,,,,,,,,,,,,,,,,,,,,,,,,,,,,,,11.770446,4.172580,2.835873,1.621790,1.184215,2.361765,2.251504,1.790851,1.796997,1.782546,4.630980,28.086542,2.957240,1.990455,1.648914,2.351942,5.155628,3.591480,1.457215,1.101152,3.255695,6.908107,1.441085,0.931711,1.079064
1656264296.018179,31.000000,0.000000,4265.641113,4245.641113,4045.641113,4113.333496,4231.282227,0.000000,4.000000,91.000000,,,,0.000000,4.000000,4.000000,4.000000,4.000000,4.000000,100.000000,,,,,,,,,,,,,,,,,,,,,,,,,,,,,,,,,,,,,,,,,,,,,,,,,,,,,,,,,,,,,,,
1656264296.025893,32.000000,0.000000,4289.230957,4244.102539,4033.846191,4129.743652,4254.358887,0.000000,4.000000,91.000000,,,,0.000000,4.000000,4.000000,4.000000,4.000000,4.000000,100.000000,,,,,,,,,,,,,,,,,,,,,,,,,,,,,,,,,,,,,,,,,,,,,,,,,,,,,,,,,,,,,,,
1656264296.033808,33.000000,0.000000,4287.692383,4263.589844,4013.846191,4125.128418,4264.615234,0.000000,4.000000,91.000000,,,,0.000000,4.000000,4.000000,4.000000,4.000000,4.000000,100.000000,,,,,,,,,,,,,,,,,,,,,,,,,,,,,,,,,,,,,,,,,,,,,,,,,,,,,,,,,,,,,,,
1656264296.041622,34.000000,0.000000,4272.307617,4248.205078,4031.794922,4088.205078,4233.333496,0.000000,4.000000,91.000000,,,,0.000000,4.000000,4.000000,4.000000,4.000000,4.000000,100.000000,,,,,,,,,,,,,,,,,,,,,,,,,,,,,,,,,,,,,,,,,,,,,,,,,,,,,,,,,,,,,,,
1656264296.049436,35.000000,0.000000,4263.589844,4215.384766,4045.641113,4072.820557,4210.769043,0.000000,4.000000,91.000000,,,,0.000000,4.000000,4.000000,4.000000,4.000000,4.000000,100.000000,,,,,,,,,,,,,,,,,,,,,,,,,,,,,,,,,,,,,,,,,,,,,,,,,,,,,,,,,,,,,,,
1656264296.057151,36.000000,0.000000,4277.948730,4218.974121,4031.281982,4099.487305,4237.948730,0.000000,4.000000,91.000000,,,,0.000000,4.000000,4.000000,4.000000,4.000000,4.000000,100.000000,,,,,,,,,,,,,,,,,,,,,,,,,,,,,,,,,,,,,,,,,,,,,,,,,,,,,,,,,,,,,,,
1656264296.065065,37.000000,0.000000,4295.384766,4231.794922,4028.718018,4116.922852,4258.461426,0.000000,4.000000,91.000000,,,,0.000000,4.000000,4.000000,4.000000,4.000000,4.000000,100.000000,,,,,,,,,,,,,,,,,,,,,,,,,,,,,,,,,,,,,,,,,,,,,,,,,,,,,,,,,,,,,,,
1656264296.072979,38.000000,0.000000,4291.282227,4238.974121,4046.153809,4121.538574,4247.692383,0.000000,4.000000,91.000000,,,,0.000000,4.000000,4.000000,4.000000,4.000000,4.000000,100.000000,,,,,,,,,,,,,,,,,,,,,,,,,,,,,,,,,,,,,,,,,,,,,,,,,,,,,,,,,,,,,,,
1656264296.080794,39.000000,0.000000,4272.307617,4261.025879,4046.153809,4126.153809,4246.153809,0.000000,4.000000,91.000000,,,,0.000000,4.000000,4.000000,4.000000,4.000000,4.000000,100.000000,,,,,,,,,,,,,,,,,,,,,,,,,,,,,,,,,,,,,,,,,,,,,,,,,,,,,,,,,,,,,,,
1656264296.088608,40.000000,0.000000,4262.051270,4274.358887,4027.692383,4121.538574,4261.025879,0.000000,4.000000,91.000000,,,,0.000000,4.000000,4.000000,4.000000,4.000000,4.000000,100.000000,,,,,,,,,,,,,,,,,,,,,,,,,,,,,,,,,,,,,,,,,,,,,,,,,,,,,,,,,,,,,,,
1656264296.096323,41.000000,0.000000,4270.256348,4255.384766,4041.025635,4106.153809,4251.282227,0.000000,4.000000,91.000000,,,,0.000000,4.000000,4.000000,4.000000,4.000000,4.000000,100.000000,,,,,,,,,,,,,,,,,,,,,,,,,,,,,,,,,,,,,,,,,,,,,,,,,,,,,,,,,,,,,,,
1656264296.104137,42.000000,0.000000,4280.512695,4233.333496,4067.179443,4097.436035,4225.128418,0.000000,4.000000,91.000000,,,,0.000000,4.000000,4.000000,4.000000,4.000000,4.000000,100.000000,,,,,,,,,,,,,,,,,,,,,,,,,,,,,,,,,,,,,,,,,,,,,,,,,,,,,,,,,,,,,,,
1656264296.111852,43.000000,0.000000,4284.102539,4236.922852,4054.358887,4106.666504,4230.769043,0.000000,4.000000,91.000000,,,,0.000000,4.000000,4.000000,4.000000,4.000000,4.000000,100.000000,,,,,,,,,,,,,,,,,,,,,,,,,,,,,,,,,,,,,,,,,,,,,,,,,,,,,,,,,,,,,,,
1656264296.119666,44.000000,0.000000,4282.563965,4259.487305,4018.461426,4111.282227,4264.102539,0.000000,4.000000,91.000000,,,,0.000000,4.000000,4.000000,4.000000,4.000000,4.000000,100.000000,,,,,,,,,,,,,,,,,,,,,,,,,,,,,,,,,,,,,,,,,,,,,,,,,,,,,,,,,,,,,,,
1656264296.127381,45.000000,0.000000,4278.974121,4264.102539,4013.333252,4099.487305,4270.769043,0.000000,4.000000,91.000000,,,,0.000000,4.000000,4.000000,4.000000,4.000000,4.000000,100.000000,,,,,,,,,,,,,,,,,,,,,,,,,,,,,,,,,,,,,,,,,,,,,,,,,,,,,,,,,,,,,,,
1656264296.135195,46.000000,0.000000,4280.512695,4256.410156,4028.205078,4101.538574,4251.794922,0.000000,4.000000,91.000000,,,,0.000000,4.000000,4.000000,4.000000,4.000000,4.000000,100.000000,,,,,,,,,,,,,,,,,,,,,,,,,,,,,,,,,,,,,,,7.474867,4.513598,2.813379,1.506113,1.239462,2.392049,1.819804,1.809578,2.042997,1.919602,5.034336,28.519938,3.108313,2.028857,1.559543,2.355911,5.083631,3.372678,1.455508,1.190775,2.493651,6.782128,1.182930,1.156352,1.006015
1656264296.142910,47.000000,0.000000,4271.282227,4265.641113,4036.410156,4100.512695,4242.563965,0.000000,4.000000,91.000000,,,,0.000000,4.000000,4.000000,4.000000,4.000000,4.000000,100.000000,,,,,,,,,,,,,,,,,,,,,,,,,,,,,,,,,,,,,,,,,,,,,,,,,,,,,,,,,,,,,,,
1656264296.150724,48.000000,0.000000,4264.102539,4264.615234,4071.794922,4095.384521,4247.692383,0.000000,4.000000,91.000000,,,,0.000000,4.000000,4.000000,4.000000,4.000000,4.000000,100.000000,,,,,,,,,,,,,,,,,,,,,,,,,,,,,,,,,,,,,,,,,,,,,,,,,,,,,,,,,,,,,,,
1656264296.158438,49.000000,0.000000,4289.230957,4230.769043,4120.000000,4117.948730,4250.256348,0.000000,4.000000,91.000000,,,,0.000000,4.000000,4.000000,4.000000,4.000000,4.000000,100.000000,,,,,,,,,,,,,,,,,,,,,,,,,,,,,,,,,,,,,,,,,,,,,,,,,,,,,,,,,,,,,,,
1656264296.166253,50.000000,0.000000,4310.769043,4209.743652,4133.333496,4124.102539,4235.384766,0.000000,4.000000,91.000000,,,,0.000000,4.000000,4.000000,4.000000,4.000000,4.000000,100.000000,,,,,,,,,,,,,,,,,,,,,,,,,,,,,,,,,,,,,,,,,,,,,,,,,,,,,,,,,,,,,,,
1656264296.173967,51.000000,0.000000,4297.436035,4238.461426,4123.589844,4108.717773,4235.384766,0.000000,4.000000,91.000000,,,,0.000000,4.000000,4.000000,4.000000,4.000000,4.000000,100.000000,,,,,,,,,,,,,,,,,,,,,,,,,,,,,,,,,,,,,,,,,,,,,,,,,,,,,,,,,,,,,,,
1656264296.181782,52.000000,0.000000,4276.922852,4270.769043,4113.333496,4123.589844,4257.436035,0.000000,4.000000,91.000000,,,,0.000000,4.000000,4.000000,4.000000,4.000000,4.000000,100.000000,,,,,,,,,,,,,,,,,,,,,,,,,,,,,,,,,,,,,,,,,,,,,,,,,,,,,,,,,,,,,,,
1656264296.189496,53.000000,0.000000,4275.384766,4264.102539,4105.128418,4133.333496,4260.000000,0.000000,4.000000,91.000000,,,,0.000000,4.000000,4.000000,4.000000,4.000000,4.000000,100.000000,,,,,,,,,,,,,,,,,,,,,,,,,,,,,,,,,,,,,,,,,,,,,,,,,,,,,,,,,,,,,,,
1656264296.197311,54.000000,0.000000,4274.871582,4244.102539,4107.692383,4102.563965,4233.333496,0.000000,4.000000,91.000000,,,,0.000000,4.000000,4.000000,4.000000,4.000000,4.000000,100.000000,,,,,,,,,,,,,,,,,,,,,,,,,,,,,,,,,,,,,,,,,,,,,,,,,,,,,,,,,,,,,,,
1656264296.205025,55.000000,0.000000,4267.692383,4247.179688,4096.410156,4086.153809,4225.128418,0.000000,4.000000,91.000000,,,,0.000000,4.000000,4.000000,4.000000,4.000000,4.000000,100.000000,,,,,,,,,,,,,,,,,,,,,,,,,,,,,,,,,,,,,,,,,,,,,,,,,,,,,,,,,,,,,,,
1656264296.212840,56.000000,0.000000,4276.410156,4262.051270,4079.487061,4104.102539,4247.179688,0.000000,4.000000,91.000000,,,,0.000000,4.000000,4.000000,4.000000,4.000000,4.000000,100.000000,,,,,,,,,,,,,,,,,,,,,,,,,,,,,,,,,,,,,,,,,,,,,,,,,,,,,,,,,,,,,,,
1656264296.220554,57.000000,0.000000,4293.846191,4237.436035,4085.641113,4110.769043,4240.000000,0.000000,4.000000,91.000000,,,,0.000000,4.000000,4.000000,4.000000,4.000000,4.000000,100.000000,,,,,,,,,,,,,,,,,,,,,,,,,,,,,,,,,,,,,,,,,,,,,,,,,,,,,,,,,,,,,,,
1656264296.228468,58.000000,0.000000,4289.743652,4219.487305,4072.307617,4116.410156,4220.512695,0.000000,4.000000,91.000000,,,,0.000000,4.000000,4.000000,4.000000,4.000000,4.000000,100.000000,,,,,,,,,,,,,,,,,,,,,,,,,,,,,,,,,,,,,,,,,,,,,,,,,,,,,,,,,,,,,,,
1656264296.236283,59.000000,0.000000,4278.974121,4236.922852,4051.794922,4118.974121,4223.077148,0.000000,4.000000,91.000000,,,,0.000000,4.000000,4.000000,4.000000,4.000000,4.000000,100.000000,,,,,,,,,,,,,,,,,,,,,,,,,,,,,,,,,,,,,,,,,,,,,,,,,,,,,,,,,,,,,,,
1656264296.244197,60.000000,0.000000,4275.384766,4223.077148,4052.307617,4094.358887,4216.410156,0.000000,4.000000,91.000000,,,,0.000000,4.000000,4.000000,4.000000,4.000000,4.000000,100.000000,,,,,,,,,,,,,,,,,,,,,,,,,,,,,,,,,,,,,,,,,,,,,,,,,,,,,,,,,,,,,,,
1656264296.252012,61.000000,0.000000,4269.743652,4210.256348,4048.205078,4091.794922,4212.307617,0.000000,4.000000,91.000000,,,,0.000000,4.000000,4.000000,4.000000,4.000000,4.000000,100.000000,,,,,,,,,,,,,,,,,,,,,,,,,,,,,,,,,,,,,,,,,,,,,,,,,,,,,,,,,,,,,,,
1656264296.259926,62.000000,0.000000,4259.487305,4244.102539,4057.948730,4107.179688,4226.666504,0.000000,4.000000,91.000000,,,,0.000000,4.000000,4.000000,4.000000,4.000000,4.000000,100.000000,1.000000,100.000000,4.000000,4.000000,4.000000,4.000000,4.000000,,,,,,,,,,,,,,,,,,,,,,,,,,,,,,,,4.847681,4.747589,2.828696,1.357405,1.291167,2.389927,1.392021,1.772530,2.171682,2.025942,5.558787,26.497663,2.927157,1.941283,1.435302,2.321732,4.842248,3.251556,1.528851,1.275887,2.224077,6.413162,1.012652,1.382831,0.919937
1656264296.267740,63.000000,0.000000,4255.384766,4253.333496,4090.769287,4088.718018,4220.512695,0.000000,4.000000,91.000000,,,,0.000000,4.000000,4.000000,4.000000,4.000000,4.000000,100.000000,,,,,,,,,,,,,,,,,,,,,,,,,,,,,,,,,,,,,,,,,,,,,,,,,,,,,,,,,,,,,,,
1656264296.275655,64.000000,0.000000,4254.871582,4234.871582,4101.025879,4080.000000,4211.282227,450.000000,4.000000,91.000000,,,,0.000000,4.000000,4.000000,4.000000,4.000000,4.000000,100.000000,,,,,,,,,,,,,,,,,,,,,,,,,,,,,,,,,,,,,,,,,,,,,,,,,,,,,,,,,,,,,,,
1656264296.283469,65.000000,0.000000,4253.333496,4244.615234,4104.615234,4104.615234,4224.615234,450.000000,4.000000,91.000000,,,,0.000000,4.000000,4.000000,4.000000,4.000000,4.000000,100.000000,,,,,,,,,,,,,,,,,,,,,,,,,,,,,,,,,,,,,,,,,,,,,,,,,,,,,,,,,,,,,,,
1656264296.291184,66.000000,0.000000,4272.820313,4254.358887,4126.153809,4121.025879,4233.333496,16217.000000,4.000000,91.000000,,,,0.000000,4.000000,4.000000,4.000000,4.000000,4.000000,100.000000,,,,,,,,,,,,,,,,,,,,,,,,,,,,,,,,,,,,,,,,,,,,,,,,,,,,,,,,,,,,,,,
1656264296.298998,67.000000,0.000000,4299.487305,4253.333496,4090.256348,4135.897461,4250.769043,450.000000,4.000000,91.000000,,,,0.000000,4.000000,4.000000,4.000000,4.000000,4.000000,100.000000,,,,,,,,,,,,,,,,,,,,,,,,,,,,,,,,,,,,,,,,,,,,,,,,,,,,,,,,,,,,,,,
1656264296.306712,68.000000,0.000000,4289.230957,4258.461426,4040.512939,4141.025879,4257.948730,16179.000000,4.000000,91.000000,,,,0.000000,4.000000,4.000000,4.000000,4.000000,4.000000,100.000000,,,,,,,,,,,,,,,,,,,,,,,,,,,,,,,,,,,,,,,,,,,,,,,,,,,,,,,,,,,,,,,
1656264296.314527,69.000000,0.000000,4288.717773,4249.230957,4061.025635,4124.615234,4238.461426,450.000000,4.000000,91.000000,,,,0.000000,4.000000,4.000000,4.000000,4.000000,4.000000,100.000000,,,,,,,,,,,,,,,,,,,,,,,,,,,,,,,,,,,,,,,,,,,,,,,,,,,,,,,,,,,,,,,
1656264296.322241,70.000000,0.000000,4306.666504,4237.436035,4060.512939,4115.384766,4234.871582,16183.000000,4.000000,91.000000,,,,0.000000,4.000000,4.000000,4.000000,4.000000,4.000000,100.000000,,,,,,,,,,,,,,,,,,,,,,,,,,,,,,,,,,,,,,,,,,,,,,,,,,,,,,,,,,,,,,,
1656264296.330056,71.000000,0.000000,4291.282227,4255.384766,4033.333252,4125.641113,4242.051270,450.000000,4.000000,91.000000,,,,0.000000,4.000000,4.000000,4.000000,4.000000,4.000000,100.000000,,,,,,,,,,,,,,,,,,,,,,,,,,,,,,,,,,,,,,,,,,,,,,,,,,,,,,,,,,,,,,,
1656264296.337770,72.000000,0.000000,4274.358887,4262.563965,4044.615479,4136.922852,4230.256348,450.000000,4.000000,91.000000,,,,0.000000,4.000000,4.000000,4.000000,4.000000,4.000000,100.000000,,,,,,,,,,,,,,,,,,,,,,,,,,,,,,,,,,,,,,,,,,,,,,,,,,,,,,,,,,,,,,,
1656264296.345585,73.000000,0.000000,4281.025879,4225.641113,4061.025635,4140.000000,4215.897461,16209.000000,4.000000,91.000000,,,,0.000000,4.000000,4.000000,4.000000,4.000000,4.000000,100.000000,,,,,,,,,,,,,,,,,,,,,,,,,,,,,,,,,,,,,,,,,,,,,,,,,,,,,,,,,,,,,,,
