title:david_g_Forward, start timestamp:1649884486.460075, stop timestamp:1649884491.491751, headset type:INSIGHT, headset serial:A2D201AE, headset firmware:932, channels:84, sampling rate:eeg_128;pm_0.1;pow_8, samples:645       , version:2.1, 
Timestamp,OriginalTimestamp,EEG.Counter,EEG.Interpolated,EEG.AF3,EEG.T7,EEG.Pz,EEG.T8,EEG.AF4,EEG.RawCq,EEG.Battery,EEG.BatteryPercent,MarkerIndex,MarkerType,MarkerValueInt,EEG.MarkerHardware,CQ.AF3,CQ.T7,CQ.Pz,CQ.T8,CQ.AF4,CQ.Overall,EQ.SampleRateQuality,EQ.OVERALL,EQ.AF3,EQ.T7,EQ.Pz,EQ.T8,EQ.AF4,PM.Engagement.IsActive,PM.Engagement.Scaled,PM.Engagement.Raw,PM.Engagement.Min,PM.Engagement.Max,PM.Excitement.IsActive,PM.Excitement.Scaled,PM.Excitement.Raw,PM.Excitement.Min,PM.Excitement.Max,PM.LongTermExcitement,PM.Stress.IsActive,PM.Stress.Scaled,PM.Stress.Raw,PM.Stress.Min,PM.Stress.Max,PM.Relaxation.IsActive,PM.Relaxation.Scaled,PM.Relaxation.Raw,PM.Relaxation.Min,PM.Relaxation.Max,PM.Interest.IsActive,PM.Interest.Scaled,PM.Interest.Raw,PM.Interest.Min,PM.Interest.Max,PM.Focus.IsActive,PM.Focus.Scaled,PM.Focus.Raw,PM.Focus.Min,PM.Focus.Max,POW.AF3.Theta,POW.AF3.Alpha,POW.AF3.BetaL,POW.AF3.BetaH,POW.AF3.Gamma,POW.T7.Theta,POW.T7.Alpha,POW.T7.BetaL,POW.T7.BetaH,POW.T7.Gamma,POW.Pz.Theta,POW.Pz.Alpha,POW.Pz.BetaL,POW.Pz.BetaH,POW.Pz.Gamma,POW.T8.Theta,POW.T8.Alpha,POW.T8.BetaL,POW.T8.BetaH,POW.T8.Gamma,POW.AF4.Theta,POW.AF4.Alpha,POW.AF4.BetaL,POW.AF4.BetaH,POW.AF4.Gamma
1649884486.460075,1649884486.477851,8.000000,0.000000,4265.641113,4252.820313,4176.410156,4158.461426,4228.205078,450.000000,4.000000,95.000000,,,,0.000000,4.000000,4.000000,4.000000,4.000000,4.000000,100.000000,,,,,,,,,,,,,,,,,,,,,,,,,,,,,,,,,,,,,,,,,,,,,,,,,,,,,,,,,,,,,,,
1649884486.467888,1649884486.485564,9.000000,0.000000,4262.051270,4248.205078,4183.589844,4168.205078,4235.384766,16164.000000,4.000000,95.000000,,,,0.000000,4.000000,4.000000,4.000000,4.000000,4.000000,100.000000,,,,,,,,,,,,,,,,,,,,,,,,,,,,,,,,,,,,,,,,,,,,,,,,,,,,,,,,,,,,,,,
1649884486.475701,1649884486.493277,10.000000,0.000000,4250.769043,4249.230957,4171.282227,4165.641113,4233.846191,450.000000,4.000000,95.000000,,,,0.000000,4.000000,4.000000,4.000000,4.000000,4.000000,100.000000,,,,,,,,,,,,,,,,,,,,,,,,,,,,,,,,,,,,,,,,,,,,,,,,,,,,,,,,,,,,,,,
1649884486.483515,1649884486.501091,11.000000,0.000000,4249.230957,4248.205078,4163.589844,4159.487305,4228.717773,16202.000000,4.000000,95.000000,,,,0.000000,4.000000,4.000000,4.000000,4.000000,4.000000,100.000000,,,,,,,,,,,,,,,,,,,,,,,,,,,,,,,,,,,,,,,,,,,,,,,,,,,,,,,,,,,,,,,
1649884486.491328,1649884486.508804,12.000000,0.000000,4251.282227,4234.871582,4165.641113,4158.974121,4222.563965,450.000000,4.000000,95.000000,,,,0.000000,4.000000,4.000000,4.000000,4.000000,4.000000,100.000000,0.968750,100.000000,4.000000,4.000000,4.000000,4.000000,4.000000,,,,,,,,,,,,,,,,,,,,,,,,,,,,,,,,3.437259,1.707931,0.479719,1.676803,0.706211,3.067022,0.886065,0.640723,0.543110,0.240809,3.614300,1.910855,2.167655,0.523762,0.256174,3.041547,1.228581,0.596883,0.417660,0.177392,3.612884,1.942911,0.710023,0.948865,0.544012
1649884486.499141,1649884486.516718,13.000000,0.000000,4237.948730,4231.282227,4163.077148,4157.436035,4220.000000,450.000000,4.000000,95.000000,,,,0.000000,4.000000,4.000000,4.000000,4.000000,4.000000,100.000000,,,,,,,,,,,,,,,,,,,,,,,,,,,,,,,,,,,,,,,,,,,,,,,,,,,,,,,,,,,,,,,
1649884486.506954,1649884486.524533,14.000000,0.000000,4222.563965,4240.000000,4161.538574,4145.128418,4210.256348,450.000000,4.000000,95.000000,,,,0.000000,4.000000,4.000000,4.000000,4.000000,4.000000,100.000000,,,,,,,,,,,,,,,,,,,,,,,,,,,,,,,,,,,,,,,,,,,,,,,,,,,,,,,,,,,,,,,
1649884486.514767,1649884486.532347,15.000000,0.000000,4227.692383,4242.563965,4164.102539,4136.410156,4198.974121,16202.000000,4.000000,95.000000,,,,0.000000,4.000000,4.000000,4.000000,4.000000,4.000000,100.000000,,,,,,,,,,,,,,,,,,,,,,,,,,,,,,,,,,,,,,,,,,,,,,,,,,,,,,,,,,,,,,,
1649884486.522581,1649884486.540161,16.000000,0.000000,4246.153809,4240.000000,4168.205078,4144.102539,4212.307617,0.000000,4.000000,95.000000,,,,0.000000,4.000000,4.000000,4.000000,4.000000,4.000000,100.000000,,,,,,,,,,,,,,,,,,,,,,,,,,,,,,,,,,,,,,,,,,,,,,,,,,,,,,,,,,,,,,,
1649884486.530393,1649884486.548075,17.000000,0.000000,4255.384766,4244.615234,4174.358887,4156.410156,4234.871582,0.000000,4.000000,95.000000,,,,0.000000,4.000000,4.000000,4.000000,4.000000,4.000000,100.000000,,,,,,,,,,,,,,,,,,,,,,,,,,,,,,,,,,,,,,,,,,,,,,,,,,,,,,,,,,,,,,,
1649884486.538207,1649884486.555889,18.000000,0.000000,4249.743652,4249.230957,4180.512695,4164.102539,4234.871582,0.000000,4.000000,95.000000,,,,0.000000,4.000000,4.000000,4.000000,4.000000,4.000000,100.000000,,,,,,,,,,,,,,,,,,,,,,,,,,,,,,,,,,,,,,,,,,,,,,,,,,,,,,,,,,,,,,,
1649884486.546020,1649884486.563803,19.000000,0.000000,4246.153809,4246.666504,4175.384766,4167.179688,4228.717773,0.000000,4.000000,95.000000,,,,0.000000,4.000000,4.000000,4.000000,4.000000,4.000000,100.000000,,,,,,,,,,,,,,,,,,,,,,,,,,,,,,,,,,,,,,,,,,,,,,,,,,,,,,,,,,,,,,,
1649884486.553833,1649884486.571617,20.000000,0.000000,4252.820313,4246.153809,4170.256348,4168.717773,4228.205078,0.000000,4.000000,95.000000,,,,0.000000,4.000000,4.000000,4.000000,4.000000,4.000000,100.000000,,,,,,,,,,,,,,,,,,,,,,,,,,,,,,,,,,,,,,,,,,,,,,,,,,,,,,,,,,,,,,,
1649884486.561646,1649884486.579531,21.000000,0.000000,4260.000000,4249.230957,4181.025879,4173.846191,4225.128418,0.000000,4.000000,95.000000,,,,0.000000,4.000000,4.000000,4.000000,4.000000,4.000000,100.000000,,,,,,,,,,,,,,,,,,,,,,,,,,,,,,,,,,,,,,,,,,,,,,,,,,,,,,,,,,,,,,,
1649884486.569459,1649884486.587345,22.000000,0.000000,4266.666504,4250.769043,4188.717773,4177.948730,4230.256348,0.000000,4.000000,95.000000,,,,0.000000,4.000000,4.000000,4.000000,4.000000,4.000000,100.000000,,,,,,,,,,,,,,,,,,,,,,,,,,,,,,,,,,,,,,,,,,,,,,,,,,,,,,,,,,,,,,,
1649884486.577273,1649884486.595259,23.000000,0.000000,4262.563965,4244.102539,4175.897461,4171.282227,4236.922852,0.000000,4.000000,95.000000,,,,0.000000,4.000000,4.000000,4.000000,4.000000,4.000000,100.000000,,,,,,,,,,,,,,,,,,,,,,,,,,,,,,,,,,,,,,,,,,,,,,,,,,,,,,,,,,,,,,,
1649884486.585086,1649884486.603072,24.000000,0.000000,4260.512695,4234.871582,4162.051270,4160.000000,4235.897461,0.000000,4.000000,95.000000,,,,0.000000,4.000000,4.000000,4.000000,4.000000,4.000000,100.000000,,,,,,,,,,,,,,,,,,,,,,,,,,,,,,,,,,,,,,,,,,,,,,,,,,,,,,,,,,,,,,,
1649884486.592899,1649884486.610986,25.000000,0.000000,4267.179688,4235.897461,4164.102539,4161.025879,4231.282227,0.000000,4.000000,95.000000,,,,0.000000,4.000000,4.000000,4.000000,4.000000,4.000000,100.000000,,,,,,,,,,,,,,,,,,,,,,,,,,,,,,,,,,,,,,,,,,,,,,,,,,,,,,,,,,,,,,,
1649884486.600712,1649884486.618800,26.000000,0.000000,4260.512695,4240.512695,4167.179688,4167.179688,4227.692383,0.000000,4.000000,95.000000,,,,0.000000,4.000000,4.000000,4.000000,4.000000,4.000000,100.000000,,,,,,,,,,,,,,,,,,,,,,,,,,,,,,,,,,,,,,,,,,,,,,,,,,,,,,,,,,,,,,,
1649884486.608525,1649884486.626714,27.000000,0.000000,4251.282227,4243.589844,4165.641113,4169.743652,4228.717773,0.000000,4.000000,95.000000,,,,0.000000,4.000000,4.000000,4.000000,4.000000,4.000000,100.000000,,,,,,,,,,,,,,,,,,,,,,,,,,,,,,,,,,,,,,,,,,,,,,,,,,,,,,,,,,,,,,,
1649884486.616338,1649884486.634527,28.000000,0.000000,4257.948730,4245.128418,4171.794922,4171.282227,4233.333496,0.000000,4.000000,95.000000,,,,0.000000,4.000000,4.000000,4.000000,4.000000,4.000000,100.000000,,,,,,,,,,,,,,,,,,,,,,,,,,,,,,,,,,,,,,,4.594926,1.785449,0.679141,1.741584,0.681035,4.009075,0.904250,0.776064,0.577528,0.228883,4.236830,2.172293,1.860660,0.507567,0.267178,3.401568,1.240773,0.584952,0.452394,0.168378,4.593228,1.953406,0.826507,1.029303,0.488165
1649884486.624152,1649884486.642441,29.000000,0.000000,4256.410156,4238.974121,4183.589844,4168.205078,4225.641113,0.000000,4.000000,95.000000,,,,0.000000,4.000000,4.000000,4.000000,4.000000,4.000000,100.000000,,,,,,,,,,,,,,,,,,,,,,,,,,,,,,,,,,,,,,,,,,,,,,,,,,,,,,,,,,,,,,,
1649884486.631965,1649884486.650255,30.000000,0.000000,4240.512695,4228.717773,4185.641113,4163.077148,4209.230957,0.000000,4.000000,95.000000,,,,0.000000,4.000000,4.000000,4.000000,4.000000,4.000000,100.000000,,,,,,,,,,,,,,,,,,,,,,,,,,,,,,,,,,,,,,,,,,,,,,,,,,,,,,,,,,,,,,,
1649884486.639778,1649884486.658168,31.000000,0.000000,4241.538574,4228.717773,4174.871582,4165.641113,4216.922852,0.000000,4.000000,95.000000,,,,0.000000,4.000000,4.000000,4.000000,4.000000,4.000000,100.000000,,,,,,,,,,,,,,,,,,,,,,,,,,,,,,,,,,,,,,,,,,,,,,,,,,,,,,,,,,,,,,,
1649884486.647591,1649884486.665982,32.000000,0.000000,4256.410156,4241.025879,4168.205078,4172.820313,4240.512695,0.000000,4.000000,95.000000,,,,0.000000,4.000000,4.000000,4.000000,4.000000,4.000000,100.000000,,,,,,,,,,,,,,,,,,,,,,,,,,,,,,,,,,,,,,,,,,,,,,,,,,,,,,,,,,,,,,,
1649884486.655404,1649884486.673896,33.000000,0.000000,4263.077148,4242.051270,4166.666504,4170.256348,4243.077148,0.000000,4.000000,95.000000,,,,0.000000,4.000000,4.000000,4.000000,4.000000,4.000000,100.000000,,,,,,,,,,,,,,,,,,,,,,,,,,,,,,,,,,,,,,,,,,,,,,,,,,,,,,,,,,,,,,,
1649884486.663217,1649884486.681709,34.000000,0.000000,4268.205078,4233.846191,4171.282227,4164.102539,4232.820313,0.000000,4.000000,95.000000,,,,0.000000,4.000000,4.000000,4.000000,4.000000,4.000000,100.000000,,,,,,,,,,,,,,,,,,,,,,,,,,,,,,,,,,,,,,,,,,,,,,,,,,,,,,,,,,,,,,,
1649884486.671030,1649884486.689423,35.000000,0.000000,4262.563965,4234.871582,4175.897461,4167.179688,4232.307617,0.000000,4.000000,95.000000,,,,0.000000,4.000000,4.000000,4.000000,4.000000,4.000000,100.000000,,,,,,,,,,,,,,,,,,,,,,,,,,,,,,,,,,,,,,,,,,,,,,,,,,,,,,,,,,,,,,,
1649884486.678844,1649884486.697237,36.000000,0.000000,4248.205078,4240.512695,4169.230957,4171.794922,4230.256348,0.000000,4.000000,95.000000,,,,0.000000,4.000000,4.000000,4.000000,4.000000,4.000000,100.000000,,,,,,,,,,,,,,,,,,,,,,,,,,,,,,,,,,,,,,,,,,,,,,,,,,,,,,,,,,,,,,,
1649884486.686657,1649884486.704951,37.000000,0.000000,4254.358887,4242.051270,4163.077148,4176.410156,4227.179688,0.000000,4.000000,95.000000,,,,0.000000,4.000000,4.000000,4.000000,4.000000,4.000000,100.000000,,,,,,,,,,,,,,,,,,,,,,,,,,,,,,,,,,,,,,,,,,,,,,,,,,,,,,,,,,,,,,,
1649884486.694470,1649884486.712764,38.000000,0.000000,4265.641113,4244.102539,4165.641113,4174.871582,4225.641113,0.000000,4.000000,95.000000,,,,0.000000,4.000000,4.000000,4.000000,4.000000,4.000000,100.000000,,,,,,,,,,,,,,,,,,,,,,,,,,,,,,,,,,,,,,,,,,,,,,,,,,,,,,,,,,,,,,,
1649884486.702283,1649884486.720478,39.000000,0.000000,4251.282227,4246.153809,4164.102539,4165.128418,4217.436035,0.000000,4.000000,95.000000,,,,0.000000,4.000000,4.000000,4.000000,4.000000,4.000000,100.000000,,,,,,,,,,,,,,,,,,,,,,,,,,,,,,,,,,,,,,,,,,,,,,,,,,,,,,,,,,,,,,,
1649884486.710096,1649884486.728392,40.000000,0.000000,4247.692383,4243.589844,4162.051270,4164.615234,4227.179688,0.000000,4.000000,95.000000,,,,0.000000,4.000000,4.000000,4.000000,4.000000,4.000000,100.000000,,,,,,,,,,,,,,,,,,,,,,,,,,,,,,,,,,,,,,,,,,,,,,,,,,,,,,,,,,,,,,,
1649884486.717909,1649884486.736206,41.000000,0.000000,4271.794922,4241.025879,4171.282227,4172.307617,4247.692383,0.000000,4.000000,95.000000,,,,0.000000,4.000000,4.000000,4.000000,4.000000,4.000000,100.000000,,,,,,,,,,,,,,,,,,,,,,,,,,,,,,,,,,,,,,,,,,,,,,,,,,,,,,,,,,,,,,,
1649884486.725723,1649884486.744020,42.000000,0.000000,4267.692383,4242.051270,4171.794922,4171.794922,4237.948730,0.000000,4.000000,95.000000,,,,0.000000,4.000000,4.000000,4.000000,4.000000,4.000000,100.000000,,,,,,,,,,,,,,,,,,,,,,,,,,,,,,,,,,,,,,,,,,,,,,,,,,,,,,,,,,,,,,,
1649884486.733536,1649884486.751734,43.000000,0.000000,4243.589844,4242.051270,4165.641113,4166.666504,4217.436035,0.000000,4.000000,95.000000,,,,0.000000,4.000000,4.000000,4.000000,4.000000,4.000000,100.000000,,,,,,,,,,,,,,,,,,,,,,,,,,,,,,,,,,,,,,,,,,,,,,,,,,,,,,,,,,,,,,,
1649884486.741349,1649884486.759647,44.000000,0.000000,4245.641113,4241.538574,4170.256348,4167.692383,4222.563965,0.000000,4.000000,95.000000,,,,0.000000,4.000000,4.000000,4.000000,4.000000,4.000000,100.000000,,,,,,,,,,,,,,,,,,,,,,,,,,,,,,,,,,,,,,,5.837736,2.060377,0.908329,1.728730,0.638911,4.798814,0.919652,0.881995,0.592407,0.216183,4.604401,2.567610,1.573890,0.529629,0.274640,3.535414,1.285011,0.565583,0.498143,0.164759,5.619609,2.431697,0.978425,1.117336,0.427445
1649884486.749162,1649884486.767461,45.000000,0.000000,4263.589844,4243.589844,4177.436035,4176.922852,4238.974121,0.000000,4.000000,95.000000,,,,0.000000,4.000000,4.000000,4.000000,4.000000,4.000000,100.000000,,,,,,,,,,,,,,,,,,,,,,,,,,,,,,,,,,,,,,,,,,,,,,,,,,,,,,,,,,,,,,,
1649884486.756975,1649884486.775375,46.000000,0.000000,4281.025879,4242.563965,4182.051270,4189.743652,4246.666504,0.000000,4.000000,95.000000,,,,0.000000,4.000000,4.000000,4.000000,4.000000,4.000000,100.000000,,,,,,,,,,,,,,,,,,,,,,,,,,,,,,,,,,,,,,,,,,,,,,,,,,,,,,,,,,,,,,,
1649884486.764789,1649884486.783189,47.000000,0.000000,4283.077148,4230.769043,4179.487305,4187.692383,4240.000000,0.000000,4.000000,95.000000,,,,0.000000,4.000000,4.000000,4.000000,4.000000,4.000000,100.000000,,,,,,,,,,,,,,,,,,,,,,,,,,,,,,,,,,,,,,,,,,,,,,,,,,,,,,,,,,,,,,,
1649884486.772601,1649884486.791103,48.000000,0.000000,4257.436035,4223.589844,4168.205078,4170.769043,4225.128418,0.000000,4.000000,95.000000,,,,0.000000,4.000000,4.000000,4.000000,4.000000,4.000000,100.000000,,,,,,,,,,,,,,,,,,,,,,,,,,,,,,,,,,,,,,,,,,,,,,,,,,,,,,,,,,,,,,,
1649884486.780415,1649884486.798917,49.000000,0.000000,4248.205078,4231.794922,4161.025879,4170.256348,4223.077148,0.000000,4.000000,95.000000,,,,0.000000,4.000000,4.000000,4.000000,4.000000,4.000000,100.000000,,,,,,,,,,,,,,,,,,,,,,,,,,,,,,,,,,,,,,,,,,,,,,,,,,,,,,,,,,,,,,,
1649884486.788228,1649884486.806831,50.000000,0.000000,4274.358887,4238.974121,4159.487305,4177.436035,4236.922852,0.000000,4.000000,95.000000,,,,0.000000,4.000000,4.000000,4.000000,4.000000,4.000000,100.000000,,,,,,,,,,,,,,,,,,,,,,,,,,,,,,,,,,,,,,,,,,,,,,,,,,,,,,,,,,,,,,,
1649884486.796041,1649884486.814645,51.000000,0.000000,4277.436035,4238.974121,4155.384766,4172.307617,4237.948730,0.000000,4.000000,95.000000,,,,0.000000,4.000000,4.000000,4.000000,4.000000,4.000000,100.000000,,,,,,,,,,,,,,,,,,,,,,,,,,,,,,,,,,,,,,,,,,,,,,,,,,,,,,,,,,,,,,,
1649884486.803854,1649884486.822558,52.000000,0.000000,4263.589844,4239.487305,4154.871582,4166.666504,4229.743652,0.000000,4.000000,95.000000,,,,0.000000,4.000000,4.000000,4.000000,4.000000,4.000000,100.000000,,,,,,,,,,,,,,,,,,,,,,,,,,,,,,,,,,,,,,,,,,,,,,,,,,,,,,,,,,,,,,,
1649884486.811667,1649884486.830372,53.000000,0.000000,4278.461426,4239.487305,4162.563965,4169.743652,4237.436035,0.000000,4.000000,95.000000,,,,0.000000,4.000000,4.000000,4.000000,4.000000,4.000000,100.000000,,,,,,,,,,,,,,,,,,,,,,,,,,,,,,,,,,,,,,,,,,,,,,,,,,,,,,,,,,,,,,,
1649884486.819481,1649884486.838285,54.000000,0.000000,4292.307617,4235.384766,4172.820313,4175.384766,4255.897461,0.000000,4.000000,95.000000,,,,0.000000,4.000000,4.000000,4.000000,4.000000,4.000000,100.000000,,,,,,,,,,,,,,,,,,,,,,,,,,,,,,,,,,,,,,,,,,,,,,,,,,,,,,,,,,,,,,,
1649884486.827294,1649884486.846099,55.000000,0.000000,4283.077148,4233.846191,4181.538574,4181.538574,4256.922852,0.000000,4.000000,95.000000,,,,0.000000,4.000000,4.000000,4.000000,4.000000,4.000000,100.000000,,,,,,,,,,,,,,,,,,,,,,,,,,,,,,,,,,,,,,,,,,,,,,,,,,,,,,,,,,,,,,,
1649884486.835107,1649884486.854013,56.000000,0.000000,4271.282227,4235.897461,4172.307617,4178.461426,4232.820313,0.000000,4.000000,95.000000,,,,0.000000,4.000000,4.000000,4.000000,4.000000,4.000000,100.000000,,,,,,,,,,,,,,,,,,,,,,,,,,,,,,,,,,,,,,,,,,,,,,,,,,,,,,,,,,,,,,,
1649884486.842920,1649884486.861826,57.000000,0.000000,4267.179688,4240.512695,4153.846191,4170.769043,4225.641113,0.000000,4.000000,95.000000,,,,0.000000,4.000000,4.000000,4.000000,4.000000,4.000000,100.000000,,,,,,,,,,,,,,,,,,,,,,,,,,,,,,,,,,,,,,,,,,,,,,,,,,,,,,,,,,,,,,,
1649884486.850733,1649884486.869540,58.000000,0.000000,4276.410156,4250.769043,4159.487305,4178.461426,4250.256348,0.000000,4.000000,95.000000,,,,0.000000,4.000000,4.000000,4.000000,4.000000,4.000000,100.000000,,,,,,,,,,,,,,,,,,,,,,,,,,,,,,,,,,,,,,,,,,,,,,,,,,,,,,,,,,,,,,,
1649884486.858546,1649884486.877454,59.000000,0.000000,4286.666504,4249.230957,4169.743652,4186.153809,4259.487305,0.000000,4.000000,95.000000,,,,0.000000,4.000000,4.000000,4.000000,4.000000,4.000000,100.000000,,,,,,,,,,,,,,,,,,,,,,,,,,,,,,,,,,,,,,,,,,,,,,,,,,,,,,,,,,,,,,,
1649884486.866360,1649884486.885268,60.000000,0.000000,4274.871582,4238.461426,4161.538574,4176.410156,4239.487305,0.000000,4.000000,95.000000,,,,0.000000,4.000000,4.000000,4.000000,4.000000,4.000000,100.000000,,,,,,,,,,,,,,,,,,,,,,,,,,,,,,,,,,,,,,,6.854141,2.634504,1.133736,1.628560,0.602854,5.187246,0.939692,0.933936,0.581387,0.206610,4.631491,2.967939,1.373647,0.572994,0.276606,3.402990,1.373748,0.593953,0.559985,0.168584,6.472611,3.545940,1.161599,1.197184,0.385545
1649884486.874173,1649884486.893182,61.000000,0.000000,4265.641113,4241.538574,4156.410156,4171.794922,4233.846191,0.000000,4.000000,95.000000,,,,0.000000,4.000000,4.000000,4.000000,4.000000,4.000000,100.000000,,,,,,,,,,,,,,,,,,,,,,,,,,,,,,,,,,,,,,,,,,,,,,,,,,,,,,,,,,,,,,,
1649884486.881986,1649884486.900996,62.000000,0.000000,4278.974121,4247.692383,4161.025879,4176.922852,4244.615234,0.000000,4.000000,95.000000,,,,0.000000,4.000000,4.000000,4.000000,4.000000,4.000000,100.000000,,,,,,,,,,,,,,,,,,,,,,,,,,,,,,,,,,,,,,,,,,,,,,,,,,,,,,,,,,,,,,,
1649884486.889799,1649884486.908910,63.000000,0.000000,4274.871582,4239.487305,4158.461426,4175.897461,4237.436035,0.000000,4.000000,95.000000,,,,0.000000,4.000000,4.000000,4.000000,4.000000,4.000000,100.000000,,,,,,,,,,,,,,,,,,,,,,,,,,,,,,,,,,,,,,,,,,,,,,,,,,,,,,,,,,,,,,,
1649884486.897612,1649884486.916824,64.000000,0.000000,4256.410156,4233.846191,4157.948730,4173.846191,4222.563965,450.000000,4.000000,95.000000,,,,0.000000,4.000000,4.000000,4.000000,4.000000,4.000000,100.000000,,,,,,,,,,,,,,,,,,,,,,,,,,,,,,,,,,,,,,,,,,,,,,,,,,,,,,,,,,,,,,,
1649884486.905425,1649884486.924638,65.000000,0.000000,4264.102539,4242.563965,4169.230957,4180.512695,4227.692383,450.000000,4.000000,95.000000,,,,0.000000,4.000000,4.000000,4.000000,4.000000,4.000000,100.000000,,,,,,,,,,,,,,,,,,,,,,,,,,,,,,,,,,,,,,,,,,,,,,,,,,,,,,,,,,,,,,,
1649884486.913238,1649884486.932552,66.000000,0.000000,4281.025879,4251.794922,4176.922852,4185.128418,4240.000000,16189.000000,4.000000,95.000000,,,,0.000000,4.000000,4.000000,4.000000,4.000000,4.000000,100.000000,,,,,,,,,,,,,,,,,,,,,,,,,,,,,,,,,,,,,,,,,,,,,,,,,,,,,,,,,,,,,,,
1649884486.921052,1649884486.940366,67.000000,0.000000,4280.512695,4247.179688,4175.384766,4187.179688,4243.589844,450.000000,4.000000,95.000000,,,,0.000000,4.000000,4.000000,4.000000,4.000000,4.000000,100.000000,,,,,,,,,,,,,,,,,,,,,,,,,,,,,,,,,,,,,,,,,,,,,,,,,,,,,,,,,,,,,,,
1649884486.928865,1649884486.948280,68.000000,0.000000,4278.461426,4241.538574,4171.794922,4190.769043,4247.179688,16182.000000,4.000000,95.000000,,,,0.000000,4.000000,4.000000,4.000000,4.000000,4.000000,100.000000,,,,,,,,,,,,,,,,,,,,,,,,,,,,,,,,,,,,,,,,,,,,,,,,,,,,,,,,,,,,,,,
1649884486.936678,1649884486.956094,69.000000,0.000000,4278.974121,4253.333496,4169.743652,4188.205078,4248.717773,450.000000,4.000000,95.000000,,,,0.000000,4.000000,4.000000,4.000000,4.000000,4.000000,100.000000,,,,,,,,,,,,,,,,,,,,,,,,,,,,,,,,,,,,,,,,,,,,,,,,,,,,,,,,,,,,,,,
1649884486.944491,1649884486.964008,70.000000,0.000000,4278.461426,4266.153809,4164.615234,4178.461426,4246.153809,16144.000000,4.000000,95.000000,,,,0.000000,4.000000,4.000000,4.000000,4.000000,4.000000,100.000000,,,,,,,,,,,,,,,,,,,,,,,,,,,,,,,,,,,,,,,,,,,,,,,,,,,,,,,,,,,,,,,
1649884486.952304,1649884486.971823,71.000000,0.000000,4289.230957,4259.487305,4162.563965,4177.436035,4252.307617,450.000000,4.000000,95.000000,,,,0.000000,4.000000,4.000000,4.000000,4.000000,4.000000,100.000000,,,,,,,,,,,,,,,,,,,,,,,,,,,,,,,,,,,,,,,,,,,,,,,,,,,,,,,,,,,,,,,
1649884486.960117,1649884486.979737,72.000000,0.000000,4300.512695,4254.871582,4173.333496,4187.692383,4260.512695,450.000000,4.000000,95.000000,,,,0.000000,4.000000,4.000000,4.000000,4.000000,4.000000,100.000000,,,,,,,,,,,,,,,,,,,,,,,,,,,,,,,,,,,,,,,,,,,,,,,,,,,,,,,,,,,,,,,
1649884486.967931,1649884486.987551,73.000000,0.000000,4296.922852,4263.589844,4181.538574,4195.897461,4262.051270,16160.000000,4.000000,95.000000,,,,0.000000,4.000000,4.000000,4.000000,4.000000,4.000000,100.000000,,,,,,,,,,,,,,,,,,,,,,,,,,,,,,,,,,,,,,,,,,,,,,,,,,,,,,,,,,,,,,,
1649884486.975744,1649884486.995465,74.000000,0.000000,4281.025879,4264.102539,4169.743652,4194.871582,4257.436035,450.000000,4.000000,95.000000,,,,0.000000,4.000000,4.000000,4.000000,4.000000,4.000000,100.000000,,,,,,,,,,,,,,,,,,,,,,,,,,,,,,,,,,,,,,,,,,,,,,,,,,,,,,,,,,,,,,,
1649884486.983557,1649884487.003279,75.000000,0.000000,4269.230957,4253.846191,4155.897461,4191.794922,4247.692383,16217.000000,4.000000,95.000000,,,,0.000000,4.000000,4.000000,4.000000,4.000000,4.000000,100.000000,,,,,,,,,,,,,,,,,,,,,,,,,,,,,,,,,,,,,,,,,,,,,,,,,,,,,,,,,,,,,,,
1649884486.991370,1649884487.011193,76.000000,0.000000,4286.666504,4252.820313,4164.615234,4194.871582,4248.717773,450.000000,4.000000,95.000000,,,,0.000000,4.000000,4.000000,4.000000,4.000000,4.000000,100.000000,0.968750,100.000000,4.000000,4.000000,4.000000,4.000000,4.000000,,,,,,,,,,,,,,,,,,,,,,,,,,,,,,,,7.340696,3.478425,1.317190,1.457253,0.596508,5.023740,0.959691,0.919287,0.544726,0.202813,4.326672,3.225868,1.289460,0.622331,0.272390,3.041527,1.497232,0.707275,0.631541,0.179721,6.914334,5.157548,1.349757,1.245418,0.378509
1649884486.999183,1649884487.019007,77.000000,0.000000,4320.000000,4258.461426,4174.871582,4198.974121,4264.615234,450.000000,4.000000,95.000000,,,,0.000000,4.000000,4.000000,4.000000,4.000000,4.000000,100.000000,,,,,,,,,,,,,,,,,,,,,,,,,,,,,,,,,,,,,,,,,,,,,,,,,,,,,,,,,,,,,,,
1649884487.006997,1649884487.026921,78.000000,0.000000,4322.051270,4253.333496,4172.820313,4198.461426,4267.179688,450.000000,4.000000,95.000000,,,,0.000000,4.000000,4.000000,4.000000,4.000000,4.000000,100.000000,,,,,,,,,,,,,,,,,,,,,,,,,,,,,,,,,,,,,,,,,,,,,,,,,,,,,,,,,,,,,,,
1649884487.014809,1649884487.034835,79.000000,0.000000,4292.307617,4243.589844,4176.922852,4199.487305,4253.333496,16217.000000,4.000000,95.000000,,,,0.000000,4.000000,4.000000,4.000000,4.000000,4.000000,100.000000,,,,,,,,,,,,,,,,,,,,,,,,,,,,,,,,,,,,,,,,,,,,,,,,,,,,,,,,,,,,,,,
1649884487.022623,1649884487.042649,80.000000,0.000000,4275.384766,4243.589844,4178.974121,4197.436035,4240.512695,450.000000,4.000000,95.000000,,,,0.000000,4.000000,4.000000,4.000000,4.000000,4.000000,100.000000,,,,,,,,,,,,,,,,,,,,,,,,,,,,,,,,,,,,,,,,,,,,,,,,,,,,,,,,,,,,,,,
1649884487.030436,1649884487.050463,81.000000,0.000000,4277.436035,4238.974121,4167.179688,4185.128418,4229.230957,450.000000,4.000000,95.000000,,,,0.000000,4.000000,4.000000,4.000000,4.000000,4.000000,100.000000,,,,,,,,,,,,,,,,,,,,,,,,,,,,,,,,,,,,,,,,,,,,,,,,,,,,,,,,,,,,,,,
1649884487.038249,1649884487.058377,82.000000,0.000000,4273.333496,4232.307617,4154.358887,4169.743652,4223.077148,450.000000,4.000000,95.000000,,,,0.000000,4.000000,4.000000,4.000000,4.000000,4.000000,100.000000,,,,,,,,,,,,,,,,,,,,,,,,,,,,,,,,,,,,,,,,,,,,,,,,,,,,,,,,,,,,,,,
1649884487.046062,1649884487.066291,83.000000,0.000000,4262.563965,4240.000000,4149.743652,4160.512695,4223.077148,16217.000000,4.000000,95.000000,,,,0.000000,4.000000,4.000000,4.000000,4.000000,4.000000,100.000000,,,,,,,,,,,,,,,,,,,,,,,,,,,,,,,,,,,,,,,,,,,,,,,,,,,,,,,,,,,,,,,
1649884487.053875,1649884487.074105,84.000000,0.000000,4257.948730,4248.205078,4142.563965,4152.307617,4222.563965,450.000000,4.000000,95.000000,,,,0.000000,4.000000,4.000000,4.000000,4.000000,4.000000,100.000000,,,,,,,,,,,,,,,,,,,,,,,,,,,,,,,,,,,,,,,,,,,,,,,,,,,,,,,,,,,,,,,
1649884487.061689,1649884487.081919,85.000000,0.000000,4256.410156,4243.077148,4130.769043,4146.666504,4216.410156,450.000000,4.000000,95.000000,,,,0.000000,4.000000,4.000000,4.000000,4.000000,4.000000,100.000000,,,,,,,,,,,,,,,,,,,,,,,,,,,,,,,,,,,,,,,,,,,,,,,,,,,,,,,,,,,,,,,
1649884487.069502,1649884487.089833,86.000000,0.000000,4251.794922,4235.897461,4127.179688,4151.282227,4209.230957,450.000000,4.000000,95.000000,,,,0.000000,4.000000,4.000000,4.000000,4.000000,4.000000,100.000000,,,,,,,,,,,,,,,,,,,,,,,,,,,,,,,,,,,,,,,,,,,,,,,,,,,,,,,,,,,,,,,
1649884487.077315,1649884487.097747,87.000000,0.000000,4251.282227,4233.846191,4136.410156,4158.461426,4209.230957,16217.000000,4.000000,95.000000,,,,0.000000,4.000000,4.000000,4.000000,4.000000,4.000000,100.000000,,,,,,,,,,,,,,,,,,,,,,,,,,,,,,,,,,,,,,,,,,,,,,,,,,,,,,,,,,,,,,,
1649884487.085128,1649884487.105561,88.000000,0.000000,4250.769043,4223.077148,4143.589844,4152.307617,4217.436035,450.000000,4.000000,95.000000,,,,0.000000,4.000000,4.000000,4.000000,4.000000,4.000000,100.000000,,,,,,,,,,,,,,,,,,,,,,,,,,,,,,,,,,,,,,,,,,,,,,,,,,,,,,,,,,,,,,,
1649884487.092941,1649884487.113475,89.000000,0.000000,4246.153809,4212.820313,4135.897461,4142.563965,4218.974121,450.000000,4.000000,95.000000,,,,0.000000,4.000000,4.000000,4.000000,4.000000,4.000000,100.000000,,,,,,,,,,,,,,,,,,,,,,,,,,,,,,,,,,,,,,,,,,,,,,,,,,,,,,,,,,,,,,,
1649884487.100754,1649884487.121290,90.000000,0.000000,4250.769043,4230.769043,4144.102539,4153.846191,4213.333496,450.000000,4.000000,95.000000,,,,0.000000,4.000000,4.000000,4.000000,4.000000,4.000000,100.000000,,,,,,,,,,,,,,,,,,,,,,,,,,,,,,,,,,,,,,,,,,,,,,,,,,,,,,,,,,,,,,,
1649884487.108568,1649884487.129204,91.000000,0.000000,4254.358887,4258.461426,4171.282227,4173.846191,4214.871582,16217.000000,4.000000,95.000000,,,,0.000000,4.000000,4.000000,4.000000,4.000000,4.000000,100.000000,,,,,,,,,,,,,,,,,,,,,,,,,,,,,,,,,,,,,,,,,,,,,,,,,,,,,,,,,,,,,,,
1649884487.116381,1649884487.137018,92.000000,0.000000,4247.179688,4260.000000,4179.487305,4179.487305,4219.487305,450.000000,4.000000,95.000000,,,,0.000000,4.000000,4.000000,4.000000,4.000000,4.000000,100.000000,,,,,,,,,,,,,,,,,,,,,,,,,,,,,,,,,,,,,,,7.139978,4.409978,1.419803,1.256052,0.632610,4.345610,0.964575,0.843981,0.490177,0.204597,3.770550,3.241101,1.301332,0.660814,0.263468,2.528371,1.621438,0.892750,0.693102,0.197337,6.796523,6.832786,1.495612,1.243230,0.411874
1649884487.124194,1649884487.144932,93.000000,0.000000,4257.436035,4247.692383,4174.871582,4174.358887,4220.512695,450.000000,4.000000,95.000000,,,,0.000000,4.000000,4.000000,4.000000,4.000000,4.000000,100.000000,,,,,,,,,,,,,,,,,,,,,,,,,,,,,,,,,,,,,,,,,,,,,,,,,,,,,,,,,,,,,,,
1649884487.132007,1649884487.152746,94.000000,0.000000,4280.000000,4253.846191,4180.512695,4174.871582,4220.512695,450.000000,4.000000,95.000000,,,,0.000000,4.000000,4.000000,4.000000,4.000000,4.000000,100.000000,,,,,,,,,,,,,,,,,,,,,,,,,,,,,,,,,,,,,,,,,,,,,,,,,,,,,,,,,,,,,,,
1649884487.139820,1649884487.160660,95.000000,0.000000,4278.461426,4265.641113,4183.589844,4181.025879,4218.974121,16217.000000,4.000000,95.000000,,,,0.000000,4.000000,4.000000,4.000000,4.000000,4.000000,100.000000,,,,,,,,,,,,,,,,,,,,,,,,,,,,,,,,,,,,,,,,,,,,,,,,,,,,,,,,,,,,,,,
1649884487.147633,1649884487.168574,96.000000,0.000000,4270.256348,4257.948730,4174.358887,4183.589844,4224.102539,450.000000,4.000000,95.000000,,,,0.000000,4.000000,4.000000,4.000000,4.000000,4.000000,100.000000,,,,,,,,,,,,,,,,,,,,,,,,,,,,,,,,,,,,,,,,,,,,,,,,,,,,,,,,,,,,,,,
1649884487.155446,1649884487.176389,97.000000,0.000000,4281.538574,4247.179688,4168.205078,4180.512695,4236.922852,450.000000,4.000000,95.000000,,,,0.000000,4.000000,4.000000,4.000000,4.000000,4.000000,100.000000,,,,,,,,,,,,,,,,,,,,,,,,,,,,,,,,,,,,,,,,,,,,,,,,,,,,,,,,,,,,,,,
1649884487.163260,1649884487.184203,98.000000,0.000000,4290.256348,4252.307617,4168.717773,4177.948730,4240.512695,450.000000,4.000000,95.000000,,,,0.000000,4.000000,4.000000,4.000000,4.000000,4.000000,100.000000,,,,,,,,,,,,,,,,,,,,,,,,,,,,,,,,,,,,,,,,,,,,,,,,,,,,,,,,,,,,,,,
1649884487.171073,1649884487.192117,99.000000,0.000000,4290.256348,4259.487305,4168.205078,4176.922852,4237.436035,16217.000000,4.000000,95.000000,,,,0.000000,4.000000,4.000000,4.000000,4.000000,4.000000,100.000000,,,,,,,,,,,,,,,,,,,,,,,,,,,,,,,,,,,,,,,,,,,,,,,,,,,,,,,,,,,,,,,
1649884487.178886,1649884487.199931,100.000000,0.000000,4290.256348,4248.717773,4162.051270,4168.717773,4236.410156,450.000000,4.000000,95.000000,,,,0.000000,4.000000,4.000000,4.000000,4.000000,4.000000,100.000000,,,,,,,,,,,,,,,,,,,,,,,,,,,,,,,,,,,,,,,,,,,,,,,,,,,,,,,,,,,,,,,
1649884487.186699,1649884487.207845,101.000000,0.000000,4286.666504,4242.051270,4156.410156,4165.641113,4231.794922,450.000000,4.000000,95.000000,,,,0.000000,4.000000,4.000000,4.000000,4.000000,4.000000,100.000000,,,,,,,,,,,,,,,,,,,,,,,,,,,,,,,,,,,,,,,,,,,,,,,,,,,,,,,,,,,,,,,
1649884487.194512,1649884487.215659,102.000000,0.000000,4273.333496,4250.769043,4157.948730,4169.743652,4219.487305,450.000000,4.000000,95.000000,,,,0.000000,4.000000,4.000000,4.000000,4.000000,4.000000,100.000000,,,,,,,,,,,,,,,,,,,,,,,,,,,,,,,,,,,,,,,,,,,,,,,,,,,,,,,,,,,,,,,
1649884487.202325,1649884487.223573,103.000000,0.000000,4254.871582,4245.128418,4156.410156,4163.077148,4200.512695,16217.000000,4.000000,95.000000,,,,0.000000,4.000000,4.000000,4.000000,4.000000,4.000000,100.000000,,,,,,,,,,,,,,,,,,,,,,,,,,,,,,,,,,,,,,,,,,,,,,,,,,,,,,,,,,,,,,,
1649884487.210139,1649884487.231487,104.000000,0.000000,4248.205078,4238.461426,4156.922852,4160.000000,4192.307617,450.000000,4.000000,95.000000,,,,0.000000,4.000000,4.000000,4.000000,4.000000,4.000000,100.000000,,,,,,,,,,,,,,,,,,,,,,,,,,,,,,,,,,,,,,,,,,,,,,,,,,,,,,,,,,,,,,,
1649884487.217952,1649884487.239301,105.000000,0.000000,4261.538574,4248.717773,4172.820313,4174.871582,4206.153809,450.000000,4.000000,95.000000,,,,0.000000,4.000000,4.000000,4.000000,4.000000,4.000000,100.000000,,,,,,,,,,,,,,,,,,,,,,,,,,,,,,,,,,,,,,,,,,,,,,,,,,,,,,,,,,,,,,,
1649884487.225765,1649884487.247215,106.000000,0.000000,4276.410156,4255.897461,4186.666504,4181.538574,4223.077148,450.000000,4.000000,95.000000,,,,0.000000,4.000000,4.000000,4.000000,4.000000,4.000000,100.000000,,,,,,,,,,,,,,,,,,,,,,,,,,,,,,,,,,,,,,,,,,,,,,,,,,,,,,,,,,,,,,,
1649884487.233578,1649884487.255029,107.000000,0.000000,4271.282227,4248.717773,4175.384766,4168.717773,4226.666504,16217.000000,4.000000,95.000000,,,,0.000000,4.000000,4.000000,4.000000,4.000000,4.000000,100.000000,,,,,,,,,,,,,,,,,,,,,,,,,,,,,,,,,,,,,,,,,,,,,,,,,,,,,,,,,,,,,,,
1649884487.241391,1649884487.262944,108.000000,0.000000,4257.436035,4244.615234,4164.102539,4162.563965,4225.128418,450.000000,4.000000,95.000000,,,,0.000000,4.000000,4.000000,4.000000,4.000000,4.000000,100.000000,,,,,,,,,,,,,,,,,,,,,,,,,,,,,,,,,,,,,,,6.328349,5.134397,1.419010,1.076273,0.706105,3.377445,0.941282,0.732099,0.430120,0.209517,3.084300,3.011416,1.334619,0.677346,0.252921,1.985880,1.711034,1.089974,0.716940,0.218856,6.129949,8.017852,1.549453,1.186180,0.478410
1649884487.249205,1649884487.270758,109.000000,0.000000,4257.948730,4254.871582,4170.256348,4170.256348,4226.666504,450.000000,4.000000,95.000000,,,,0.000000,4.000000,4.000000,4.000000,4.000000,4.000000,100.000000,,,,,,,,,,,,,,,,,,,,,,,,,,,,,,,,,,,,,,,,,,,,,,,,,,,,,,,,,,,,,,,
1649884487.257017,1649884487.278672,110.000000,0.000000,4266.153809,4265.641113,4173.333496,4173.846191,4222.051270,450.000000,4.000000,95.000000,,,,0.000000,4.000000,4.000000,4.000000,4.000000,4.000000,100.000000,,,,,,,,,,,,,,,,,,,,,,,,,,,,,,,,,,,,,,,,,,,,,,,,,,,,,,,,,,,,,,,
1649884487.264831,1649884487.286486,111.000000,0.000000,4264.102539,4257.948730,4166.153809,4168.717773,4217.436035,16217.000000,4.000000,95.000000,,,,0.000000,4.000000,4.000000,4.000000,4.000000,4.000000,100.000000,,,,,,,,,,,,,,,,,,,,,,,,,,,,,,,,,,,,,,,,,,,,,,,,,,,,,,,,,,,,,,,
1649884487.272644,1649884487.294400,112.000000,0.000000,4260.512695,4240.512695,4158.974121,4163.077148,4215.897461,450.000000,4.000000,95.000000,,,,0.000000,4.000000,4.000000,4.000000,4.000000,4.000000,100.000000,,,,,,,,,,,,,,,,,,,,,,,,,,,,,,,,,,,,,,,,,,,,,,,,,,,,,,,,,,,,,,,
1649884487.280457,1649884487.302315,113.000000,0.000000,4264.102539,4243.589844,4160.000000,4166.666504,4222.051270,450.000000,4.000000,95.000000,,,,0.000000,4.000000,4.000000,4.000000,4.000000,4.000000,100.000000,,,,,,,,,,,,,,,,,,,,,,,,,,,,,,,,,,,,,,,,,,,,,,,,,,,,,,,,,,,,,,,
1649884487.288270,1649884487.310130,114.000000,0.000000,4264.102539,4252.307617,4174.358887,4172.307617,4224.615234,450.000000,4.000000,95.000000,,,,0.000000,4.000000,4.000000,4.000000,4.000000,4.000000,100.000000,,,,,,,,,,,,,,,,,,,,,,,,,,,,,,,,,,,,,,,,,,,,,,,,,,,,,,,,,,,,,,,
1649884487.296083,1649884487.317945,115.000000,0.000000,4267.179688,4254.358887,4192.820313,4170.769043,4216.410156,16217.000000,4.000000,95.000000,,,,0.000000,4.000000,4.000000,4.000000,4.000000,4.000000,100.000000,,,,,,,,,,,,,,,,,,,,,,,,,,,,,,,,,,,,,,,,,,,,,,,,,,,,,,,,,,,,,,,
1649884487.303897,1649884487.325859,116.000000,0.000000,4271.282227,4259.487305,4187.692383,4167.692383,4219.487305,450.000000,4.000000,95.000000,,,,0.000000,4.000000,4.000000,4.000000,4.000000,4.000000,100.000000,,,,,,,,,,,,,,,,,,,,,,,,,,,,,,,,,,,,,,,,,,,,,,,,,,,,,,,,,,,,,,,
1649884487.311710,1649884487.333674,117.000000,0.000000,4264.615234,4254.871582,4164.615234,4166.666504,4236.410156,450.000000,4.000000,95.000000,,,,0.000000,4.000000,4.000000,4.000000,4.000000,4.000000,100.000000,,,,,,,,,,,,,,,,,,,,,,,,,,,,,,,,,,,,,,,,,,,,,,,,,,,,,,,,,,,,,,,
1649884487.319523,1649884487.341588,118.000000,0.000000,4267.179688,4246.666504,4160.512695,4168.205078,4246.153809,450.000000,4.000000,95.000000,,,,0.000000,4.000000,4.000000,4.000000,4.000000,4.000000,100.000000,,,,,,,,,,,,,,,,,,,,,,,,,,,,,,,,,,,,,,,,,,,,,,,,,,,,,,,,,,,,,,,
1649884487.327336,1649884487.349403,119.000000,0.000000,4274.871582,4249.230957,4167.692383,4167.692383,4243.077148,16217.000000,4.000000,95.000000,,,,0.000000,4.000000,4.000000,4.000000,4.000000,4.000000,100.000000,,,,,,,,,,,,,,,,,,,,,,,,,,,,,,,,,,,,,,,,,,,,,,,,,,,,,,,,,,,,,,,
1649884487.335149,1649884487.357218,120.000000,0.000000,4264.615234,4247.179688,4157.948730,4163.077148,4233.846191,450.000000,4.000000,95.000000,,,,0.000000,4.000000,4.000000,4.000000,4.000000,4.000000,100.000000,,,,,,,,,,,,,,,,,,,,,,,,,,,,,,,,,,,,,,,,,,,,,,,,,,,,,,,,,,,,,,,
1649884487.342962,1649884487.365132,121.000000,0.000000,4267.179688,4238.974121,4147.692383,4159.487305,4227.179688,450.000000,4.000000,95.000000,,,,0.000000,4.000000,4.000000,4.000000,4.000000,4.000000,100.000000,,,,,,,,,,,,,,,,,,,,,,,,,,,,,,,,,,,,,,,,,,,,,,,,,,,,,,,,,,,,,,,
1649884487.350776,1649884487.373046,122.000000,0.000000,4291.794922,4244.102539,4153.333496,4162.563965,4232.307617,450.000000,4.000000,95.000000,,,,0.000000,4.000000,4.000000,4.000000,4.000000,4.000000,100.000000,,,,,,,,,,,,,,,,,,,,,,,,,,,,,,,,,,,,,,,,,,,,,,,,,,,,,,,,,,,,,,,
1649884487.358589,1649884487.380861,123.000000,0.000000,4284.615234,4251.282227,4154.871582,4167.179688,4234.358887,16217.000000,4.000000,95.000000,,,,0.000000,4.000000,4.000000,4.000000,4.000000,4.000000,100.000000,,,,,,,,,,,,,,,,,,,,,,,,,,,,,,,,,,,,,,,,,,,,,,,,,,,,,,,,,,,,,,,
1649884487.366402,1649884487.388776,124.000000,0.000000,4258.974121,4246.666504,4148.205078,4168.717773,4232.307617,450.000000,4.000000,95.000000,,,,0.000000,4.000000,4.000000,4.000000,4.000000,4.000000,100.000000,,,,,,,,,,,,,,,,,,,,,,,,,,,,,,,,,,,,,,,5.262742,5.355948,1.322012,0.968216,0.796889,2.457155,0.878089,0.618159,0.379591,0.215900,2.483214,2.683737,1.322276,0.669383,0.245490,1.631397,1.744205,1.221264,0.684970,0.240381,5.192103,8.252931,1.481035,1.089007,0.559330
1649884487.374215,1649884487.396690,125.000000,0.000000,4264.615234,4243.077148,4155.384766,4169.743652,4241.538574,450.000000,4.000000,95.000000,,,,0.000000,4.000000,4.000000,4.000000,4.000000,4.000000,100.000000,,,,,,,,,,,,,,,,,,,,,,,,,,,,,,,,,,,,,,,,,,,,,,,,,,,,,,,,,,,,,,,
1649884487.382028,1649884487.404505,126.000000,0.000000,4276.410156,4247.179688,4172.820313,4170.256348,4243.077148,450.000000,4.000000,95.000000,,,,0.000000,4.000000,4.000000,4.000000,4.000000,4.000000,100.000000,,,,,,,,,,,,,,,,,,,,,,,,,,,,,,,,,,,,,,,,,,,,,,,,,,,,,,,,,,,,,,,
1649884487.389841,1649884487.412420,127.000000,0.000000,4259.487305,4248.717773,4177.436035,4167.692383,4229.230957,243.000000,4.000000,95.000000,,,,0.000000,4.000000,4.000000,4.000000,4.000000,4.000000,100.000000,,,,,,,,,,,,,,,,,,,,,,,,,,,,,,,,,,,,,,,,,,,,,,,,,,,,,,,,,,,,,,,
1649884487.397654,1649884487.420235,0.000000,0.000000,4247.692383,4244.102539,4168.205078,4162.563965,4224.615234,450.000000,4.000000,95.000000,,,,0.000000,4.000000,4.000000,4.000000,4.000000,4.000000,100.000000,,,,,,,,,,,,,,,,,,,,,,,,,,,,,,,,,,,,,,,,,,,,,,,,,,,,,,,,,,,,,,,
1649884487.405468,1649884487.428050,1.000000,0.000000,4261.538574,4248.717773,4166.666504,4167.692383,4231.794922,450.000000,4.000000,95.000000,,,,0.000000,4.000000,4.000000,4.000000,4.000000,4.000000,100.000000,,,,,,,,,,,,,,,,,,,,,,,,,,,,,,,,,,,,,,,,,,,,,,,,,,,,,,,,,,,,,,,
1649884487.413281,1649884487.435964,2.000000,0.000000,4269.230957,4265.641113,4168.717773,4178.974121,4231.794922,16303.000000,4.000000,95.000000,,,,0.000000,4.000000,4.000000,4.000000,4.000000,4.000000,100.000000,,,,,,,,,,,,,,,,,,,,,,,,,,,,,,,,,,,,,,,,,,,,,,,,,,,,,,,,,,,,,,,
1649884487.421094,1649884487.443779,3.000000,0.000000,4257.436035,4261.538574,4155.897461,4172.820313,4228.717773,450.000000,4.000000,95.000000,,,,0.000000,4.000000,4.000000,4.000000,4.000000,4.000000,100.000000,,,,,,,,,,,,,,,,,,,,,,,,,,,,,,,,,,,,,,,,,,,,,,,,,,,,,,,,,,,,,,,
1649884487.428907,1649884487.451693,4.000000,0.000000,4246.666504,4235.897461,4145.641113,4158.461426,4227.692383,16235.000000,4.000000,95.000000,,,,0.000000,4.000000,4.000000,4.000000,4.000000,4.000000,100.000000,,,,,,,,,,,,,,,,,,,,,,,,,,,,,,,,,,,,,,,,,,,,,,,,,,,,,,,,,,,,,,,
1649884487.436720,1649884487.459607,5.000000,1.000000,4247.977051,4238.290527,4146.837402,4159.259277,4227.293457,450.000000,4.000000,95.000000,,,,0.000000,4.000000,4.000000,4.000000,4.000000,4.000000,100.000000,,,,,,,,,,,,,,,,,,,,,,,,,,,,,,,,,,,,,,,,,,,,,,,,,,,,,,,,,,,,,,,
1649884487.444533,1649884487.467422,6.000000,1.000000,4249.287598,4240.683594,4148.034180,4160.057129,4226.894531,16144.000000,4.000000,95.000000,,,,0.000000,4.000000,4.000000,4.000000,4.000000,4.000000,100.000000,,,,,,,,,,,,,,,,,,,,,,,,,,,,,,,,,,,,,,,,,,,,,,,,,,,,,,,,,,,,,,,
1649884487.452347,1649884487.475237,7.000000,1.000000,4250.598145,4243.077148,4149.230957,4160.854492,4226.495605,450.000000,4.000000,95.000000,,,,0.000000,4.000000,4.000000,4.000000,4.000000,4.000000,100.000000,,,,,,,,,,,,,,,,,,,,,,,,,,,,,,,,,,,,,,,,,,,,,,,,,,,,,,,,,,,,,,,
1649884487.460160,1649884487.483051,8.000000,1.000000,4251.908691,4245.470215,4150.427246,4161.652344,4226.096680,450.000000,4.000000,95.000000,,,,0.000000,4.000000,4.000000,4.000000,4.000000,4.000000,100.000000,,,,,,,,,,,,,,,,,,,,,,,,,,,,,,,,,,,,,,,,,,,,,,,,,,,,,,,,,,,,,,,
1649884487.467973,1649884487.490866,9.000000,1.000000,4253.219238,4247.863281,4151.624023,4162.450195,4225.698242,16160.000000,4.000000,95.000000,,,,0.000000,4.000000,4.000000,4.000000,4.000000,4.000000,100.000000,,,,,,,,,,,,,,,,,,,,,,,,,,,,,,,,,,,,,,,,,,,,,,,,,,,,,,,,,,,,,,,
1649884487.475786,1649884487.498681,10.000000,1.000000,4254.529785,4250.256348,4152.820313,4163.248047,4225.299316,450.000000,4.000000,95.000000,,,,0.000000,4.000000,4.000000,4.000000,4.000000,4.000000,100.000000,,,,,,,,,,,,,,,,,,,,,,,,,,,,,,,,,,,,,,,,,,,,,,,,,,,,,,,,,,,,,,,
1649884487.483599,1649884487.506495,11.000000,1.000000,4255.840332,4252.649414,4154.017090,4164.045410,4224.900391,16217.000000,4.000000,95.000000,,,,0.000000,4.000000,4.000000,4.000000,4.000000,4.000000,100.000000,,,,,,,,,,,,,,,,,,,,,,,,,,,,,,,,,,,,,,,,,,,,,,,,,,,,,,,,,,,,,,,
1649884487.491413,1649884487.514310,12.000000,1.000000,4257.150879,4255.042969,4155.213867,4164.843262,4224.501465,450.000000,4.000000,95.000000,,,,0.000000,4.000000,4.000000,4.000000,4.000000,4.000000,100.000000,0.937500,100.000000,4.000000,4.000000,4.000000,4.000000,4.000000,,,,,,,,,,,,,,,,,,,,,,,,,,,,,,,,4.492729,4.954092,1.166470,0.957589,0.877838,1.882088,0.786377,0.540442,0.352894,0.226361,2.195549,2.457681,1.241925,0.645841,0.246617,1.684681,1.720891,1.229614,0.599807,0.258611,4.352643,7.407748,1.327155,0.978899,0.631177
1649884487.499226,1649884487.522125,13.000000,0.000000,4258.461426,4257.436035,4156.410156,4165.641113,4224.102539,450.000000,4.000000,95.000000,,,,0.000000,4.000000,4.000000,4.000000,4.000000,4.000000,100.000000,,,,,,,,,,,,,,,,,,,,,,,,,,,,,,,,,,,,,,,,,,,,,,,,,,,,,,,,,,,,,,,
1649884487.507039,1649884487.529837,14.000000,0.000000,4251.282227,4251.282227,4142.051270,4160.000000,4211.794922,450.000000,4.000000,95.000000,,,,0.000000,4.000000,4.000000,4.000000,4.000000,4.000000,100.000000,,,,,,,,,,,,,,,,,,,,,,,,,,,,,,,,,,,,,,,,,,,,,,,,,,,,,,,,,,,,,,,
1649884487.514852,1649884487.537650,15.000000,0.000000,4250.769043,4249.230957,4144.615234,4164.615234,4212.820313,16162.000000,4.000000,95.000000,,,,0.000000,4.000000,4.000000,4.000000,4.000000,4.000000,100.000000,,,,,,,,,,,,,,,,,,,,,,,,,,,,,,,,,,,,,,,,,,,,,,,,,,,,,,,,,,,,,,,
1649884487.522665,1649884487.545463,16.000000,0.000000,4265.128418,4256.922852,4154.871582,4173.333496,4234.871582,0.000000,4.000000,95.000000,,,,0.000000,4.000000,4.000000,4.000000,4.000000,4.000000,100.000000,,,,,,,,,,,,,,,,,,,,,,,,,,,,,,,,,,,,,,,,,,,,,,,,,,,,,,,,,,,,,,,
1649884487.530478,1649884487.553175,17.000000,0.000000,4256.922852,4255.384766,4154.871582,4168.205078,4240.000000,0.000000,4.000000,95.000000,,,,0.000000,4.000000,4.000000,4.000000,4.000000,4.000000,100.000000,,,,,,,,,,,,,,,,,,,,,,,,,,,,,,,,,,,,,,,,,,,,,,,,,,,,,,,,,,,,,,,
1649884487.538291,1649884487.560888,18.000000,0.000000,4250.769043,4249.230957,4155.384766,4162.563965,4233.846191,0.000000,4.000000,95.000000,,,,0.000000,4.000000,4.000000,4.000000,4.000000,4.000000,100.000000,,,,,,,,,,,,,,,,,,,,,,,,,,,,,,,,,,,,,,,,,,,,,,,,,,,,,,,,,,,,,,,
1649884487.546105,1649884487.568701,19.000000,0.000000,4268.205078,4253.846191,4161.538574,4171.282227,4229.743652,0.000000,4.000000,95.000000,,,,0.000000,4.000000,4.000000,4.000000,4.000000,4.000000,100.000000,,,,,,,,,,,,,,,,,,,,,,,,,,,,,,,,,,,,,,,,,,,,,,,,,,,,,,,,,,,,,,,
1649884487.553918,1649884487.576414,20.000000,0.000000,4269.743652,4256.410156,4166.153809,4179.487305,4222.563965,0.000000,4.000000,95.000000,,,,0.000000,4.000000,4.000000,4.000000,4.000000,4.000000,100.000000,,,,,,,,,,,,,,,,,,,,,,,,,,,,,,,,,,,,,,,,,,,,,,,,,,,,,,,,,,,,,,,
1649884487.561731,1649884487.584127,21.000000,0.000000,4251.794922,4253.846191,4169.743652,4177.948730,4225.641113,0.000000,4.000000,95.000000,,,,0.000000,4.000000,4.000000,4.000000,4.000000,4.000000,100.000000,,,,,,,,,,,,,,,,,,,,,,,,,,,,,,,,,,,,,,,,,,,,,,,,,,,,,,,,,,,,,,,
1649884487.569544,1649884487.591940,22.000000,0.000000,4246.666504,4252.307617,4163.589844,4171.794922,4231.282227,0.000000,4.000000,95.000000,,,,0.000000,4.000000,4.000000,4.000000,4.000000,4.000000,100.000000,,,,,,,,,,,,,,,,,,,,,,,,,,,,,,,,,,,,,,,,,,,,,,,,,,,,,,,,,,,,,,,
1649884487.577357,1649884487.599653,23.000000,0.000000,4255.384766,4251.794922,4152.820313,4161.025879,4218.461426,0.000000,4.000000,95.000000,,,,0.000000,4.000000,4.000000,4.000000,4.000000,4.000000,100.000000,,,,,,,,,,,,,,,,,,,,,,,,,,,,,,,,,,,,,,,,,,,,,,,,,,,,,,,,,,,,,,,
1649884487.585170,1649884487.607466,24.000000,0.000000,4259.487305,4250.769043,4154.358887,4155.384766,4212.307617,0.000000,4.000000,95.000000,,,,0.000000,4.000000,4.000000,4.000000,4.000000,4.000000,100.000000,,,,,,,,,,,,,,,,,,,,,,,,,,,,,,,,,,,,,,,,,,,,,,,,,,,,,,,,,,,,,,,
1649884487.592984,1649884487.615179,25.000000,0.000000,4253.333496,4248.205078,4159.487305,4153.846191,4224.615234,0.000000,4.000000,95.000000,,,,0.000000,4.000000,4.000000,4.000000,4.000000,4.000000,100.000000,,,,,,,,,,,,,,,,,,,,,,,,,,,,,,,,,,,,,,,,,,,,,,,,,,,,,,,,,,,,,,,
1649884487.600797,1649884487.622992,26.000000,0.000000,4248.717773,4247.692383,4151.794922,4151.282227,4230.769043,0.000000,4.000000,95.000000,,,,0.000000,4.000000,4.000000,4.000000,4.000000,4.000000,100.000000,,,,,,,,,,,,,,,,,,,,,,,,,,,,,,,,,,,,,,,,,,,,,,,,,,,,,,,,,,,,,,,
1649884487.608610,1649884487.630805,27.000000,0.000000,4249.743652,4254.358887,4139.487305,4155.897461,4230.256348,0.000000,4.000000,95.000000,,,,0.000000,4.000000,4.000000,4.000000,4.000000,4.000000,100.000000,,,,,,,,,,,,,,,,,,,,,,,,,,,,,,,,,,,,,,,,,,,,,,,,,,,,,,,,,,,,,,,
1649884487.616423,1649884487.638518,28.000000,0.000000,4252.820313,4253.846191,4134.871582,4162.051270,4231.794922,0.000000,4.000000,95.000000,,,,0.000000,4.000000,4.000000,4.000000,4.000000,4.000000,100.000000,,,,,,,,,,,,,,,,,,,,,,,,,,,,,,,,,,,,,,,4.386956,4.042638,1.004284,1.035103,0.924445,1.746202,0.695028,0.508655,0.359057,0.246716,2.332217,2.479719,1.108721,0.615517,0.260041,2.191952,1.665286,1.110350,0.487649,0.271428,3.876590,5.763825,1.184017,0.885970,0.671654
1649884487.624236,1649884487.646331,29.000000,0.000000,4253.846191,4243.589844,4136.922852,4162.051270,4233.846191,0.000000,4.000000,95.000000,,,,0.000000,4.000000,4.000000,4.000000,4.000000,4.000000,100.000000,,,,,,,,,,,,,,,,,,,,,,,,,,,,,,,,,,,,,,,,,,,,,,,,,,,,,,,,,,,,,,,
1649884487.632049,1649884487.654043,30.000000,0.000000,4250.769043,4239.487305,4137.948730,4158.974121,4229.230957,0.000000,4.000000,95.000000,,,,0.000000,4.000000,4.000000,4.000000,4.000000,4.000000,100.000000,,,,,,,,,,,,,,,,,,,,,,,,,,,,,,,,,,,,,,,,,,,,,,,,,,,,,,,,,,,,,,,
1649884487.639862,1649884487.661856,31.000000,0.000000,4247.179688,4243.077148,4140.000000,4153.846191,4215.897461,0.000000,4.000000,95.000000,,,,0.000000,4.000000,4.000000,4.000000,4.000000,4.000000,100.000000,,,,,,,,,,,,,,,,,,,,,,,,,,,,,,,,,,,,,,,,,,,,,,,,,,,,,,,,,,,,,,,
1649884487.647676,1649884487.669569,32.000000,0.000000,4253.333496,4245.128418,4153.333496,4157.948730,4216.922852,0.000000,4.000000,95.000000,,,,0.000000,4.000000,4.000000,4.000000,4.000000,4.000000,100.000000,,,,,,,,,,,,,,,,,,,,,,,,,,,,,,,,,,,,,,,,,,,,,,,,,,,,,,,,,,,,,,,
1649884487.655489,1649884487.677282,33.000000,0.000000,4260.000000,4243.589844,4166.153809,4171.794922,4232.820313,0.000000,4.000000,95.000000,,,,0.000000,4.000000,4.000000,4.000000,4.000000,4.000000,100.000000,,,,,,,,,,,,,,,,,,,,,,,,,,,,,,,,,,,,,,,,,,,,,,,,,,,,,,,,,,,,,,,
1649884487.663302,1649884487.685095,34.000000,0.000000,4255.384766,4242.563965,4161.538574,4177.948730,4229.230957,0.000000,4.000000,95.000000,,,,0.000000,4.000000,4.000000,4.000000,4.000000,4.000000,100.000000,,,,,,,,,,,,,,,,,,,,,,,,,,,,,,,,,,,,,,,,,,,,,,,,,,,,,,,,,,,,,,,
1649884487.671115,1649884487.692808,35.000000,0.000000,4249.230957,4244.102539,4154.871582,4170.769043,4211.282227,0.000000,4.000000,95.000000,,,,0.000000,4.000000,4.000000,4.000000,4.000000,4.000000,100.000000,,,,,,,,,,,,,,,,,,,,,,,,,,,,,,,,,,,,,,,,,,,,,,,,,,,,,,,,,,,,,,,
1649884487.678928,1649884487.700621,36.000000,0.000000,4236.922852,4241.025879,4157.948730,4164.102539,4209.743652,0.000000,4.000000,95.000000,,,,0.000000,4.000000,4.000000,4.000000,4.000000,4.000000,100.000000,,,,,,,,,,,,,,,,,,,,,,,,,,,,,,,,,,,,,,,,,,,,,,,,,,,,,,,,,,,,,,,
1649884487.686741,1649884487.708334,37.000000,0.000000,4224.102539,4243.589844,4162.563965,4165.128418,4218.974121,0.000000,4.000000,95.000000,,,,0.000000,4.000000,4.000000,4.000000,4.000000,4.000000,100.000000,,,,,,,,,,,,,,,,,,,,,,,,,,,,,,,,,,,,,,,,,,,,,,,,,,,,,,,,,,,,,,,
1649884487.694555,1649884487.716147,38.000000,0.000000,4231.794922,4247.179688,4163.077148,4167.179688,4220.000000,0.000000,4.000000,95.000000,,,,0.000000,4.000000,4.000000,4.000000,4.000000,4.000000,100.000000,,,,,,,,,,,,,,,,,,,,,,,,,,,,,,,,,,,,,,,,,,,,,,,,,,,,,,,,,,,,,,,
1649884487.702368,1649884487.723959,39.000000,0.000000,4250.256348,4237.948730,4156.922852,4164.615234,4215.384766,0.000000,4.000000,95.000000,,,,0.000000,4.000000,4.000000,4.000000,4.000000,4.000000,100.000000,,,,,,,,,,,,,,,,,,,,,,,,,,,,,,,,,,,,,,,,,,,,,,,,,,,,,,,,,,,,,,,
1649884487.710181,1649884487.731672,40.000000,0.000000,4254.358887,4223.589844,4141.025879,4165.128418,4223.077148,0.000000,4.000000,95.000000,,,,0.000000,4.000000,4.000000,4.000000,4.000000,4.000000,100.000000,,,,,,,,,,,,,,,,,,,,,,,,,,,,,,,,,,,,,,,,,,,,,,,,,,,,,,,,,,,,,,,
1649884487.717994,1649884487.739485,41.000000,0.000000,4240.512695,4218.974121,4126.153809,4167.692383,4232.820313,0.000000,4.000000,95.000000,,,,0.000000,4.000000,4.000000,4.000000,4.000000,4.000000,100.000000,,,,,,,,,,,,,,,,,,,,,,,,,,,,,,,,,,,,,,,,,,,,,,,,,,,,,,,,,,,,,,,
1649884487.725807,1649884487.747197,42.000000,0.000000,4228.717773,4226.153809,4122.563965,4160.512695,4216.410156,0.000000,4.000000,95.000000,,,,0.000000,4.000000,4.000000,4.000000,4.000000,4.000000,100.000000,,,,,,,,,,,,,,,,,,,,,,,,,,,,,,,,,,,,,,,,,,,,,,,,,,,,,,,,,,,,,,,
1649884487.733621,1649884487.754910,43.000000,0.000000,4225.641113,4232.307617,4123.589844,4149.743652,4195.384766,0.000000,4.000000,95.000000,,,,0.000000,4.000000,4.000000,4.000000,4.000000,4.000000,100.000000,,,,,,,,,,,,,,,,,,,,,,,,,,,,,,,,,,,,,,,,,,,,,,,,,,,,,,,,,,,,,,,
1649884487.741434,1649884487.762723,44.000000,0.000000,4233.333496,4237.948730,4134.871582,4158.974121,4207.179688,0.000000,4.000000,95.000000,,,,0.000000,4.000000,4.000000,4.000000,4.000000,4.000000,100.000000,,,,,,,,,,,,,,,,,,,,,,,,,,,,,,,,,,,,,,,4.947274,2.915580,0.874600,1.153773,0.926836,1.921690,0.636406,0.512200,0.395706,0.280560,2.803255,2.755972,0.957004,0.583894,0.285540,3.011584,1.600429,0.908957,0.385533,0.277599,3.824580,3.876879,1.136530,0.825839,0.666702
1649884487.749247,1649884487.770436,45.000000,0.000000,4248.205078,4252.820313,4153.846191,4177.948730,4227.692383,0.000000,4.000000,95.000000,,,,0.000000,4.000000,4.000000,4.000000,4.000000,4.000000,100.000000,,,,,,,,,,,,,,,,,,,,,,,,,,,,,,,,,,,,,,,,,,,,,,,,,,,,,,,,,,,,,,,
1649884487.757060,1649884487.778248,46.000000,0.000000,4248.717773,4252.307617,4156.410156,4175.384766,4220.512695,0.000000,4.000000,95.000000,,,,0.000000,4.000000,4.000000,4.000000,4.000000,4.000000,100.000000,,,,,,,,,,,,,,,,,,,,,,,,,,,,,,,,,,,,,,,,,,,,,,,,,,,,,,,,,,,,,,,
1649884487.764873,1649884487.785961,47.000000,0.000000,4236.922852,4236.922852,4150.256348,4163.077148,4203.589844,0.000000,4.000000,95.000000,,,,0.000000,4.000000,4.000000,4.000000,4.000000,4.000000,100.000000,,,,,,,,,,,,,,,,,,,,,,,,,,,,,,,,,,,,,,,,,,,,,,,,,,,,,,,,,,,,,,,
1649884487.772686,1649884487.793774,48.000000,0.000000,4236.922852,4242.051270,4153.846191,4168.205078,4209.743652,0.000000,4.000000,95.000000,,,,0.000000,4.000000,4.000000,4.000000,4.000000,4.000000,100.000000,,,,,,,,,,,,,,,,,,,,,,,,,,,,,,,,,,,,,,,,,,,,,,,,,,,,,,,,,,,,,,,
1649884487.780499,1649884487.801487,49.000000,0.000000,4236.922852,4244.615234,4150.769043,4169.230957,4218.974121,0.000000,4.000000,95.000000,,,,0.000000,4.000000,4.000000,4.000000,4.000000,4.000000,100.000000,,,,,,,,,,,,,,,,,,,,,,,,,,,,,,,,,,,,,,,,,,,,,,,,,,,,,,,,,,,,,,,
1649884487.788313,1649884487.809300,50.000000,0.000000,4223.077148,4226.153809,4134.871582,4154.358887,4209.230957,0.000000,4.000000,95.000000,,,,0.000000,4.000000,4.000000,4.000000,4.000000,4.000000,100.000000,,,,,,,,,,,,,,,,,,,,,,,,,,,,,,,,,,,,,,,,,,,,,,,,,,,,,,,,,,,,,,,
1649884487.796126,1649884487.817012,51.000000,0.000000,4226.666504,4230.769043,4130.769043,4156.410156,4206.666504,0.000000,4.000000,95.000000,,,,0.000000,4.000000,4.000000,4.000000,4.000000,4.000000,100.000000,,,,,,,,,,,,,,,,,,,,,,,,,,,,,,,,,,,,,,,,,,,,,,,,,,,,,,,,,,,,,,,
1649884487.803939,1649884487.824725,52.000000,0.000000,4246.666504,4249.230957,4140.000000,4167.692383,4211.794922,0.000000,4.000000,95.000000,,,,0.000000,4.000000,4.000000,4.000000,4.000000,4.000000,100.000000,,,,,,,,,,,,,,,,,,,,,,,,,,,,,,,,,,,,,,,,,,,,,,,,,,,,,,,,,,,,,,,
1649884487.811752,1649884487.832538,53.000000,0.000000,4246.153809,4241.538574,4142.563965,4162.563965,4206.666504,0.000000,4.000000,95.000000,,,,0.000000,4.000000,4.000000,4.000000,4.000000,4.000000,100.000000,,,,,,,,,,,,,,,,,,,,,,,,,,,,,,,,,,,,,,,,,,,,,,,,,,,,,,,,,,,,,,,
1649884487.819565,1649884487.840351,54.000000,0.000000,4233.846191,4231.282227,4137.948730,4151.794922,4211.794922,0.000000,4.000000,95.000000,,,,0.000000,4.000000,4.000000,4.000000,4.000000,4.000000,100.000000,,,,,,,,,,,,,,,,,,,,,,,,,,,,,,,,,,,,,,,,,,,,,,,,,,,,,,,,,,,,,,,
1649884487.827378,1649884487.848064,55.000000,0.000000,4243.589844,4237.436035,4135.897461,4148.717773,4228.717773,0.000000,4.000000,95.000000,,,,0.000000,4.000000,4.000000,4.000000,4.000000,4.000000,100.000000,,,,,,,,,,,,,,,,,,,,,,,,,,,,,,,,,,,,,,,,,,,,,,,,,,,,,,,,,,,,,,,
1649884487.835192,1649884487.855877,56.000000,0.000000,4259.487305,4237.436035,4130.256348,4149.230957,4229.743652,0.000000,4.000000,95.000000,,,,0.000000,4.000000,4.000000,4.000000,4.000000,4.000000,100.000000,,,,,,,,,,,,,,,,,,,,,,,,,,,,,,,,,,,,,,,,,,,,,,,,,,,,,,,,,,,,,,,
1649884487.843005,1649884487.863590,57.000000,0.000000,4256.410156,4223.589844,4118.461426,4148.205078,4218.974121,0.000000,4.000000,95.000000,,,,0.000000,4.000000,4.000000,4.000000,4.000000,4.000000,100.000000,,,,,,,,,,,,,,,,,,,,,,,,,,,,,,,,,,,,,,,,,,,,,,,,,,,,,,,,,,,,,,,
1649884487.850818,1649884487.871403,58.000000,0.000000,4243.077148,4222.563965,4118.974121,4150.769043,4217.436035,0.000000,4.000000,95.000000,,,,0.000000,4.000000,4.000000,4.000000,4.000000,4.000000,100.000000,,,,,,,,,,,,,,,,,,,,,,,,,,,,,,,,,,,,,,,,,,,,,,,,,,,,,,,,,,,,,,,
1649884487.858631,1649884487.879115,59.000000,0.000000,4234.871582,4239.487305,4130.769043,4153.333496,4212.307617,0.000000,4.000000,95.000000,,,,0.000000,4.000000,4.000000,4.000000,4.000000,4.000000,100.000000,,,,,,,,,,,,,,,,,,,,,,,,,,,,,,,,,,,,,,,,,,,,,,,,,,,,,,,,,,,,,,,
1649884487.866444,1649884487.886828,60.000000,0.000000,4236.922852,4245.641113,4138.974121,4155.384766,4200.000000,0.000000,4.000000,95.000000,,,,0.000000,4.000000,4.000000,4.000000,4.000000,4.000000,100.000000,,,,,,,,,,,,,,,,,,,,,,,,,,,,,,,,,,,,,,,5.842886,1.896496,0.784683,1.246654,0.888432,2.147725,0.626358,0.524721,0.446923,0.324132,3.399994,3.158528,0.824199,0.553238,0.317827,3.855398,1.530792,0.685640,0.315571,0.276474,4.037966,2.277668,1.210001,0.792301,0.616277
1649884487.874257,1649884487.894641,61.000000,0.000000,4248.205078,4238.974121,4136.922852,4157.436035,4200.512695,0.000000,4.000000,95.000000,,,,0.000000,4.000000,4.000000,4.000000,4.000000,4.000000,100.000000,,,,,,,,,,,,,,,,,,,,,,,,,,,,,,,,,,,,,,,,,,,,,,,,,,,,,,,,,,,,,,,
1649884487.882070,1649884487.902354,62.000000,0.000000,4255.897461,4244.102539,4134.358887,4163.077148,4216.410156,0.000000,4.000000,95.000000,,,,0.000000,4.000000,4.000000,4.000000,4.000000,4.000000,100.000000,,,,,,,,,,,,,,,,,,,,,,,,,,,,,,,,,,,,,,,,,,,,,,,,,,,,,,,,,,,,,,,
1649884487.889884,1649884487.910167,63.000000,0.000000,4257.948730,4249.743652,4147.179688,4171.282227,4230.769043,0.000000,4.000000,95.000000,,,,0.000000,4.000000,4.000000,4.000000,4.000000,4.000000,100.000000,,,,,,,,,,,,,,,,,,,,,,,,,,,,,,,,,,,,,,,,,,,,,,,,,,,,,,,,,,,,,,,
1649884487.897697,1649884487.917880,64.000000,0.000000,4270.769043,4242.563965,4167.179688,4171.794922,4239.487305,450.000000,4.000000,95.000000,,,,0.000000,4.000000,4.000000,4.000000,4.000000,4.000000,100.000000,,,,,,,,,,,,,,,,,,,,,,,,,,,,,,,,,,,,,,,,,,,,,,,,,,,,,,,,,,,,,,,
1649884487.905510,1649884487.925693,65.000000,0.000000,4285.128418,4251.282227,4168.205078,4171.282227,4248.717773,450.000000,4.000000,95.000000,,,,0.000000,4.000000,4.000000,4.000000,4.000000,4.000000,100.000000,,,,,,,,,,,,,,,,,,,,,,,,,,,,,,,,,,,,,,,,,,,,,,,,,,,,,,,,,,,,,,,
1649884487.913323,1649884487.933405,66.000000,0.000000,4277.948730,4269.743652,4151.282227,4167.692383,4242.563965,16264.000000,4.000000,95.000000,,,,0.000000,4.000000,4.000000,4.000000,4.000000,4.000000,100.000000,,,,,,,,,,,,,,,,,,,,,,,,,,,,,,,,,,,,,,,,,,,,,,,,,,,,,,,,,,,,,,,
1649884487.921136,1649884487.941119,67.000000,0.000000,4271.282227,4267.179688,4148.205078,4164.102539,4234.358887,450.000000,4.000000,95.000000,,,,0.000000,4.000000,4.000000,4.000000,4.000000,4.000000,100.000000,,,,,,,,,,,,,,,,,,,,,,,,,,,,,,,,,,,,,,,,,,,,,,,,,,,,,,,,,,,,,,,
1649884487.928949,1649884487.948932,68.000000,0.000000,4283.077148,4253.846191,4156.410156,4168.205078,4243.589844,16254.000000,4.000000,95.000000,,,,0.000000,4.000000,4.000000,4.000000,4.000000,4.000000,100.000000,,,,,,,,,,,,,,,,,,,,,,,,,,,,,,,,,,,,,,,,,,,,,,,,,,,,,,,,,,,,,,,
1649884487.936763,1649884487.956645,69.000000,0.000000,4283.589844,4245.128418,4151.794922,4171.794922,4243.077148,450.000000,4.000000,95.000000,,,,0.000000,4.000000,4.000000,4.000000,4.000000,4.000000,100.000000,,,,,,,,,,,,,,,,,,,,,,,,,,,,,,,,,,,,,,,,,,,,,,,,,,,,,,,,,,,,,,,
1649884487.944576,1649884487.964458,70.000000,0.000000,4268.205078,4244.615234,4149.230957,4172.307617,4237.948730,16219.000000,4.000000,95.000000,,,,0.000000,4.000000,4.000000,4.000000,4.000000,4.000000,100.000000,,,,,,,,,,,,,,,,,,,,,,,,,,,,,,,,,,,,,,,,,,,,,,,,,,,,,,,,,,,,,,,
1649884487.952389,1649884487.972171,71.000000,0.000000,4267.179688,4250.256348,4160.000000,4176.410156,4245.128418,450.000000,4.000000,95.000000,,,,0.000000,4.000000,4.000000,4.000000,4.000000,4.000000,100.000000,,,,,,,,,,,,,,,,,,,,,,,,,,,,,,,,,,,,,,,,,,,,,,,,,,,,,,,,,,,,,,,
1649884487.960202,1649884487.979884,72.000000,0.000000,4269.230957,4249.230957,4166.666504,4180.000000,4244.102539,450.000000,4.000000,95.000000,,,,0.000000,4.000000,4.000000,4.000000,4.000000,4.000000,100.000000,,,,,,,,,,,,,,,,,,,,,,,,,,,,,,,,,,,,,,,,,,,,,,,,,,,,,,,,,,,,,,,
1649884487.968015,1649884487.987698,73.000000,0.000000,4253.333496,4244.102539,4165.641113,4176.922852,4231.794922,16211.000000,4.000000,95.000000,,,,0.000000,4.000000,4.000000,4.000000,4.000000,4.000000,100.000000,,,,,,,,,,,,,,,,,,,,,,,,,,,,,,,,,,,,,,,,,,,,,,,,,,,,,,,,,,,,,,,
1649884487.975829,1649884487.995512,74.000000,0.000000,4247.692383,4252.307617,4168.717773,4175.384766,4223.589844,450.000000,4.000000,95.000000,,,,0.000000,4.000000,4.000000,4.000000,4.000000,4.000000,100.000000,,,,,,,,,,,,,,,,,,,,,,,,,,,,,,,,,,,,,,,,,,,,,,,,,,,,,,,,,,,,,,,
1649884487.983642,1649884488.003326,75.000000,0.000000,4257.436035,4250.256348,4162.563965,4171.282227,4216.410156,16147.000000,4.000000,95.000000,,,,0.000000,4.000000,4.000000,4.000000,4.000000,4.000000,100.000000,,,,,,,,,,,,,,,,,,,,,,,,,,,,,,,,,,,,,,,,,,,,,,,,,,,,,,,,,,,,,,,
1649884487.991455,1649884488.011039,76.000000,0.000000,4252.307617,4231.282227,4143.589844,4164.615234,4215.897461,450.000000,4.000000,95.000000,,,,0.000000,4.000000,4.000000,4.000000,4.000000,4.000000,100.000000,0.937500,100.000000,4.000000,4.000000,4.000000,4.000000,4.000000,,,,,,,,,,,,,,,,,,,,,,,,,,,,,,,,6.558594,1.196306,0.720988,1.269758,0.821479,2.232420,0.660869,0.535607,0.491950,0.366144,3.929172,3.557095,0.738395,0.525648,0.348166,4.437271,1.455812,0.494859,0.283939,0.268970,4.212397,1.257893,1.355185,0.768653,0.535911
1649884487.999268,1649884488.018852,77.000000,0.000000,4243.077148,4232.820313,4141.025879,4171.282227,4227.179688,450.000000,4.000000,95.000000,,,,0.000000,4.000000,4.000000,4.000000,4.000000,4.000000,100.000000,,,,,,,,,,,,,,,,,,,,,,,,,,,,,,,,,,,,,,,,,,,,,,,,,,,,,,,,,,,,,,,
1649884488.007081,1649884488.026565,78.000000,0.000000,4246.666504,4250.769043,4147.692383,4171.794922,4225.128418,450.000000,4.000000,95.000000,,,,0.000000,4.000000,4.000000,4.000000,4.000000,4.000000,100.000000,,,,,,,,,,,,,,,,,,,,,,,,,,,,,,,,,,,,,,,,,,,,,,,,,,,,,,,,,,,,,,,
1649884488.014894,1649884488.034279,79.000000,0.000000,4233.333496,4245.128418,4140.000000,4150.256348,4201.025879,16147.000000,4.000000,95.000000,,,,0.000000,4.000000,4.000000,4.000000,4.000000,4.000000,100.000000,,,,,,,,,,,,,,,,,,,,,,,,,,,,,,,,,,,,,,,,,,,,,,,,,,,,,,,,,,,,,,,
1649884488.022707,1649884488.042092,80.000000,0.000000,4215.384766,4228.717773,4136.410156,4136.410156,4185.641113,450.000000,4.000000,95.000000,,,,0.000000,4.000000,4.000000,4.000000,4.000000,4.000000,100.000000,,,,,,,,,,,,,,,,,,,,,,,,,,,,,,,,,,,,,,,,,,,,,,,,,,,,,,,,,,,,,,,
1649884488.030521,1649884488.049806,81.000000,0.000000,4243.589844,4243.077148,4156.410156,4150.769043,4205.641113,450.000000,4.000000,95.000000,,,,0.000000,4.000000,4.000000,4.000000,4.000000,4.000000,100.000000,,,,,,,,,,,,,,,,,,,,,,,,,,,,,,,,,,,,,,,,,,,,,,,,,,,,,,,,,,,,,,,
1649884488.038334,1649884488.057619,82.000000,0.000000,4268.205078,4262.051270,4175.384766,4160.512695,4229.743652,450.000000,4.000000,95.000000,,,,0.000000,4.000000,4.000000,4.000000,4.000000,4.000000,100.000000,,,,,,,,,,,,,,,,,,,,,,,,,,,,,,,,,,,,,,,,,,,,,,,,,,,,,,,,,,,,,,,
1649884488.046147,1649884488.065333,83.000000,0.000000,4242.563965,4241.025879,4177.948730,4156.410156,4220.000000,16147.000000,4.000000,95.000000,,,,0.000000,4.000000,4.000000,4.000000,4.000000,4.000000,100.000000,,,,,,,,,,,,,,,,,,,,,,,,,,,,,,,,,,,,,,,,,,,,,,,,,,,,,,,,,,,,,,,
1649884488.053960,1649884488.073146,84.000000,0.000000,4231.282227,4222.563965,4177.436035,4165.128418,4208.205078,450.000000,4.000000,95.000000,,,,0.000000,4.000000,4.000000,4.000000,4.000000,4.000000,100.000000,,,,,,,,,,,,,,,,,,,,,,,,,,,,,,,,,,,,,,,,,,,,,,,,,,,,,,,,,,,,,,,
1649884488.061773,1649884488.080860,85.000000,0.000000,4249.230957,4233.846191,4175.384766,4172.307617,4220.512695,450.000000,4.000000,95.000000,,,,0.000000,4.000000,4.000000,4.000000,4.000000,4.000000,100.000000,,,,,,,,,,,,,,,,,,,,,,,,,,,,,,,,,,,,,,,,,,,,,,,,,,,,,,,,,,,,,,,
1649884488.069586,1649884488.088673,86.000000,0.000000,4249.743652,4240.512695,4172.307617,4164.102539,4232.820313,450.000000,4.000000,95.000000,,,,0.000000,4.000000,4.000000,4.000000,4.000000,4.000000,100.000000,,,,,,,,,,,,,,,,,,,,,,,,,,,,,,,,,,,,,,,,,,,,,,,,,,,,,,,,,,,,,,,
1649884488.077400,1649884488.096387,87.000000,0.000000,4246.666504,4234.871582,4173.333496,4160.000000,4228.717773,16147.000000,4.000000,95.000000,,,,0.000000,4.000000,4.000000,4.000000,4.000000,4.000000,100.000000,,,,,,,,,,,,,,,,,,,,,,,,,,,,,,,,,,,,,,,,,,,,,,,,,,,,,,,,,,,,,,,
1649884488.085213,1649884488.104200,88.000000,0.000000,4257.436035,4229.743652,4168.205078,4160.512695,4226.666504,450.000000,4.000000,95.000000,,,,0.000000,4.000000,4.000000,4.000000,4.000000,4.000000,100.000000,,,,,,,,,,,,,,,,,,,,,,,,,,,,,,,,,,,,,,,,,,,,,,,,,,,,,,,,,,,,,,,
1649884488.093026,1649884488.111913,89.000000,0.000000,4257.948730,4230.769043,4160.000000,4162.563965,4234.871582,450.000000,4.000000,95.000000,,,,0.000000,4.000000,4.000000,4.000000,4.000000,4.000000,100.000000,,,,,,,,,,,,,,,,,,,,,,,,,,,,,,,,,,,,,,,,,,,,,,,,,,,,,,,,,,,,,,,
1649884488.100839,1649884488.119726,90.000000,0.000000,4264.102539,4246.153809,4169.743652,4174.358887,4242.563965,450.000000,4.000000,95.000000,,,,0.000000,4.000000,4.000000,4.000000,4.000000,4.000000,100.000000,,,,,,,,,,,,,,,,,,,,,,,,,,,,,,,,,,,,,,,,,,,,,,,,,,,,,,,,,,,,,,,
1649884488.108652,1649884488.127440,91.000000,0.000000,4285.641113,4257.948730,4192.307617,4185.128418,4252.307617,16147.000000,4.000000,95.000000,,,,0.000000,4.000000,4.000000,4.000000,4.000000,4.000000,100.000000,,,,,,,,,,,,,,,,,,,,,,,,,,,,,,,,,,,,,,,,,,,,,,,,,,,,,,,,,,,,,,,
1649884488.116465,1649884488.135354,92.000000,0.000000,4271.282227,4247.179688,4195.384766,4173.333496,4248.205078,450.000000,4.000000,95.000000,,,,0.000000,4.000000,4.000000,4.000000,4.000000,4.000000,100.000000,,,,,,,,,,,,,,,,,,,,,,,,,,,,,,,,,,,,,,,6.701471,0.842565,0.668300,1.223791,0.741488,2.134598,0.714094,0.545814,0.518468,0.393697,4.240497,3.862057,0.720900,0.506560,0.368098,4.591791,1.355257,0.368256,0.284378,0.257411,4.097157,0.793764,1.491267,0.746891,0.452526
1649884488.124278,1649884488.143168,93.000000,0.000000,4234.358887,4238.974121,4180.000000,4157.948730,4225.641113,450.000000,4.000000,95.000000,,,,0.000000,4.000000,4.000000,4.000000,4.000000,4.000000,100.000000,,,,,,,,,,,,,,,,,,,,,,,,,,,,,,,,,,,,,,,,,,,,,,,,,,,,,,,,,,,,,,,
1649884488.132092,1649884488.150981,94.000000,0.000000,4237.436035,4242.051270,4175.897461,4160.512695,4209.743652,450.000000,4.000000,95.000000,,,,0.000000,4.000000,4.000000,4.000000,4.000000,4.000000,100.000000,,,,,,,,,,,,,,,,,,,,,,,,,,,,,,,,,,,,,,,,,,,,,,,,,,,,,,,,,,,,,,,
1649884488.139905,1649884488.158795,95.000000,0.000000,4253.333496,4240.000000,4184.615234,4168.205078,4216.410156,16147.000000,4.000000,95.000000,,,,0.000000,4.000000,4.000000,4.000000,4.000000,4.000000,100.000000,,,,,,,,,,,,,,,,,,,,,,,,,,,,,,,,,,,,,,,,,,,,,,,,,,,,,,,,,,,,,,,
1649884488.147718,1649884488.166509,96.000000,0.000000,4241.025879,4240.512695,4187.692383,4171.794922,4225.641113,450.000000,4.000000,95.000000,,,,0.000000,4.000000,4.000000,4.000000,4.000000,4.000000,100.000000,,,,,,,,,,,,,,,,,,,,,,,,,,,,,,,,,,,,,,,,,,,,,,,,,,,,,,,,,,,,,,,
1649884488.155531,1649884488.174322,97.000000,0.000000,4247.692383,4255.897461,4185.641113,4177.436035,4232.307617,450.000000,4.000000,95.000000,,,,0.000000,4.000000,4.000000,4.000000,4.000000,4.000000,100.000000,,,,,,,,,,,,,,,,,,,,,,,,,,,,,,,,,,,,,,,,,,,,,,,,,,,,,,,,,,,,,,,
1649884488.163344,1649884488.182036,98.000000,0.000000,4284.102539,4269.230957,4183.589844,4184.615234,4254.871582,450.000000,4.000000,95.000000,,,,0.000000,4.000000,4.000000,4.000000,4.000000,4.000000,100.000000,,,,,,,,,,,,,,,,,,,,,,,,,,,,,,,,,,,,,,,,,,,,,,,,,,,,,,,,,,,,,,,
1649884488.171157,1649884488.189849,99.000000,0.000000,4289.230957,4265.641113,4173.333496,4180.000000,4267.692383,16147.000000,4.000000,95.000000,,,,0.000000,4.000000,4.000000,4.000000,4.000000,4.000000,100.000000,,,,,,,,,,,,,,,,,,,,,,,,,,,,,,,,,,,,,,,,,,,,,,,,,,,,,,,,,,,,,,,
1649884488.178971,1649884488.197563,100.000000,0.000000,4272.820313,4256.922852,4158.974121,4166.666504,4247.692383,450.000000,4.000000,95.000000,,,,0.000000,4.000000,4.000000,4.000000,4.000000,4.000000,100.000000,,,,,,,,,,,,,,,,,,,,,,,,,,,,,,,,,,,,,,,,,,,,,,,,,,,,,,,,,,,,,,,
1649884488.186784,1649884488.205277,101.000000,0.000000,4274.871582,4261.538574,4161.025879,4165.641113,4238.461426,450.000000,4.000000,95.000000,,,,0.000000,4.000000,4.000000,4.000000,4.000000,4.000000,100.000000,,,,,,,,,,,,,,,,,,,,,,,,,,,,,,,,,,,,,,,,,,,,,,,,,,,,,,,,,,,,,,,
1649884488.194597,1649884488.213090,102.000000,0.000000,4283.077148,4270.256348,4172.307617,4171.794922,4257.436035,450.000000,4.000000,95.000000,,,,0.000000,4.000000,4.000000,4.000000,4.000000,4.000000,100.000000,,,,,,,,,,,,,,,,,,,,,,,,,,,,,,,,,,,,,,,,,,,,,,,,,,,,,,,,,,,,,,,
1649884488.202410,1649884488.220804,103.000000,0.000000,4286.666504,4264.615234,4172.820313,4164.615234,4258.461426,16147.000000,4.000000,95.000000,,,,0.000000,4.000000,4.000000,4.000000,4.000000,4.000000,100.000000,,,,,,,,,,,,,,,,,,,,,,,,,,,,,,,,,,,,,,,,,,,,,,,,,,,,,,,,,,,,,,,
1649884488.210223,1649884488.228618,104.000000,0.000000,4280.512695,4258.461426,4169.743652,4150.769043,4237.948730,450.000000,4.000000,95.000000,,,,0.000000,4.000000,4.000000,4.000000,4.000000,4.000000,100.000000,,,,,,,,,,,,,,,,,,,,,,,,,,,,,,,,,,,,,,,,,,,,,,,,,,,,,,,,,,,,,,,
1649884488.218037,1649884488.236332,105.000000,0.000000,4265.128418,4262.563965,4176.410156,4147.692383,4234.358887,450.000000,4.000000,95.000000,,,,0.000000,4.000000,4.000000,4.000000,4.000000,4.000000,100.000000,,,,,,,,,,,,,,,,,,,,,,,,,,,,,,,,,,,,,,,,,,,,,,,,,,,,,,,,,,,,,,,
1649884488.225850,1649884488.244145,106.000000,0.000000,4258.974121,4265.641113,4186.666504,4155.384766,4238.974121,450.000000,4.000000,95.000000,,,,0.000000,4.000000,4.000000,4.000000,4.000000,4.000000,100.000000,,,,,,,,,,,,,,,,,,,,,,,,,,,,,,,,,,,,,,,,,,,,,,,,,,,,,,,,,,,,,,,
1649884488.233663,1649884488.251859,107.000000,0.000000,4263.589844,4267.692383,4186.153809,4161.538574,4231.794922,16147.000000,4.000000,95.000000,,,,0.000000,4.000000,4.000000,4.000000,4.000000,4.000000,100.000000,,,,,,,,,,,,,,,,,,,,,,,,,,,,,,,,,,,,,,,,,,,,,,,,,,,,,,,,,,,,,,,
1649884488.241476,1649884488.259673,108.000000,0.000000,4264.615234,4271.282227,4183.589844,4167.179688,4229.743652,450.000000,4.000000,95.000000,,,,0.000000,4.000000,4.000000,4.000000,4.000000,4.000000,100.000000,,,,,,,,,,,,,,,,,,,,,,,,,,,,,,,,,,,,,,,6.151372,0.731636,0.619419,1.141809,0.663638,1.889338,0.765031,0.565253,0.526671,0.401653,4.237858,4.029213,0.790735,0.502059,0.373130,4.286708,1.225035,0.308644,0.305322,0.244879,3.634484,0.674076,1.555635,0.734736,0.393869
1649884488.249289,1649884488.267387,109.000000,0.000000,4263.589844,4269.230957,4188.717773,4173.846191,4236.410156,450.000000,4.000000,95.000000,,,,0.000000,4.000000,4.000000,4.000000,4.000000,4.000000,100.000000,,,,,,,,,,,,,,,,,,,,,,,,,,,,,,,,,,,,,,,,,,,,,,,,,,,,,,,,,,,,,,,
1649884488.257102,1649884488.275200,110.000000,0.000000,4264.102539,4262.051270,4186.153809,4173.333496,4233.333496,450.000000,4.000000,95.000000,,,,0.000000,4.000000,4.000000,4.000000,4.000000,4.000000,100.000000,,,,,,,,,,,,,,,,,,,,,,,,,,,,,,,,,,,,,,,,,,,,,,,,,,,,,,,,,,,,,,,
1649884488.264915,1649884488.282914,111.000000,0.000000,4263.589844,4264.615234,4177.948730,4168.205078,4224.615234,16147.000000,4.000000,95.000000,,,,0.000000,4.000000,4.000000,4.000000,4.000000,4.000000,100.000000,,,,,,,,,,,,,,,,,,,,,,,,,,,,,,,,,,,,,,,,,,,,,,,,,,,,,,,,,,,,,,,
1649884488.272729,1649884488.290728,112.000000,0.000000,4259.487305,4269.230957,4183.077148,4170.256348,4228.205078,450.000000,4.000000,95.000000,,,,0.000000,4.000000,4.000000,4.000000,4.000000,4.000000,100.000000,,,,,,,,,,,,,,,,,,,,,,,,,,,,,,,,,,,,,,,,,,,,,,,,,,,,,,,,,,,,,,,
1649884488.280542,1649884488.298441,113.000000,0.000000,4254.358887,4263.077148,4187.692383,4175.384766,4238.461426,450.000000,4.000000,95.000000,,,,0.000000,4.000000,4.000000,4.000000,4.000000,4.000000,100.000000,,,,,,,,,,,,,,,,,,,,,,,,,,,,,,,,,,,,,,,,,,,,,,,,,,,,,,,,,,,,,,,
1649884488.288355,1649884488.306255,114.000000,0.000000,4252.307617,4256.410156,4182.051270,4170.256348,4237.436035,450.000000,4.000000,95.000000,,,,0.000000,4.000000,4.000000,4.000000,4.000000,4.000000,100.000000,,,,,,,,,,,,,,,,,,,,,,,,,,,,,,,,,,,,,,,,,,,,,,,,,,,,,,,,,,,,,,,
1649884488.296168,1649884488.314068,115.000000,0.000000,4254.358887,4262.563965,4184.615234,4164.615234,4230.256348,16147.000000,4.000000,95.000000,,,,0.000000,4.000000,4.000000,4.000000,4.000000,4.000000,100.000000,,,,,,,,,,,,,,,,,,,,,,,,,,,,,,,,,,,,,,,,,,,,,,,,,,,,,,,,,,,,,,,
1649884488.303981,1649884488.321782,116.000000,0.000000,4256.410156,4271.794922,4190.256348,4169.743652,4225.641113,450.000000,4.000000,95.000000,,,,0.000000,4.000000,4.000000,4.000000,4.000000,4.000000,100.000000,,,,,,,,,,,,,,,,,,,,,,,,,,,,,,,,,,,,,,,,,,,,,,,,,,,,,,,,,,,,,,,
1649884488.311794,1649884488.329495,117.000000,0.000000,4259.487305,4269.230957,4178.974121,4171.794922,4223.077148,450.000000,4.000000,95.000000,,,,0.000000,4.000000,4.000000,4.000000,4.000000,4.000000,100.000000,,,,,,,,,,,,,,,,,,,,,,,,,,,,,,,,,,,,,,,,,,,,,,,,,,,,,,,,,,,,,,,
1649884488.319608,1649884488.337309,118.000000,0.000000,4259.487305,4265.641113,4170.769043,4170.769043,4223.077148,450.000000,4.000000,95.000000,,,,0.000000,4.000000,4.000000,4.000000,4.000000,4.000000,100.000000,,,,,,,,,,,,,,,,,,,,,,,,,,,,,,,,,,,,,,,,,,,,,,,,,,,,,,,,,,,,,,,
1649884488.327421,1649884488.345022,119.000000,0.000000,4255.897461,4264.615234,4172.307617,4177.436035,4224.102539,16147.000000,4.000000,95.000000,,,,0.000000,4.000000,4.000000,4.000000,4.000000,4.000000,100.000000,,,,,,,,,,,,,,,,,,,,,,,,,,,,,,,,,,,,,,,,,,,,,,,,,,,,,,,,,,,,,,,
1649884488.335234,1649884488.352836,120.000000,0.000000,4258.461426,4260.000000,4167.692383,4182.051270,4227.692383,450.000000,4.000000,95.000000,,,,0.000000,4.000000,4.000000,4.000000,4.000000,4.000000,100.000000,,,,,,,,,,,,,,,,,,,,,,,,,,,,,,,,,,,,,,,,,,,,,,,,,,,,,,,,,,,,,,,
1649884488.343047,1649884488.360549,121.000000,0.000000,4270.256348,4255.897461,4169.743652,4182.051270,4228.205078,450.000000,4.000000,95.000000,,,,0.000000,4.000000,4.000000,4.000000,4.000000,4.000000,100.000000,,,,,,,,,,,,,,,,,,,,,,,,,,,,,,,,,,,,,,,,,,,,,,,,,,,,,,,,,,,,,,,
1649884488.350860,1649884488.368363,122.000000,0.000000,4278.461426,4261.538574,4179.487305,4184.102539,4229.230957,450.000000,4.000000,95.000000,,,,0.000000,4.000000,4.000000,4.000000,4.000000,4.000000,100.000000,,,,,,,,,,,,,,,,,,,,,,,,,,,,,,,,,,,,,,,,,,,,,,,,,,,,,,,,,,,,,,,
1649884488.358673,1649884488.376076,123.000000,0.000000,4270.769043,4264.615234,4173.846191,4178.461426,4236.922852,16147.000000,4.000000,95.000000,,,,0.000000,4.000000,4.000000,4.000000,4.000000,4.000000,100.000000,,,,,,,,,,,,,,,,,,,,,,,,,,,,,,,,,,,,,,,,,,,,,,,,,,,,,,,,,,,,,,,
1649884488.366486,1649884488.383990,124.000000,0.000000,4253.846191,4261.538574,4161.538574,4164.102539,4232.307617,450.000000,4.000000,95.000000,,,,0.000000,4.000000,4.000000,4.000000,4.000000,4.000000,100.000000,,,,,,,,,,,,,,,,,,,,,,,,,,,,,,,,,,,,,,,5.154231,0.736019,0.583959,1.066182,0.606379,1.604157,0.797973,0.600075,0.525687,0.398430,3.977297,4.086703,0.970133,0.514212,0.365018,3.686698,1.097719,0.295386,0.340640,0.235014,3.030424,0.698177,1.520260,0.742702,0.379864
1649884488.374300,1649884488.391804,125.000000,0.000000,4241.538574,4261.538574,4160.512695,4156.922852,4213.846191,450.000000,4.000000,95.000000,,,,0.000000,4.000000,4.000000,4.000000,4.000000,4.000000,100.000000,,,,,,,,,,,,,,,,,,,,,,,,,,,,,,,,,,,,,,,,,,,,,,,,,,,,,,,,,,,,,,,
1649884488.382113,1649884488.399517,126.000000,0.000000,4246.666504,4263.589844,4162.051270,4154.358887,4210.256348,450.000000,4.000000,95.000000,,,,0.000000,4.000000,4.000000,4.000000,4.000000,4.000000,100.000000,,,,,,,,,,,,,,,,,,,,,,,,,,,,,,,,,,,,,,,,,,,,,,,,,,,,,,,,,,,,,,,
1649884488.389926,1649884488.407331,127.000000,0.000000,4266.666504,4264.615234,4164.615234,4153.846191,4224.615234,243.000000,4.000000,95.000000,,,,0.000000,4.000000,4.000000,4.000000,4.000000,4.000000,100.000000,,,,,,,,,,,,,,,,,,,,,,,,,,,,,,,,,,,,,,,,,,,,,,,,,,,,,,,,,,,,,,,
1649884488.397739,1649884488.415145,0.000000,0.000000,4273.333496,4268.717773,4170.256348,4155.384766,4227.179688,450.000000,4.000000,95.000000,,,,0.000000,4.000000,4.000000,4.000000,4.000000,4.000000,100.000000,,,,,,,,,,,,,,,,,,,,,,,,,,,,,,,,,,,,,,,,,,,,,,,,,,,,,,,,,,,,,,,
1649884488.405552,1649884488.422858,1.000000,0.000000,4258.461426,4268.717773,4169.743652,4151.794922,4222.563965,450.000000,4.000000,95.000000,,,,0.000000,4.000000,4.000000,4.000000,4.000000,4.000000,100.000000,,,,,,,,,,,,,,,,,,,,,,,,,,,,,,,,,,,,,,,,,,,,,,,,,,,,,,,,,,,,,,,
1649884488.413365,1649884488.430672,2.000000,0.000000,4250.769043,4258.461426,4166.666504,4152.820313,4227.692383,16142.000000,4.000000,95.000000,,,,0.000000,4.000000,4.000000,4.000000,4.000000,4.000000,100.000000,,,,,,,,,,,,,,,,,,,,,,,,,,,,,,,,,,,,,,,,,,,,,,,,,,,,,,,,,,,,,,,
1649884488.421179,1649884488.438385,3.000000,0.000000,4260.512695,4249.230957,4168.205078,4163.077148,4223.589844,450.000000,4.000000,95.000000,,,,0.000000,4.000000,4.000000,4.000000,4.000000,4.000000,100.000000,,,,,,,,,,,,,,,,,,,,,,,,,,,,,,,,,,,,,,,,,,,,,,,,,,,,,,,,,,,,,,,
1649884488.428992,1649884488.446199,4.000000,0.000000,4262.563965,4252.307617,4169.230957,4170.769043,4214.358887,16097.000000,4.000000,95.000000,,,,0.000000,4.000000,4.000000,4.000000,4.000000,4.000000,100.000000,,,,,,,,,,,,,,,,,,,,,,,,,,,,,,,,,,,,,,,,,,,,,,,,,,,,,,,,,,,,,,,
1649884488.436805,1649884488.453912,5.000000,0.000000,4260.000000,4264.102539,4172.307617,4178.974121,4221.025879,450.000000,4.000000,95.000000,,,,0.000000,4.000000,4.000000,4.000000,4.000000,4.000000,100.000000,,,,,,,,,,,,,,,,,,,,,,,,,,,,,,,,,,,,,,,,,,,,,,,,,,,,,,,,,,,,,,,
1649884488.444618,1649884488.461626,6.000000,0.000000,4262.563965,4267.179688,4180.000000,4189.230957,4233.846191,16078.000000,4.000000,95.000000,,,,0.000000,4.000000,4.000000,4.000000,4.000000,4.000000,100.000000,,,,,,,,,,,,,,,,,,,,,,,,,,,,,,,,,,,,,,,,,,,,,,,,,,,,,,,,,,,,,,,
1649884488.452431,1649884488.469440,7.000000,0.000000,4260.512695,4256.410156,4178.974121,4181.538574,4231.282227,450.000000,4.000000,95.000000,,,,0.000000,4.000000,4.000000,4.000000,4.000000,4.000000,100.000000,,,,,,,,,,,,,,,,,,,,,,,,,,,,,,,,,,,,,,,,,,,,,,,,,,,,,,,,,,,,,,,
1649884488.460245,1649884488.477154,8.000000,0.000000,4261.025879,4259.487305,4175.897461,4175.384766,4227.179688,450.000000,4.000000,95.000000,,,,0.000000,4.000000,4.000000,4.000000,4.000000,4.000000,100.000000,,,,,,,,,,,,,,,,,,,,,,,,,,,,,,,,,,,,,,,,,,,,,,,,,,,,,,,,,,,,,,,
1649884488.468058,1649884488.484967,9.000000,0.000000,4265.128418,4274.358887,4178.461426,4188.205078,4233.846191,16084.000000,4.000000,95.000000,,,,0.000000,4.000000,4.000000,4.000000,4.000000,4.000000,100.000000,,,,,,,,,,,,,,,,,,,,,,,,,,,,,,,,,,,,,,,,,,,,,,,,,,,,,,,,,,,,,,,
1649884488.475871,1649884488.492681,10.000000,0.000000,4255.897461,4271.282227,4174.871582,4188.717773,4238.974121,450.000000,4.000000,95.000000,,,,0.000000,4.000000,4.000000,4.000000,4.000000,4.000000,100.000000,,,,,,,,,,,,,,,,,,,,,,,,,,,,,,,,,,,,,,,,,,,,,,,,,,,,,,,,,,,,,,,
1649884488.483684,1649884488.500495,11.000000,0.000000,4249.230957,4264.102539,4172.820313,4174.871582,4228.205078,16285.000000,4.000000,95.000000,,,,0.000000,4.000000,4.000000,4.000000,4.000000,4.000000,100.000000,,,,,,,,,,,,,,,,,,,,,,,,,,,,,,,,,,,,,,,,,,,,,,,,,,,,,,,,,,,,,,,
1649884488.491497,1649884488.508208,12.000000,0.000000,4266.666504,4269.743652,4172.307617,4172.820313,4217.436035,450.000000,4.000000,95.000000,,,,0.000000,4.000000,4.000000,4.000000,4.000000,4.000000,100.000000,0.968750,100.000000,4.000000,4.000000,4.000000,4.000000,4.000000,,,,,,,,,,,,,,,,,,,,,,,,,,,,,,,,4.165620,0.805208,0.600269,1.028667,0.588061,1.383313,0.802788,0.654072,0.526475,0.400375,3.627082,4.062284,1.261654,0.538093,0.350993,3.052601,1.008575,0.302696,0.393123,0.230937,2.613714,0.801487,1.421555,0.782562,0.414586
1649884488.499310,1649884488.516022,13.000000,0.000000,4279.487305,4265.128418,4164.615234,4176.922852,4225.641113,450.000000,4.000000,95.000000,,,,0.000000,4.000000,4.000000,4.000000,4.000000,4.000000,100.000000,,,,,,,,,,,,,,,,,,,,,,,,,,,,,,,,,,,,,,,,,,,,,,,,,,,,,,,,,,,,,,,
1649884488.507123,1649884488.523735,14.000000,0.000000,4262.051270,4251.282227,4163.589844,4177.436035,4237.436035,450.000000,4.000000,95.000000,,,,0.000000,4.000000,4.000000,4.000000,4.000000,4.000000,100.000000,,,,,,,,,,,,,,,,,,,,,,,,,,,,,,,,,,,,,,,,,,,,,,,,,,,,,,,,,,,,,,,
1649884488.514937,1649884488.531549,15.000000,0.000000,4255.897461,4254.358887,4171.282227,4182.051270,4238.461426,16285.000000,4.000000,95.000000,,,,0.000000,4.000000,4.000000,4.000000,4.000000,4.000000,100.000000,,,,,,,,,,,,,,,,,,,,,,,,,,,,,,,,,,,,,,,,,,,,,,,,,,,,,,,,,,,,,,,
1649884488.522750,1649884488.539262,16.000000,0.000000,4272.820313,4259.487305,4165.128418,4181.538574,4233.846191,0.000000,4.000000,95.000000,,,,0.000000,4.000000,4.000000,4.000000,4.000000,4.000000,100.000000,,,,,,,,,,,,,,,,,,,,,,,,,,,,,,,,,,,,,,,,,,,,,,,,,,,,,,,,,,,,,,,
1649884488.530563,1649884488.547176,17.000000,0.000000,4267.692383,4255.384766,4153.333496,4171.282227,4224.102539,0.000000,4.000000,95.000000,,,,0.000000,4.000000,4.000000,4.000000,4.000000,4.000000,100.000000,,,,,,,,,,,,,,,,,,,,,,,,,,,,,,,,,,,,,,,,,,,,,,,,,,,,,,,,,,,,,,,
1649884488.538376,1649884488.554990,18.000000,0.000000,4248.205078,4251.282227,4151.282227,4164.615234,4212.307617,0.000000,4.000000,95.000000,,,,0.000000,4.000000,4.000000,4.000000,4.000000,4.000000,100.000000,,,,,,,,,,,,,,,,,,,,,,,,,,,,,,,,,,,,,,,,,,,,,,,,,,,,,,,,,,,,,,,
1649884488.546189,1649884488.562803,19.000000,0.000000,4241.025879,4249.230957,4152.820313,4160.000000,4203.589844,0.000000,4.000000,95.000000,,,,0.000000,4.000000,4.000000,4.000000,4.000000,4.000000,100.000000,,,,,,,,,,,,,,,,,,,,,,,,,,,,,,,,,,,,,,,,,,,,,,,,,,,,,,,,,,,,,,,
1649884488.554002,1649884488.570517,20.000000,0.000000,4235.384766,4248.205078,4154.871582,4153.333496,4191.794922,0.000000,4.000000,95.000000,,,,0.000000,4.000000,4.000000,4.000000,4.000000,4.000000,100.000000,,,,,,,,,,,,,,,,,,,,,,,,,,,,,,,,,,,,,,,,,,,,,,,,,,,,,,,,,,,,,,,
1649884488.561816,1649884488.578330,21.000000,0.000000,4245.128418,4257.436035,4160.000000,4158.461426,4193.846191,0.000000,4.000000,95.000000,,,,0.000000,4.000000,4.000000,4.000000,4.000000,4.000000,100.000000,,,,,,,,,,,,,,,,,,,,,,,,,,,,,,,,,,,,,,,,,,,,,,,,,,,,,,,,,,,,,,,
1649884488.569629,1649884488.586044,22.000000,0.000000,4275.897461,4266.153809,4165.641113,4171.282227,4226.153809,0.000000,4.000000,95.000000,,,,0.000000,4.000000,4.000000,4.000000,4.000000,4.000000,100.000000,,,,,,,,,,,,,,,,,,,,,,,,,,,,,,,,,,,,,,,,,,,,,,,,,,,,,,,,,,,,,,,
1649884488.577442,1649884488.593957,23.000000,0.000000,4291.794922,4261.025879,4168.717773,4171.282227,4253.333496,0.000000,4.000000,95.000000,,,,0.000000,4.000000,4.000000,4.000000,4.000000,4.000000,100.000000,,,,,,,,,,,,,,,,,,,,,,,,,,,,,,,,,,,,,,,,,,,,,,,,,,,,,,,,,,,,,,,
1649884488.585255,1649884488.601771,24.000000,0.000000,4282.563965,4256.410156,4163.077148,4160.000000,4242.051270,0.000000,4.000000,95.000000,,,,0.000000,4.000000,4.000000,4.000000,4.000000,4.000000,100.000000,,,,,,,,,,,,,,,,,,,,,,,,,,,,,,,,,,,,,,,,,,,,,,,,,,,,,,,,,,,,,,,
1649884488.593068,1649884488.609485,25.000000,0.000000,4271.794922,4257.948730,4161.538574,4160.000000,4229.743652,0.000000,4.000000,95.000000,,,,0.000000,4.000000,4.000000,4.000000,4.000000,4.000000,100.000000,,,,,,,,,,,,,,,,,,,,,,,,,,,,,,,,,,,,,,,,,,,,,,,,,,,,,,,,,,,,,,,
1649884488.600881,1649884488.617299,26.000000,0.000000,4271.794922,4261.538574,4174.358887,4177.948730,4242.563965,0.000000,4.000000,95.000000,,,,0.000000,4.000000,4.000000,4.000000,4.000000,4.000000,100.000000,,,,,,,,,,,,,,,,,,,,,,,,,,,,,,,,,,,,,,,,,,,,,,,,,,,,,,,,,,,,,,,
1649884488.608694,1649884488.625112,27.000000,0.000000,4276.410156,4266.666504,4177.948730,4186.153809,4242.563965,0.000000,4.000000,95.000000,,,,0.000000,4.000000,4.000000,4.000000,4.000000,4.000000,100.000000,,,,,,,,,,,,,,,,,,,,,,,,,,,,,,,,,,,,,,,,,,,,,,,,,,,,,,,,,,,,,,,
1649884488.616508,1649884488.632826,28.000000,0.000000,4275.897461,4262.563965,4168.205078,4176.922852,4225.641113,0.000000,4.000000,95.000000,,,,0.000000,4.000000,4.000000,4.000000,4.000000,4.000000,100.000000,,,,,,,,,,,,,,,,,,,,,,,,,,,,,,,,,,,,,,,3.599350,0.966464,0.714751,1.035603,0.614251,1.273255,0.770289,0.722308,0.535095,0.418879,3.348542,3.927326,1.612488,0.563364,0.339289,2.622035,0.989200,0.314010,0.461426,0.233052,2.607476,1.007182,1.328904,0.860412,0.481478
1649884488.624321,1649884488.640639,29.000000,0.000000,4261.025879,4256.410156,4166.153809,4174.871582,4223.589844,0.000000,4.000000,95.000000,,,,0.000000,4.000000,4.000000,4.000000,4.000000,4.000000,100.000000,,,,,,,,,,,,,,,,,,,,,,,,,,,,,,,,,,,,,,,,,,,,,,,,,,,,,,,,,,,,,,,
1649884488.632134,1649884488.648353,30.000000,0.000000,4248.717773,4262.051270,4168.717773,4181.538574,4223.077148,0.000000,4.000000,95.000000,,,,0.000000,4.000000,4.000000,4.000000,4.000000,4.000000,100.000000,,,,,,,,,,,,,,,,,,,,,,,,,,,,,,,,,,,,,,,,,,,,,,,,,,,,,,,,,,,,,,,
1649884488.639947,1649884488.656067,31.000000,0.000000,4252.820313,4262.051270,4165.641113,4177.948730,4211.282227,0.000000,4.000000,95.000000,,,,0.000000,4.000000,4.000000,4.000000,4.000000,4.000000,100.000000,,,,,,,,,,,,,,,,,,,,,,,,,,,,,,,,,,,,,,,,,,,,,,,,,,,,,,,,,,,,,,,
1649884488.647760,1649884488.663880,32.000000,0.000000,4265.128418,4255.384766,4160.512695,4175.897461,4212.307617,0.000000,4.000000,95.000000,,,,0.000000,4.000000,4.000000,4.000000,4.000000,4.000000,100.000000,,,,,,,,,,,,,,,,,,,,,,,,,,,,,,,,,,,,,,,,,,,,,,,,,,,,,,,,,,,,,,,
1649884488.655573,1649884488.671594,33.000000,0.000000,4267.692383,4263.589844,4157.436035,4181.538574,4218.461426,0.000000,4.000000,95.000000,,,,0.000000,4.000000,4.000000,4.000000,4.000000,4.000000,100.000000,,,,,,,,,,,,,,,,,,,,,,,,,,,,,,,,,,,,,,,,,,,,,,,,,,,,,,,,,,,,,,,
1649884488.663387,1649884488.679407,34.000000,0.000000,4248.717773,4265.641113,4156.922852,4176.922852,4208.205078,0.000000,4.000000,95.000000,,,,0.000000,4.000000,4.000000,4.000000,4.000000,4.000000,100.000000,,,,,,,,,,,,,,,,,,,,,,,,,,,,,,,,,,,,,,,,,,,,,,,,,,,,,,,,,,,,,,,
1649884488.671200,1649884488.687121,35.000000,0.000000,4241.538574,4254.358887,4159.487305,4171.282227,4204.102539,0.000000,4.000000,95.000000,,,,0.000000,4.000000,4.000000,4.000000,4.000000,4.000000,100.000000,,,,,,,,,,,,,,,,,,,,,,,,,,,,,,,,,,,,,,,,,,,,,,,,,,,,,,,,,,,,,,,
1649884488.679013,1649884488.694934,36.000000,0.000000,4260.512695,4259.487305,4165.641113,4181.025879,4215.384766,0.000000,4.000000,95.000000,,,,0.000000,4.000000,4.000000,4.000000,4.000000,4.000000,100.000000,,,,,,,,,,,,,,,,,,,,,,,,,,,,,,,,,,,,,,,,,,,,,,,,,,,,,,,,,,,,,,,
1649884488.686826,1649884488.702648,37.000000,0.000000,4280.000000,4278.461426,4173.846191,4193.333496,4227.179688,0.000000,4.000000,95.000000,,,,0.000000,4.000000,4.000000,4.000000,4.000000,4.000000,100.000000,,,,,,,,,,,,,,,,,,,,,,,,,,,,,,,,,,,,,,,,,,,,,,,,,,,,,,,,,,,,,,,
1649884488.694639,1649884488.710461,38.000000,0.000000,4280.000000,4281.538574,4176.922852,4192.307617,4229.743652,0.000000,4.000000,95.000000,,,,0.000000,4.000000,4.000000,4.000000,4.000000,4.000000,100.000000,,,,,,,,,,,,,,,,,,,,,,,,,,,,,,,,,,,,,,,,,,,,,,,,,,,,,,,,,,,,,,,
1649884488.702453,1649884488.718175,39.000000,0.000000,4268.717773,4266.666504,4166.153809,4178.974121,4229.743652,0.000000,4.000000,95.000000,,,,0.000000,4.000000,4.000000,4.000000,4.000000,4.000000,100.000000,,,,,,,,,,,,,,,,,,,,,,,,,,,,,,,,,,,,,,,,,,,,,,,,,,,,,,,,,,,,,,,
1649884488.710266,1649884488.725988,40.000000,0.000000,4269.230957,4253.846191,4156.410156,4169.743652,4230.769043,0.000000,4.000000,95.000000,,,,0.000000,4.000000,4.000000,4.000000,4.000000,4.000000,100.000000,,,,,,,,,,,,,,,,,,,,,,,,,,,,,,,,,,,,,,,,,,,,,,,,,,,,,,,,,,,,,,,
1649884488.718079,1649884488.733702,41.000000,0.000000,4268.205078,4256.922852,4161.538574,4171.282227,4219.487305,0.000000,4.000000,95.000000,,,,0.000000,4.000000,4.000000,4.000000,4.000000,4.000000,100.000000,,,,,,,,,,,,,,,,,,,,,,,,,,,,,,,,,,,,,,,,,,,,,,,,,,,,,,,,,,,,,,,
1649884488.725892,1649884488.741616,42.000000,0.000000,4255.384766,4262.563965,4165.641113,4172.307617,4205.128418,0.000000,4.000000,95.000000,,,,0.000000,4.000000,4.000000,4.000000,4.000000,4.000000,100.000000,,,,,,,,,,,,,,,,,,,,,,,,,,,,,,,,,,,,,,,,,,,,,,,,,,,,,,,,,,,,,,,
1649884488.733705,1649884488.749429,43.000000,0.000000,4250.769043,4251.282227,4160.512695,4167.179688,4208.205078,0.000000,4.000000,95.000000,,,,0.000000,4.000000,4.000000,4.000000,4.000000,4.000000,100.000000,,,,,,,,,,,,,,,,,,,,,,,,,,,,,,,,,,,,,,,,,,,,,,,,,,,,,,,,,,,,,,,
1649884488.741518,1649884488.757343,44.000000,0.000000,4264.102539,4243.077148,4161.025879,4165.641113,4218.974121,0.000000,4.000000,95.000000,,,,0.000000,4.000000,4.000000,4.000000,4.000000,4.000000,100.000000,,,,,,,,,,,,,,,,,,,,,,,,,,,,,,,,,,,,,,,3.570246,1.216471,0.934347,1.068779,0.673005,1.247758,0.699492,0.790236,0.548695,0.451699,3.206106,3.638632,1.916817,0.579069,0.333354,2.526462,1.075321,0.319385,0.533627,0.238676,2.983729,1.299118,1.286247,0.971531,0.552588
1649884488.749331,1649884488.765157,45.000000,0.000000,4270.769043,4249.743652,4166.153809,4164.615234,4220.000000,0.000000,4.000000,95.000000,,,,0.000000,4.000000,4.000000,4.000000,4.000000,4.000000,100.000000,,,,,,,,,,,,,,,,,,,,,,,,,,,,,,,,,,,,,,,,,,,,,,,,,,,,,,,,,,,,,,,
1649884488.757145,1649884488.773070,46.000000,0.000000,4262.051270,4250.769043,4157.436035,4160.000000,4218.461426,0.000000,4.000000,95.000000,,,,0.000000,4.000000,4.000000,4.000000,4.000000,4.000000,100.000000,,,,,,,,,,,,,,,,,,,,,,,,,,,,,,,,,,,,,,,,,,,,,,,,,,,,,,,,,,,,,,,
1649884488.764958,1649884488.780984,47.000000,0.000000,4252.820313,4246.153809,4146.666504,4169.230957,4217.948730,0.000000,4.000000,95.000000,,,,0.000000,4.000000,4.000000,4.000000,4.000000,4.000000,100.000000,,,,,,,,,,,,,,,,,,,,,,,,,,,,,,,,,,,,,,,,,,,,,,,,,,,,,,,,,,,,,,,
1649884488.772771,1649884488.788799,48.000000,0.000000,4257.436035,4248.205078,4146.666504,4185.128418,4220.000000,0.000000,4.000000,95.000000,,,,0.000000,4.000000,4.000000,4.000000,4.000000,4.000000,100.000000,,,,,,,,,,,,,,,,,,,,,,,,,,,,,,,,,,,,,,,,,,,,,,,,,,,,,,,,,,,,,,,
1649884488.780584,1649884488.796613,49.000000,0.000000,4276.410156,4251.282227,4151.794922,4186.153809,4235.384766,0.000000,4.000000,95.000000,,,,0.000000,4.000000,4.000000,4.000000,4.000000,4.000000,100.000000,,,,,,,,,,,,,,,,,,,,,,,,,,,,,,,,,,,,,,,,,,,,,,,,,,,,,,,,,,,,,,,
1649884488.788397,1649884488.804428,50.000000,0.000000,4284.102539,4248.717773,4156.922852,4180.000000,4237.436035,0.000000,4.000000,95.000000,,,,0.000000,4.000000,4.000000,4.000000,4.000000,4.000000,100.000000,,,,,,,,,,,,,,,,,,,,,,,,,,,,,,,,,,,,,,,,,,,,,,,,,,,,,,,,,,,,,,,
1649884488.796210,1649884488.812342,51.000000,0.000000,4271.794922,4249.230957,4157.948730,4178.461426,4217.948730,0.000000,4.000000,95.000000,,,,0.000000,4.000000,4.000000,4.000000,4.000000,4.000000,100.000000,,,,,,,,,,,,,,,,,,,,,,,,,,,,,,,,,,,,,,,,,,,,,,,,,,,,,,,,,,,,,,,
1649884488.804024,1649884488.820155,52.000000,0.000000,4260.512695,4254.871582,4159.487305,4176.922852,4212.307617,0.000000,4.000000,95.000000,,,,0.000000,4.000000,4.000000,4.000000,4.000000,4.000000,100.000000,,,,,,,,,,,,,,,,,,,,,,,,,,,,,,,,,,,,,,,,,,,,,,,,,,,,,,,,,,,,,,,
1649884488.811837,1649884488.828069,53.000000,0.000000,4259.487305,4262.563965,4169.230957,4172.820313,4224.615234,0.000000,4.000000,95.000000,,,,0.000000,4.000000,4.000000,4.000000,4.000000,4.000000,100.000000,,,,,,,,,,,,,,,,,,,,,,,,,,,,,,,,,,,,,,,,,,,,,,,,,,,,,,,,,,,,,,,
1649884488.819650,1649884488.835883,54.000000,0.000000,4263.077148,4261.538574,4169.230957,4169.743652,4231.282227,0.000000,4.000000,95.000000,,,,0.000000,4.000000,4.000000,4.000000,4.000000,4.000000,100.000000,,,,,,,,,,,,,,,,,,,,,,,,,,,,,,,,,,,,,,,,,,,,,,,,,,,,,,,,,,,,,,,
1649884488.827463,1649884488.843797,55.000000,0.000000,4269.743652,4246.666504,4154.871582,4163.077148,4227.179688,0.000000,4.000000,95.000000,,,,0.000000,4.000000,4.000000,4.000000,4.000000,4.000000,100.000000,,,,,,,,,,,,,,,,,,,,,,,,,,,,,,,,,,,,,,,,,,,,,,,,,,,,,,,,,,,,,,,
1649884488.835276,1649884488.851611,56.000000,0.000000,4269.230957,4234.871582,4144.102539,4152.820313,4214.358887,0.000000,4.000000,95.000000,,,,0.000000,4.000000,4.000000,4.000000,4.000000,4.000000,100.000000,,,,,,,,,,,,,,,,,,,,,,,,,,,,,,,,,,,,,,,,,,,,,,,,,,,,,,,,,,,,,,,
1649884488.843089,1649884488.859525,57.000000,0.000000,4249.230957,4233.846191,4143.077148,4143.077148,4194.871582,0.000000,4.000000,95.000000,,,,0.000000,4.000000,4.000000,4.000000,4.000000,4.000000,100.000000,,,,,,,,,,,,,,,,,,,,,,,,,,,,,,,,,,,,,,,,,,,,,,,,,,,,,,,,,,,,,,,
1649884488.850902,1649884488.867339,58.000000,0.000000,4241.538574,4239.487305,4147.179688,4142.563965,4197.436035,0.000000,4.000000,95.000000,,,,0.000000,4.000000,4.000000,4.000000,4.000000,4.000000,100.000000,,,,,,,,,,,,,,,,,,,,,,,,,,,,,,,,,,,,,,,,,,,,,,,,,,,,,,,,,,,,,,,
1649884488.858716,1649884488.875252,59.000000,0.000000,4268.205078,4246.153809,4158.974121,4154.358887,4228.205078,0.000000,4.000000,95.000000,,,,0.000000,4.000000,4.000000,4.000000,4.000000,4.000000,100.000000,,,,,,,,,,,,,,,,,,,,,,,,,,,,,,,,,,,,,,,,,,,,,,,,,,,,,,,,,,,,,,,
1649884488.866529,1649884488.883166,60.000000,0.000000,4287.179688,4244.615234,4163.589844,4160.000000,4242.563965,0.000000,4.000000,95.000000,,,,0.000000,4.000000,4.000000,4.000000,4.000000,4.000000,100.000000,,,,,,,,,,,,,,,,,,,,,,,,,,,,,,,,,,,,,,,3.891596,1.527230,1.211422,1.105497,0.742647,1.255741,0.607521,0.832944,0.557761,0.483464,3.159855,3.186196,2.063009,0.578678,0.329758,2.723723,1.260944,0.320683,0.594209,0.243884,3.501315,1.650716,1.295967,1.098115,0.603815
1649884488.874342,1649884488.890980,61.000000,0.000000,4269.743652,4233.333496,4152.307617,4157.948730,4229.743652,0.000000,4.000000,95.000000,,,,0.000000,4.000000,4.000000,4.000000,4.000000,4.000000,100.000000,,,,,,,,,,,,,,,,,,,,,,,,,,,,,,,,,,,,,,,,,,,,,,,,,,,,,,,,,,,,,,,
1649884488.882155,1649884488.898794,62.000000,0.000000,4258.974121,4236.410156,4153.333496,4165.641113,4223.077148,0.000000,4.000000,95.000000,,,,0.000000,4.000000,4.000000,4.000000,4.000000,4.000000,100.000000,,,,,,,,,,,,,,,,,,,,,,,,,,,,,,,,,,,,,,,,,,,,,,,,,,,,,,,,,,,,,,,
1649884488.889968,1649884488.906708,63.000000,0.000000,4270.769043,4252.307617,4167.179688,4182.563965,4226.153809,0.000000,4.000000,95.000000,,,,0.000000,4.000000,4.000000,4.000000,4.000000,4.000000,100.000000,,,,,,,,,,,,,,,,,,,,,,,,,,,,,,,,,,,,,,,,,,,,,,,,,,,,,,,,,,,,,,,
1649884488.897781,1649884488.914521,64.000000,0.000000,4266.666504,4249.230957,4163.589844,4190.769043,4223.589844,450.000000,4.000000,95.000000,,,,0.000000,4.000000,4.000000,4.000000,4.000000,4.000000,100.000000,,,,,,,,,,,,,,,,,,,,,,,,,,,,,,,,,,,,,,,,,,,,,,,,,,,,,,,,,,,,,,,
1649884488.905595,1649884488.922435,65.000000,0.000000,4264.615234,4244.102539,4148.205078,4186.666504,4229.230957,450.000000,4.000000,95.000000,,,,0.000000,4.000000,4.000000,4.000000,4.000000,4.000000,100.000000,,,,,,,,,,,,,,,,,,,,,,,,,,,,,,,,,,,,,,,,,,,,,,,,,,,,,,,,,,,,,,,
1649884488.913408,1649884488.930249,66.000000,0.000000,4276.410156,4249.230957,4141.025879,4181.025879,4237.436035,16231.000000,4.000000,95.000000,,,,0.000000,4.000000,4.000000,4.000000,4.000000,4.000000,100.000000,,,,,,,,,,,,,,,,,,,,,,,,,,,,,,,,,,,,,,,,,,,,,,,,,,,,,,,,,,,,,,,
1649884488.921221,1649884488.938162,67.000000,0.000000,4271.282227,4248.205078,4145.128418,4180.000000,4229.230957,450.000000,4.000000,95.000000,,,,0.000000,4.000000,4.000000,4.000000,4.000000,4.000000,100.000000,,,,,,,,,,,,,,,,,,,,,,,,,,,,,,,,,,,,,,,,,,,,,,,,,,,,,,,,,,,,,,,
1649884488.929034,1649884488.946076,68.000000,0.000000,4258.461426,4246.153809,4150.256348,4183.077148,4226.153809,16254.000000,4.000000,95.000000,,,,0.000000,4.000000,4.000000,4.000000,4.000000,4.000000,100.000000,,,,,,,,,,,,,,,,,,,,,,,,,,,,,,,,,,,,,,,,,,,,,,,,,,,,,,,,,,,,,,,
1649884488.936847,1649884488.953990,69.000000,0.000000,4259.487305,4244.615234,4146.153809,4178.974121,4226.153809,450.000000,4.000000,95.000000,,,,0.000000,4.000000,4.000000,4.000000,4.000000,4.000000,100.000000,,,,,,,,,,,,,,,,,,,,,,,,,,,,,,,,,,,,,,,,,,,,,,,,,,,,,,,,,,,,,,,
1649884488.944661,1649884488.961804,70.000000,0.000000,4268.717773,4238.974121,4140.512695,4169.230957,4225.128418,16209.000000,4.000000,95.000000,,,,0.000000,4.000000,4.000000,4.000000,4.000000,4.000000,100.000000,,,,,,,,,,,,,,,,,,,,,,,,,,,,,,,,,,,,,,,,,,,,,,,,,,,,,,,,,,,,,,,
1649884488.952474,1649884488.969718,71.000000,0.000000,4270.256348,4237.436035,4143.589844,4166.153809,4235.897461,450.000000,4.000000,95.000000,,,,0.000000,4.000000,4.000000,4.000000,4.000000,4.000000,100.000000,,,,,,,,,,,,,,,,,,,,,,,,,,,,,,,,,,,,,,,,,,,,,,,,,,,,,,,,,,,,,,,
1649884488.960287,1649884488.977633,72.000000,0.000000,4260.512695,4239.487305,4147.692383,4164.102539,4235.897461,450.000000,4.000000,95.000000,,,,0.000000,4.000000,4.000000,4.000000,4.000000,4.000000,100.000000,,,,,,,,,,,,,,,,,,,,,,,,,,,,,,,,,,,,,,,,,,,,,,,,,,,,,,,,,,,,,,,
1649884488.968100,1649884488.985447,73.000000,0.000000,4261.025879,4240.512695,4150.769043,4161.025879,4226.666504,16217.000000,4.000000,95.000000,,,,0.000000,4.000000,4.000000,4.000000,4.000000,4.000000,100.000000,,,,,,,,,,,,,,,,,,,,,,,,,,,,,,,,,,,,,,,,,,,,,,,,,,,,,,,,,,,,,,,
1649884488.975913,1649884488.993361,74.000000,0.000000,4270.256348,4252.820313,4153.333496,4166.666504,4227.692383,450.000000,4.000000,95.000000,,,,0.000000,4.000000,4.000000,4.000000,4.000000,4.000000,100.000000,,,,,,,,,,,,,,,,,,,,,,,,,,,,,,,,,,,,,,,,,,,,,,,,,,,,,,,,,,,,,,,
1649884488.983726,1649884489.001276,75.000000,0.000000,4267.179688,4265.128418,4151.794922,4172.307617,4222.051270,16128.000000,4.000000,95.000000,,,,0.000000,4.000000,4.000000,4.000000,4.000000,4.000000,100.000000,,,,,,,,,,,,,,,,,,,,,,,,,,,,,,,,,,,,,,,,,,,,,,,,,,,,,,,,,,,,,,,
1649884488.991539,1649884489.009091,76.000000,0.000000,4258.461426,4264.615234,4150.769043,4169.743652,4212.820313,450.000000,4.000000,95.000000,,,,0.000000,4.000000,4.000000,4.000000,4.000000,4.000000,100.000000,0.968750,100.000000,4.000000,4.000000,4.000000,4.000000,4.000000,,,,,,,,,,,,,,,,,,,,,,,,,,,,,,,,4.202464,1.869281,1.469435,1.138705,0.802350,1.241031,0.529949,0.830175,0.551829,0.494994,3.117413,2.623744,1.996128,0.562455,0.320631,3.082140,1.510073,0.323140,0.631055,0.245086,3.870062,2.048872,1.324532,1.218224,0.623556
1649884488.999353,1649884489.016907,77.000000,0.000000,4263.589844,4264.102539,4155.384766,4174.358887,4220.000000,450.000000,4.000000,95.000000,,,,0.000000,4.000000,4.000000,4.000000,4.000000,4.000000,100.000000,,,,,,,,,,,,,,,,,,,,,,,,,,,,,,,,,,,,,,,,,,,,,,,,,,,,,,,,,,,,,,,
1649884489.007166,1649884489.024722,78.000000,0.000000,4270.769043,4266.153809,4161.025879,4181.025879,4228.205078,450.000000,4.000000,95.000000,,,,0.000000,4.000000,4.000000,4.000000,4.000000,4.000000,100.000000,,,,,,,,,,,,,,,,,,,,,,,,,,,,,,,,,,,,,,,,,,,,,,,,,,,,,,,,,,,,,,,
1649884489.014979,1649884489.032636,79.000000,0.000000,4273.333496,4263.589844,4161.538574,4172.820313,4226.666504,16128.000000,4.000000,95.000000,,,,0.000000,4.000000,4.000000,4.000000,4.000000,4.000000,100.000000,,,,,,,,,,,,,,,,,,,,,,,,,,,,,,,,,,,,,,,,,,,,,,,,,,,,,,,,,,,,,,,
1649884489.022792,1649884489.040451,80.000000,0.000000,4274.358887,4260.512695,4154.358887,4162.563965,4219.487305,450.000000,4.000000,95.000000,,,,0.000000,4.000000,4.000000,4.000000,4.000000,4.000000,100.000000,,,,,,,,,,,,,,,,,,,,,,,,,,,,,,,,,,,,,,,,,,,,,,,,,,,,,,,,,,,,,,,
1649884489.030605,1649884489.048365,81.000000,0.000000,4274.871582,4263.077148,4152.820313,4163.589844,4213.846191,450.000000,4.000000,95.000000,,,,0.000000,4.000000,4.000000,4.000000,4.000000,4.000000,100.000000,,,,,,,,,,,,,,,,,,,,,,,,,,,,,,,,,,,,,,,,,,,,,,,,,,,,,,,,,,,,,,,
1649884489.038418,1649884489.056180,82.000000,0.000000,4273.846191,4262.563965,4157.436035,4165.641113,4230.769043,450.000000,4.000000,95.000000,,,,0.000000,4.000000,4.000000,4.000000,4.000000,4.000000,100.000000,,,,,,,,,,,,,,,,,,,,,,,,,,,,,,,,,,,,,,,,,,,,,,,,,,,,,,,,,,,,,,,
1649884489.046232,1649884489.064095,83.000000,0.000000,4269.743652,4252.820313,4150.256348,4158.461426,4246.153809,16128.000000,4.000000,95.000000,,,,0.000000,4.000000,4.000000,4.000000,4.000000,4.000000,100.000000,,,,,,,,,,,,,,,,,,,,,,,,,,,,,,,,,,,,,,,,,,,,,,,,,,,,,,,,,,,,,,,
1649884489.054045,1649884489.071909,84.000000,0.000000,4260.512695,4241.025879,4138.461426,4146.153809,4218.974121,450.000000,4.000000,95.000000,,,,0.000000,4.000000,4.000000,4.000000,4.000000,4.000000,100.000000,,,,,,,,,,,,,,,,,,,,,,,,,,,,,,,,,,,,,,,,,,,,,,,,,,,,,,,,,,,,,,,
1649884489.061858,1649884489.079824,85.000000,0.000000,4249.743652,4237.436035,4139.487305,4138.461426,4189.743652,450.000000,4.000000,95.000000,,,,0.000000,4.000000,4.000000,4.000000,4.000000,4.000000,100.000000,,,,,,,,,,,,,,,,,,,,,,,,,,,,,,,,,,,,,,,,,,,,,,,,,,,,,,,,,,,,,,,
1649884489.069671,1649884489.087738,86.000000,0.000000,4238.461426,4242.051270,4147.692383,4143.589844,4196.922852,450.000000,4.000000,95.000000,,,,0.000000,4.000000,4.000000,4.000000,4.000000,4.000000,100.000000,,,,,,,,,,,,,,,,,,,,,,,,,,,,,,,,,,,,,,,,,,,,,,,,,,,,,,,,,,,,,,,
1649884489.077484,1649884489.095553,87.000000,0.000000,4240.000000,4252.820313,4161.538574,4159.487305,4212.307617,16128.000000,4.000000,95.000000,,,,0.000000,4.000000,4.000000,4.000000,4.000000,4.000000,100.000000,,,,,,,,,,,,,,,,,,,,,,,,,,,,,,,,,,,,,,,,,,,,,,,,,,,,,,,,,,,,,,,
1649884489.085297,1649884489.103467,88.000000,0.000000,4262.051270,4266.153809,4175.897461,4172.820313,4225.641113,450.000000,4.000000,95.000000,,,,0.000000,4.000000,4.000000,4.000000,4.000000,4.000000,100.000000,,,,,,,,,,,,,,,,,,,,,,,,,,,,,,,,,,,,,,,,,,,,,,,,,,,,,,,,,,,,,,,
1649884489.093110,1649884489.111282,89.000000,0.000000,4277.436035,4269.743652,4174.871582,4176.410156,4236.410156,450.000000,4.000000,95.000000,,,,0.000000,4.000000,4.000000,4.000000,4.000000,4.000000,100.000000,,,,,,,,,,,,,,,,,,,,,,,,,,,,,,,,,,,,,,,,,,,,,,,,,,,,,,,,,,,,,,,
1649884489.100924,1649884489.119196,90.000000,0.000000,4277.436035,4264.615234,4168.717773,4179.487305,4237.948730,450.000000,4.000000,95.000000,,,,0.000000,4.000000,4.000000,4.000000,4.000000,4.000000,100.000000,,,,,,,,,,,,,,,,,,,,,,,,,,,,,,,,,,,,,,,,,,,,,,,,,,,,,,,,,,,,,,,
1649884489.108737,1649884489.127011,91.000000,0.000000,4286.153809,4268.717773,4175.897461,4185.128418,4242.051270,16128.000000,4.000000,95.000000,,,,0.000000,4.000000,4.000000,4.000000,4.000000,4.000000,100.000000,,,,,,,,,,,,,,,,,,,,,,,,,,,,,,,,,,,,,,,,,,,,,,,,,,,,,,,,,,,,,,,
1649884489.116550,1649884489.134926,92.000000,0.000000,4293.333496,4270.256348,4184.615234,4188.205078,4248.717773,450.000000,4.000000,95.000000,,,,0.000000,4.000000,4.000000,4.000000,4.000000,4.000000,100.000000,,,,,,,,,,,,,,,,,,,,,,,,,,,,,,,,,,,,,,,4.173033,2.198675,1.637088,1.178561,0.835728,1.178187,0.509809,0.778349,0.529531,0.474912,2.990985,2.034392,1.736654,0.537246,0.299829,3.450862,1.782933,0.328482,0.640957,0.240341,3.869763,2.460525,1.330678,1.320617,0.613859
1649884489.124363,1649884489.142740,93.000000,0.000000,4284.615234,4257.948730,4181.025879,4185.128418,4247.179688,450.000000,4.000000,95.000000,,,,0.000000,4.000000,4.000000,4.000000,4.000000,4.000000,100.000000,,,,,,,,,,,,,,,,,,,,,,,,,,,,,,,,,,,,,,,,,,,,,,,,,,,,,,,,,,,,,,,
1649884489.132176,1649884489.150655,94.000000,0.000000,4278.461426,4254.358887,4174.871582,4180.512695,4246.153809,450.000000,4.000000,95.000000,,,,0.000000,4.000000,4.000000,4.000000,4.000000,4.000000,100.000000,,,,,,,,,,,,,,,,,,,,,,,,,,,,,,,,,,,,,,,,,,,,,,,,,,,,,,,,,,,,,,,
1649884489.139990,1649884489.158469,95.000000,0.000000,4276.922852,4258.974121,4174.358887,4180.000000,4250.256348,16128.000000,4.000000,95.000000,,,,0.000000,4.000000,4.000000,4.000000,4.000000,4.000000,100.000000,,,,,,,,,,,,,,,,,,,,,,,,,,,,,,,,,,,,,,,,,,,,,,,,,,,,,,,,,,,,,,,
1649884489.147803,1649884489.166384,96.000000,0.000000,4269.743652,4253.846191,4176.410156,4180.512695,4241.538574,450.000000,4.000000,95.000000,,,,0.000000,4.000000,4.000000,4.000000,4.000000,4.000000,100.000000,,,,,,,,,,,,,,,,,,,,,,,,,,,,,,,,,,,,,,,,,,,,,,,,,,,,,,,,,,,,,,,
1649884489.155616,1649884489.174199,97.000000,0.000000,4263.589844,4253.846191,4179.487305,4181.025879,4227.692383,450.000000,4.000000,95.000000,,,,0.000000,4.000000,4.000000,4.000000,4.000000,4.000000,100.000000,,,,,,,,,,,,,,,,,,,,,,,,,,,,,,,,,,,,,,,,,,,,,,,,,,,,,,,,,,,,,,,
1649884489.163429,1649884489.182113,98.000000,0.000000,4253.333496,4257.948730,4182.563965,4175.897461,4221.538574,450.000000,4.000000,95.000000,,,,0.000000,4.000000,4.000000,4.000000,4.000000,4.000000,100.000000,,,,,,,,,,,,,,,,,,,,,,,,,,,,,,,,,,,,,,,,,,,,,,,,,,,,,,,,,,,,,,,
1649884489.171242,1649884489.189928,99.000000,0.000000,4241.025879,4255.897461,4183.077148,4169.743652,4210.769043,16128.000000,4.000000,95.000000,,,,0.000000,4.000000,4.000000,4.000000,4.000000,4.000000,100.000000,,,,,,,,,,,,,,,,,,,,,,,,,,,,,,,,,,,,,,,,,,,,,,,,,,,,,,,,,,,,,,,
1649884489.179055,1649884489.197842,100.000000,0.000000,4247.692383,4252.307617,4181.538574,4172.307617,4208.717773,450.000000,4.000000,95.000000,,,,0.000000,4.000000,4.000000,4.000000,4.000000,4.000000,100.000000,,,,,,,,,,,,,,,,,,,,,,,,,,,,,,,,,,,,,,,,,,,,,,,,,,,,,,,,,,,,,,,
1649884489.186869,1649884489.205657,101.000000,0.000000,4253.333496,4249.230957,4175.384766,4175.384766,4216.922852,450.000000,4.000000,95.000000,,,,0.000000,4.000000,4.000000,4.000000,4.000000,4.000000,100.000000,,,,,,,,,,,,,,,,,,,,,,,,,,,,,,,,,,,,,,,,,,,,,,,,,,,,,,,,,,,,,,,
1649884489.194682,1649884489.213572,102.000000,0.000000,4245.641113,4245.128418,4172.820313,4170.769043,4212.820313,450.000000,4.000000,95.000000,,,,0.000000,4.000000,4.000000,4.000000,4.000000,4.000000,100.000000,,,,,,,,,,,,,,,,,,,,,,,,,,,,,,,,,,,,,,,,,,,,,,,,,,,,,,,,,,,,,,,
1649884489.202495,1649884489.221386,103.000000,0.000000,4249.743652,4247.179688,4175.384766,4169.230957,4206.666504,16128.000000,4.000000,95.000000,,,,0.000000,4.000000,4.000000,4.000000,4.000000,4.000000,100.000000,,,,,,,,,,,,,,,,,,,,,,,,,,,,,,,,,,,,,,,,,,,,,,,,,,,,,,,,,,,,,,,
1649884489.210308,1649884489.229301,104.000000,0.000000,4260.000000,4252.307617,4174.871582,4171.282227,4218.461426,450.000000,4.000000,95.000000,,,,0.000000,4.000000,4.000000,4.000000,4.000000,4.000000,100.000000,,,,,,,,,,,,,,,,,,,,,,,,,,,,,,,,,,,,,,,,,,,,,,,,,,,,,,,,,,,,,,,
1649884489.218121,1649884489.237115,105.000000,0.000000,4270.769043,4257.948730,4175.897461,4172.307617,4243.077148,450.000000,4.000000,95.000000,,,,0.000000,4.000000,4.000000,4.000000,4.000000,4.000000,100.000000,,,,,,,,,,,,,,,,,,,,,,,,,,,,,,,,,,,,,,,,,,,,,,,,,,,,,,,,,,,,,,,
1649884489.225934,1649884489.245030,106.000000,0.000000,4301.025879,4269.743652,4183.589844,4179.487305,4265.641113,450.000000,4.000000,95.000000,,,,0.000000,4.000000,4.000000,4.000000,4.000000,4.000000,100.000000,,,,,,,,,,,,,,,,,,,,,,,,,,,,,,,,,,,,,,,,,,,,,,,,,,,,,,,,,,,,,,,
1649884489.233747,1649884489.252845,107.000000,0.000000,4313.846191,4269.743652,4186.666504,4185.128418,4267.692383,16128.000000,4.000000,95.000000,,,,0.000000,4.000000,4.000000,4.000000,4.000000,4.000000,100.000000,,,,,,,,,,,,,,,,,,,,,,,,,,,,,,,,,,,,,,,,,,,,,,,,,,,,,,,,,,,,,,,
1649884489.241561,1649884489.260759,108.000000,0.000000,4288.205078,4258.974121,4178.461426,4178.974121,4247.692383,450.000000,4.000000,95.000000,,,,0.000000,4.000000,4.000000,4.000000,4.000000,4.000000,100.000000,,,,,,,,,,,,,,,,,,,,,,,,,,,,,,,,,,,,,,,3.714653,2.484094,1.668420,1.233961,0.836663,1.060682,0.584050,0.683766,0.501449,0.426615,2.750707,1.536873,1.371398,0.511075,0.269001,3.741444,2.094455,0.331722,0.628309,0.231019,3.496924,2.847587,1.289917,1.406427,0.585794
1649884489.249374,1649884489.268574,109.000000,0.000000,4274.358887,4262.051270,4173.846191,4175.384766,4239.487305,450.000000,4.000000,95.000000,,,,0.000000,4.000000,4.000000,4.000000,4.000000,4.000000,100.000000,,,,,,,,,,,,,,,,,,,,,,,,,,,,,,,,,,,,,,,,,,,,,,,,,,,,,,,,,,,,,,,
1649884489.257187,1649884489.276488,110.000000,0.000000,4283.589844,4269.743652,4173.333496,4178.974121,4248.717773,450.000000,4.000000,95.000000,,,,0.000000,4.000000,4.000000,4.000000,4.000000,4.000000,100.000000,,,,,,,,,,,,,,,,,,,,,,,,,,,,,,,,,,,,,,,,,,,,,,,,,,,,,,,,,,,,,,,
1649884489.265000,1649884489.284403,111.000000,0.000000,4280.000000,4269.230957,4172.820313,4182.051270,4242.051270,16128.000000,4.000000,95.000000,,,,0.000000,4.000000,4.000000,4.000000,4.000000,4.000000,100.000000,,,,,,,,,,,,,,,,,,,,,,,,,,,,,,,,,,,,,,,,,,,,,,,,,,,,,,,,,,,,,,,
1649884489.272813,1649884489.292217,112.000000,0.000000,4269.743652,4271.794922,4176.922852,4185.128418,4234.358887,450.000000,4.000000,95.000000,,,,0.000000,4.000000,4.000000,4.000000,4.000000,4.000000,100.000000,,,,,,,,,,,,,,,,,,,,,,,,,,,,,,,,,,,,,,,,,,,,,,,,,,,,,,,,,,,,,,,
1649884489.280626,1649884489.300132,113.000000,0.000000,4264.615234,4273.846191,4180.000000,4187.179688,4238.974121,450.000000,4.000000,95.000000,,,,0.000000,4.000000,4.000000,4.000000,4.000000,4.000000,100.000000,,,,,,,,,,,,,,,,,,,,,,,,,,,,,,,,,,,,,,,,,,,,,,,,,,,,,,,,,,,,,,,
1649884489.288440,1649884489.307946,114.000000,0.000000,4266.666504,4273.333496,4183.589844,4189.230957,4241.538574,450.000000,4.000000,95.000000,,,,0.000000,4.000000,4.000000,4.000000,4.000000,4.000000,100.000000,,,,,,,,,,,,,,,,,,,,,,,,,,,,,,,,,,,,,,,,,,,,,,,,,,,,,,,,,,,,,,,
1649884489.296253,1649884489.315861,115.000000,0.000000,4282.051270,4283.589844,4185.128418,4190.769043,4243.077148,16128.000000,4.000000,95.000000,,,,0.000000,4.000000,4.000000,4.000000,4.000000,4.000000,100.000000,,,,,,,,,,,,,,,,,,,,,,,,,,,,,,,,,,,,,,,,,,,,,,,,,,,,,,,,,,,,,,,
1649884489.304066,1649884489.323676,116.000000,0.000000,4292.820313,4288.205078,4184.102539,4188.717773,4243.589844,450.000000,4.000000,95.000000,,,,0.000000,4.000000,4.000000,4.000000,4.000000,4.000000,100.000000,,,,,,,,,,,,,,,,,,,,,,,,,,,,,,,,,,,,,,,,,,,,,,,,,,,,,,,,,,,,,,,
1649884489.311879,1649884489.331590,117.000000,0.000000,4287.179688,4271.282227,4188.205078,4188.205078,4238.974121,450.000000,4.000000,95.000000,,,,0.000000,4.000000,4.000000,4.000000,4.000000,4.000000,100.000000,,,,,,,,,,,,,,,,,,,,,,,,,,,,,,,,,,,,,,,,,,,,,,,,,,,,,,,,,,,,,,,
1649884489.319692,1649884489.339405,118.000000,0.000000,4276.922852,4265.128418,4198.974121,4185.128418,4237.948730,450.000000,4.000000,95.000000,,,,0.000000,4.000000,4.000000,4.000000,4.000000,4.000000,100.000000,,,,,,,,,,,,,,,,,,,,,,,,,,,,,,,,,,,,,,,,,,,,,,,,,,,,,,,,,,,,,,,
1649884489.327505,1649884489.347319,119.000000,0.000000,4270.256348,4279.487305,4208.717773,4181.025879,4237.948730,16128.000000,4.000000,95.000000,,,,0.000000,4.000000,4.000000,4.000000,4.000000,4.000000,100.000000,,,,,,,,,,,,,,,,,,,,,,,,,,,,,,,,,,,,,,,,,,,,,,,,,,,,,,,,,,,,,,,
1649884489.335319,1649884489.355234,120.000000,0.000000,4273.846191,4280.512695,4209.743652,4182.563965,4235.384766,450.000000,4.000000,95.000000,,,,0.000000,4.000000,4.000000,4.000000,4.000000,4.000000,100.000000,,,,,,,,,,,,,,,,,,,,,,,,,,,,,,,,,,,,,,,,,,,,,,,,,,,,,,,,,,,,,,,
1649884489.343132,1649884489.363049,121.000000,0.000000,4286.666504,4267.692383,4201.538574,4184.615234,4247.179688,450.000000,4.000000,95.000000,,,,0.000000,4.000000,4.000000,4.000000,4.000000,4.000000,100.000000,,,,,,,,,,,,,,,,,,,,,,,,,,,,,,,,,,,,,,,,,,,,,,,,,,,,,,,,,,,,,,,
1649884489.350945,1649884489.370964,122.000000,0.000000,4292.820313,4268.205078,4190.769043,4185.128418,4258.461426,450.000000,4.000000,95.000000,,,,0.000000,4.000000,4.000000,4.000000,4.000000,4.000000,100.000000,,,,,,,,,,,,,,,,,,,,,,,,,,,,,,,,,,,,,,,,,,,,,,,,,,,,,,,,,,,,,,,
1649884489.358758,1649884489.378779,123.000000,0.000000,4287.692383,4277.948730,4192.307617,4189.743652,4252.307617,16128.000000,4.000000,95.000000,,,,0.000000,4.000000,4.000000,4.000000,4.000000,4.000000,100.000000,,,,,,,,,,,,,,,,,,,,,,,,,,,,,,,,,,,,,,,,,,,,,,,,,,,,,,,,,,,,,,,
1649884489.366571,1649884489.386594,124.000000,0.000000,4283.589844,4273.333496,4201.538574,4192.307617,4252.307617,450.000000,4.000000,95.000000,,,,0.000000,4.000000,4.000000,4.000000,4.000000,4.000000,100.000000,,,,,,,,,,,,,,,,,,,,,,,,,,,,,,,,,,,,,,,2.934883,2.731168,1.553552,1.295900,0.809946,0.911191,0.782836,0.560135,0.484117,0.365274,2.429992,1.213554,1.015271,0.487830,0.237923,3.927637,2.493956,0.328061,0.599580,0.221103,2.910144,3.180381,1.196993,1.481327,0.553687
1649884489.374384,1649884489.394508,125.000000,0.000000,4277.436035,4266.153809,4195.897461,4188.205078,4252.820313,450.000000,4.000000,95.000000,,,,0.000000,4.000000,4.000000,4.000000,4.000000,4.000000,100.000000,,,,,,,,,,,,,,,,,,,,,,,,,,,,,,,,,,,,,,,,,,,,,,,,,,,,,,,,,,,,,,,
1649884489.382198,1649884489.402323,126.000000,0.000000,4268.205078,4266.666504,4190.256348,4184.102539,4239.487305,450.000000,4.000000,95.000000,,,,0.000000,4.000000,4.000000,4.000000,4.000000,4.000000,100.000000,,,,,,,,,,,,,,,,,,,,,,,,,,,,,,,,,,,,,,,,,,,,,,,,,,,,,,,,,,,,,,,
1649884489.390011,1649884489.410237,127.000000,0.000000,4272.820313,4263.589844,4197.948730,4178.974121,4237.948730,243.000000,4.000000,95.000000,,,,0.000000,4.000000,4.000000,4.000000,4.000000,4.000000,100.000000,,,,,,,,,,,,,,,,,,,,,,,,,,,,,,,,,,,,,,,,,,,,,,,,,,,,,,,,,,,,,,,
1649884489.397824,1649884489.418052,0.000000,0.000000,4286.666504,4264.615234,4200.000000,4178.974121,4252.307617,450.000000,4.000000,95.000000,,,,0.000000,4.000000,4.000000,4.000000,4.000000,4.000000,100.000000,,,,,,,,,,,,,,,,,,,,,,,,,,,,,,,,,,,,,,,,,,,,,,,,,,,,,,,,,,,,,,,
1649884489.405637,1649884489.425967,1.000000,0.000000,4282.051270,4273.846191,4187.179688,4185.641113,4249.230957,450.000000,4.000000,95.000000,,,,0.000000,4.000000,4.000000,4.000000,4.000000,4.000000,100.000000,,,,,,,,,,,,,,,,,,,,,,,,,,,,,,,,,,,,,,,,,,,,,,,,,,,,,,,,,,,,,,,
1649884489.413450,1649884489.433881,2.000000,0.000000,4268.205078,4275.897461,4183.589844,4188.717773,4238.461426,16279.000000,4.000000,95.000000,,,,0.000000,4.000000,4.000000,4.000000,4.000000,4.000000,100.000000,,,,,,,,,,,,,,,,,,,,,,,,,,,,,,,,,,,,,,,,,,,,,,,,,,,,,,,,,,,,,,,
1649884489.421263,1649884489.441696,3.000000,0.000000,4277.436035,4275.384766,4186.153809,4187.179688,4248.717773,450.000000,4.000000,95.000000,,,,0.000000,4.000000,4.000000,4.000000,4.000000,4.000000,100.000000,,,,,,,,,,,,,,,,,,,,,,,,,,,,,,,,,,,,,,,,,,,,,,,,,,,,,,,,,,,,,,,
1649884489.429077,1649884489.449511,4.000000,0.000000,4296.410156,4275.384766,4175.897461,4187.179688,4259.487305,16132.000000,4.000000,95.000000,,,,0.000000,4.000000,4.000000,4.000000,4.000000,4.000000,100.000000,,,,,,,,,,,,,,,,,,,,,,,,,,,,,,,,,,,,,,,,,,,,,,,,,,,,,,,,,,,,,,,
1649884489.436890,1649884489.457426,5.000000,0.000000,4298.974121,4267.179688,4169.230957,4190.256348,4249.743652,450.000000,4.000000,95.000000,,,,0.000000,4.000000,4.000000,4.000000,4.000000,4.000000,100.000000,,,,,,,,,,,,,,,,,,,,,,,,,,,,,,,,,,,,,,,,,,,,,,,,,,,,,,,,,,,,,,,
1649884489.444703,1649884489.465340,6.000000,0.000000,4281.025879,4267.692383,4177.948730,4192.307617,4243.589844,16236.000000,4.000000,95.000000,,,,0.000000,4.000000,4.000000,4.000000,4.000000,4.000000,100.000000,,,,,,,,,,,,,,,,,,,,,,,,,,,,,,,,,,,,,,,,,,,,,,,,,,,,,,,,,,,,,,,
1649884489.452516,1649884489.473155,7.000000,0.000000,4263.589844,4277.948730,4189.743652,4195.384766,4251.794922,450.000000,4.000000,95.000000,,,,0.000000,4.000000,4.000000,4.000000,4.000000,4.000000,100.000000,,,,,,,,,,,,,,,,,,,,,,,,,,,,,,,,,,,,,,,,,,,,,,,,,,,,,,,,,,,,,,,
1649884489.460329,1649884489.480970,8.000000,0.000000,4267.179688,4277.948730,4193.333496,4200.512695,4251.282227,450.000000,4.000000,95.000000,,,,0.000000,4.000000,4.000000,4.000000,4.000000,4.000000,100.000000,,,,,,,,,,,,,,,,,,,,,,,,,,,,,,,,,,,,,,,,,,,,,,,,,,,,,,,,,,,,,,,
1649884489.468142,1649884489.488884,9.000000,0.000000,4282.051270,4276.410156,4193.846191,4202.563965,4240.000000,16149.000000,4.000000,95.000000,,,,0.000000,4.000000,4.000000,4.000000,4.000000,4.000000,100.000000,,,,,,,,,,,,,,,,,,,,,,,,,,,,,,,,,,,,,,,,,,,,,,,,,,,,,,,,,,,,,,,
1649884489.475955,1649884489.496699,10.000000,0.000000,4278.974121,4277.436035,4191.282227,4193.333496,4233.846191,450.000000,4.000000,95.000000,,,,0.000000,4.000000,4.000000,4.000000,4.000000,4.000000,100.000000,,,,,,,,,,,,,,,,,,,,,,,,,,,,,,,,,,,,,,,,,,,,,,,,,,,,,,,,,,,,,,,
1649884489.483769,1649884489.504613,11.000000,0.000000,4262.051270,4271.794922,4183.589844,4181.025879,4238.974121,16233.000000,4.000000,95.000000,,,,0.000000,4.000000,4.000000,4.000000,4.000000,4.000000,100.000000,,,,,,,,,,,,,,,,,,,,,,,,,,,,,,,,,,,,,,,,,,,,,,,,,,,,,,,,,,,,,,,
1649884489.491582,1649884489.512428,12.000000,0.000000,4265.641113,4266.153809,4185.128418,4188.717773,4251.794922,450.000000,4.000000,95.000000,,,,0.000000,4.000000,4.000000,4.000000,4.000000,4.000000,100.000000,1.000000,100.000000,4.000000,4.000000,4.000000,4.000000,4.000000,,,,,,,,,,,,,,,,,,,,,,,,,,,,,,,,2.128273,3.044746,1.348507,1.338822,0.767462,0.768935,1.099329,0.434118,0.487489,0.308500,2.087945,1.071631,0.768218,0.464458,0.218342,4.003262,2.999178,0.317282,0.558583,0.213623,2.382244,3.503204,1.089872,1.547876,0.529286
1649884489.499395,1649884489.520342,13.000000,0.000000,4281.538574,4266.153809,4188.717773,4198.974121,4254.871582,450.000000,4.000000,95.000000,,,,0.000000,4.000000,4.000000,4.000000,4.000000,4.000000,100.000000,,,,,,,,,,,,,,,,,,,,,,,,,,,,,,,,,,,,,,,,,,,,,,,,,,,,,,,,,,,,,,,
1649884489.507208,1649884489.528256,14.000000,0.000000,4274.358887,4267.179688,4167.692383,4183.589844,4235.384766,450.000000,4.000000,95.000000,,,,0.000000,4.000000,4.000000,4.000000,4.000000,4.000000,100.000000,,,,,,,,,,,,,,,,,,,,,,,,,,,,,,,,,,,,,,,,,,,,,,,,,,,,,,,,,,,,,,,
1649884489.515021,1649884489.536071,15.000000,0.000000,4248.717773,4264.615234,4137.948730,4158.974121,4215.897461,16233.000000,4.000000,95.000000,,,,0.000000,4.000000,4.000000,4.000000,4.000000,4.000000,100.000000,,,,,,,,,,,,,,,,,,,,,,,,,,,,,,,,,,,,,,,,,,,,,,,,,,,,,,,,,,,,,,,
1649884489.522834,1649884489.543986,16.000000,0.000000,4242.051270,4260.512695,4146.666504,4153.846191,4216.922852,0.000000,4.000000,95.000000,,,,0.000000,4.000000,4.000000,4.000000,4.000000,4.000000,100.000000,,,,,,,,,,,,,,,,,,,,,,,,,,,,,,,,,,,,,,,,,,,,,,,,,,,,,,,,,,,,,,,
1649884489.530648,1649884489.551800,17.000000,0.000000,4259.487305,4262.051270,4175.897461,4165.128418,4222.051270,0.000000,4.000000,95.000000,,,,0.000000,4.000000,4.000000,4.000000,4.000000,4.000000,100.000000,,,,,,,,,,,,,,,,,,,,,,,,,,,,,,,,,,,,,,,,,,,,,,,,,,,,,,,,,,,,,,,
1649884489.538461,1649884489.559715,18.000000,0.000000,4264.102539,4261.538574,4176.410156,4170.769043,4216.410156,0.000000,4.000000,95.000000,,,,0.000000,4.000000,4.000000,4.000000,4.000000,4.000000,100.000000,,,,,,,,,,,,,,,,,,,,,,,,,,,,,,,,,,,,,,,,,,,,,,,,,,,,,,,,,,,,,,,
1649884489.546274,1649884489.567529,19.000000,0.000000,4248.205078,4246.153809,4157.436035,4163.589844,4213.333496,0.000000,4.000000,95.000000,,,,0.000000,4.000000,4.000000,4.000000,4.000000,4.000000,100.000000,,,,,,,,,,,,,,,,,,,,,,,,,,,,,,,,,,,,,,,,,,,,,,,,,,,,,,,,,,,,,,,
1649884489.554087,1649884489.575344,20.000000,0.000000,4247.179688,4232.820313,4155.897461,4161.025879,4227.692383,0.000000,4.000000,95.000000,,,,0.000000,4.000000,4.000000,4.000000,4.000000,4.000000,100.000000,,,,,,,,,,,,,,,,,,,,,,,,,,,,,,,,,,,,,,,,,,,,,,,,,,,,,,,,,,,,,,,
1649884489.561900,1649884489.583258,21.000000,0.000000,4269.230957,4247.179688,4180.512695,4177.436035,4248.205078,0.000000,4.000000,95.000000,,,,0.000000,4.000000,4.000000,4.000000,4.000000,4.000000,100.000000,,,,,,,,,,,,,,,,,,,,,,,,,,,,,,,,,,,,,,,,,,,,,,,,,,,,,,,,,,,,,,,
1649884489.569713,1649884489.591173,22.000000,0.000000,4284.102539,4271.282227,4204.615234,4196.410156,4258.461426,0.000000,4.000000,95.000000,,,,0.000000,4.000000,4.000000,4.000000,4.000000,4.000000,100.000000,,,,,,,,,,,,,,,,,,,,,,,,,,,,,,,,,,,,,,,,,,,,,,,,,,,,,,,,,,,,,,,
1649884489.577527,1649884489.598989,23.000000,0.000000,4273.333496,4273.846191,4205.128418,4196.922852,4252.820313,0.000000,4.000000,95.000000,,,,0.000000,4.000000,4.000000,4.000000,4.000000,4.000000,100.000000,,,,,,,,,,,,,,,,,,,,,,,,,,,,,,,,,,,,,,,,,,,,,,,,,,,,,,,,,,,,,,,
1649884489.585340,1649884489.606804,24.000000,0.000000,4256.922852,4265.128418,4195.384766,4188.205078,4237.436035,0.000000,4.000000,95.000000,,,,0.000000,4.000000,4.000000,4.000000,4.000000,4.000000,100.000000,,,,,,,,,,,,,,,,,,,,,,,,,,,,,,,,,,,,,,,,,,,,,,,,,,,,,,,,,,,,,,,
1649884489.593153,1649884489.614718,25.000000,0.000000,4253.333496,4264.102539,4188.717773,4177.948730,4228.205078,0.000000,4.000000,95.000000,,,,0.000000,4.000000,4.000000,4.000000,4.000000,4.000000,100.000000,,,,,,,,,,,,,,,,,,,,,,,,,,,,,,,,,,,,,,,,,,,,,,,,,,,,,,,,,,,,,,,
1649884489.600966,1649884489.622533,26.000000,0.000000,4264.102539,4271.794922,4188.717773,4179.487305,4228.717773,0.000000,4.000000,95.000000,,,,0.000000,4.000000,4.000000,4.000000,4.000000,4.000000,100.000000,,,,,,,,,,,,,,,,,,,,,,,,,,,,,,,,,,,,,,,,,,,,,,,,,,,,,,,,,,,,,,,
1649884489.608779,1649884489.630348,27.000000,0.000000,4282.563965,4281.538574,4194.871582,4197.436035,4245.128418,0.000000,4.000000,95.000000,,,,0.000000,4.000000,4.000000,4.000000,4.000000,4.000000,100.000000,,,,,,,,,,,,,,,,,,,,,,,,,,,,,,,,,,,,,,,,,,,,,,,,,,,,,,,,,,,,,,,
1649884489.616592,1649884489.638263,28.000000,0.000000,4290.256348,4278.461426,4190.256348,4201.025879,4262.051270,0.000000,4.000000,95.000000,,,,0.000000,4.000000,4.000000,4.000000,4.000000,4.000000,100.000000,,,,,,,,,,,,,,,,,,,,,,,,,,,,,,,,,,,,,,,1.609763,3.544085,1.152392,1.339860,0.721353,0.691261,1.472423,0.337068,0.507351,0.268268,1.815413,1.071248,0.672443,0.437452,0.214875,3.991683,3.544048,0.303176,0.506672,0.207999,2.155231,3.883466,1.013480,1.594250,0.517431
1649884489.624406,1649884489.646077,29.000000,0.000000,4271.794922,4266.153809,4179.487305,4185.128418,4253.846191,0.000000,4.000000,95.000000,,,,0.000000,4.000000,4.000000,4.000000,4.000000,4.000000,100.000000,,,,,,,,,,,,,,,,,,,,,,,,,,,,,,,,,,,,,,,,,,,,,,,,,,,,,,,,,,,,,,,
1649884489.632219,1649884489.653992,30.000000,0.000000,4257.948730,4262.563965,4176.410156,4182.563965,4236.922852,0.000000,4.000000,95.000000,,,,0.000000,4.000000,4.000000,4.000000,4.000000,4.000000,100.000000,,,,,,,,,,,,,,,,,,,,,,,,,,,,,,,,,,,,,,,,,,,,,,,,,,,,,,,,,,,,,,,
1649884489.640032,1649884489.661806,31.000000,0.000000,4280.512695,4267.692383,4170.769043,4193.333496,4243.589844,0.000000,4.000000,95.000000,,,,0.000000,4.000000,4.000000,4.000000,4.000000,4.000000,100.000000,,,,,,,,,,,,,,,,,,,,,,,,,,,,,,,,,,,,,,,,,,,,,,,,,,,,,,,,,,,,,,,
1649884489.647845,1649884489.669720,32.000000,0.000000,4309.743652,4268.205078,4160.512695,4199.487305,4263.589844,0.000000,4.000000,95.000000,,,,0.000000,4.000000,4.000000,4.000000,4.000000,4.000000,100.000000,,,,,,,,,,,,,,,,,,,,,,,,,,,,,,,,,,,,,,,,,,,,,,,,,,,,,,,,,,,,,,,
