title:david_g_Forward, start timestamp:1656265696.133082, stop timestamp:1656265701.153365, headset type:INSIGHT, headset serial:A2D201AE, headset firmware:932, channels:84, sampling rate:eeg_128;pm_0.1;pow_8, samples:643       , version:2.1, 
Timestamp,OriginalTimestamp,EEG.Counter,EEG.Interpolated,EEG.AF3,EEG.T7,EEG.Pz,EEG.T8,EEG.AF4,EEG.RawCq,EEG.Battery,EEG.BatteryPercent,MarkerIndex,MarkerType,MarkerValueInt,EEG.MarkerHardware,CQ.AF3,CQ.T7,CQ.Pz,CQ.T8,CQ.AF4,CQ.Overall,EQ.SampleRateQuality,EQ.OVERALL,EQ.AF3,EQ.T7,EQ.Pz,EQ.T8,EQ.AF4,PM.Engagement.IsActive,PM.Engagement.Scaled,PM.Engagement.Raw,PM.Engagement.Min,PM.Engagement.Max,PM.Excitement.IsActive,PM.Excitement.Scaled,PM.Excitement.Raw,PM.Excitement.Min,PM.Excitement.Max,PM.LongTermExcitement,PM.Stress.IsActive,PM.Stress.Scaled,PM.Stress.Raw,PM.Stress.Min,PM.Stress.Max,PM.Relaxation.IsActive,PM.Relaxation.Scaled,PM.Relaxation.Raw,PM.Relaxation.Min,PM.Relaxation.Max,PM.Interest.IsActive,PM.Interest.Scaled,PM.Interest.Raw,PM.Interest.Min,PM.Interest.Max,PM.Focus.IsActive,PM.Focus.Scaled,PM.Focus.Raw,PM.Focus.Min,PM.Focus.Max,POW.AF3.Theta,POW.AF3.Alpha,POW.AF3.BetaL,POW.AF3.BetaH,POW.AF3.Gamma,POW.T7.Theta,POW.T7.Alpha,POW.T7.BetaL,POW.T7.BetaH,POW.T7.Gamma,POW.Pz.Theta,POW.Pz.Alpha,POW.Pz.BetaL,POW.Pz.BetaH,POW.Pz.Gamma,POW.T8.Theta,POW.T8.Alpha,POW.T8.BetaL,POW.T8.BetaH,POW.T8.Gamma,POW.AF4.Theta,POW.AF4.Alpha,POW.AF4.BetaL,POW.AF4.BetaH,POW.AF4.Gamma
1656265696.133082,1656265696.140314,65.000000,0.000000,4215.384766,4232.820313,4076.923096,4042.564209,4196.410156,450.000000,4.000000,95.000000,,,,0.000000,4.000000,4.000000,4.000000,4.000000,4.000000,100.000000,,,,,,,,,,,,,,,,,,,,,,,,,,,,,,,,,,,,,,,,,,,,,,,,,,,,,,,,,,,,,,,
1656265696.140901,1656265696.148231,66.000000,0.000000,4225.128418,4237.948730,4094.358887,4075.384521,4186.666504,312.000000,4.000000,95.000000,,,,0.000000,2.000000,4.000000,4.000000,4.000000,4.000000,83.333336,,,,,,,,,,,,,,,,,,,,,,,,,,,,,,,,,,,,,,,,,,,,,,,,,,,,,,,,,,,,,,,
1656265696.148721,1656265696.156048,67.000000,0.000000,4269.743652,4274.358887,4125.128418,4082.051270,4221.538574,450.000000,4.000000,95.000000,,,,0.000000,2.000000,4.000000,4.000000,4.000000,4.000000,83.333336,,,,,,,,,,,,,,,,,,,,,,,,,,,,,,,,,,,,,,,,,,,,,,,,,,,,,,,,,,,,,,,
1656265696.156541,1656265696.163965,68.000000,0.000000,4250.256348,4258.974121,4124.102539,4069.230713,4235.897461,16098.000000,4.000000,95.000000,,,,0.000000,2.000000,4.000000,2.000000,4.000000,4.000000,66.666664,,,,,,,,,,,,,,,,,,,,,,,,,,,,,,,,,,,,,,,,,,,,,,,,,,,,,,,,,,,,,,,
1656265696.164361,1656265696.171782,69.000000,0.000000,4240.000000,4232.820313,4120.000000,4084.102539,4215.897461,450.000000,4.000000,95.000000,,,,0.000000,2.000000,4.000000,2.000000,4.000000,4.000000,66.666664,,,,,,,,,,,,,,,,,,,,,,,,,,,,,,,,,,,,,,,,,,,,,,,,,,,,,,,,,,,,,,,
1656265696.172181,1656265696.179599,70.000000,0.000000,4254.358887,4218.461426,4096.922852,4084.102539,4211.282227,310.000000,4.000000,95.000000,,,,0.000000,2.000000,4.000000,2.000000,4.000000,4.000000,66.666664,,,,,,,,,,,,,,,,,,,,,,,,,,,,,,,,,,,,,,,,,,,,,,,,,,,,,,,,,,,,,,,
1656265696.180000,1656265696.187315,71.000000,0.000000,4257.436035,4214.871582,4068.205078,4075.384521,4238.974121,450.000000,4.000000,95.000000,,,,0.000000,2.000000,4.000000,2.000000,4.000000,4.000000,66.666664,1.000000,58.333332,2.000000,3.000000,2.000000,3.000000,3.000000,,,,,,,,,,,,,,,,,,,,,,,,,,,,,,,,3.785925,0.969026,1.548991,13.527129,7.223238,3.955912,6.138927,1.283105,10.097923,5.699761,7.996470,7.854977,1.973003,3.216033,1.776456,1.969153,2.101090,2.859603,4.702428,3.540163,2.062685,3.417558,1.856766,9.523894,6.193897
1656265696.187820,1656265696.195232,72.000000,0.000000,4253.333496,4223.077148,4076.410156,4062.051270,4242.563965,450.000000,4.000000,95.000000,,,,0.000000,2.000000,4.000000,2.000000,4.000000,4.000000,66.666664,,,,,,,,,,,,,,,,,,,,,,,,,,,,,,,,,,,,,,,,,,,,,,,,,,,,,,,,,,,,,,,
1656265696.195640,1656265696.203049,73.000000,0.000000,4239.487305,4206.153809,4082.051270,4026.666748,4212.820313,16061.000000,4.000000,95.000000,,,,0.000000,2.000000,4.000000,2.000000,4.000000,4.000000,66.666664,,,,,,,,,,,,,,,,,,,,,,,,,,,,,,,,,,,,,,,,,,,,,,,,,,,,,,,,,,,,,,,
1656265696.203460,1656265696.210965,74.000000,0.000000,4247.179688,4214.358887,4066.153809,4032.820557,4225.641113,450.000000,4.000000,95.000000,,,,0.000000,2.000000,4.000000,2.000000,4.000000,4.000000,66.666664,,,,,,,,,,,,,,,,,,,,,,,,,,,,,,,,,,,,,,,,,,,,,,,,,,,,,,,,,,,,,,,
1656265696.211279,1656265696.218782,75.000000,0.000000,4273.846191,4250.256348,4061.538574,4063.589844,4250.256348,16193.000000,4.000000,95.000000,,,,0.000000,2.000000,4.000000,2.000000,4.000000,4.000000,66.666664,,,,,,,,,,,,,,,,,,,,,,,,,,,,,,,,,,,,,,,,,,,,,,,,,,,,,,,,,,,,,,,
1656265696.219099,1656265696.226499,76.000000,0.000000,4281.025879,4244.102539,4081.538574,4068.205078,4248.205078,450.000000,4.000000,95.000000,,,,0.000000,2.000000,4.000000,2.000000,4.000000,4.000000,66.666664,,,,,,,,,,,,,,,,,,,,,,,,,,,,,,,,,,,,,,,,,,,,,,,,,,,,,,,,,,,,,,,
1656265696.226919,1656265696.234316,77.000000,0.000000,4255.897461,4217.948730,4090.769287,4045.641113,4218.974121,450.000000,4.000000,95.000000,,,,0.000000,2.000000,4.000000,2.000000,4.000000,4.000000,66.666664,,,,,,,,,,,,,,,,,,,,,,,,,,,,,,,,,,,,,,,,,,,,,,,,,,,,,,,,,,,,,,,
1656265696.234739,1656265696.242032,78.000000,0.000000,4214.358887,4192.307617,4069.230713,4013.333252,4178.974121,450.000000,4.000000,95.000000,,,,0.000000,2.000000,4.000000,2.000000,4.000000,4.000000,66.666664,,,,,,,,,,,,,,,,,,,,,,,,,,,,,,,,,,,,,,,,,,,,,,,,,,,,,,,,,,,,,,,
1656265696.242558,1656265696.249849,79.000000,0.000000,4230.256348,4198.974121,4063.076904,4039.487061,4207.692383,16193.000000,4.000000,95.000000,,,,0.000000,2.000000,4.000000,2.000000,4.000000,4.000000,66.666664,,,,,,,,,,,,,,,,,,,,,,,,,,,,,,,,,,,,,,,,,,,,,,,,,,,,,,,,,,,,,,,
1656265696.250378,1656265696.257566,80.000000,0.000000,4280.000000,4238.461426,4072.307617,4079.487061,4248.205078,450.000000,4.000000,95.000000,,,,0.000000,2.000000,4.000000,2.000000,4.000000,4.000000,66.666664,,,,,,,,,,,,,,,,,,,,,,,,,,,,,,,,,,,,,,,,,,,,,,,,,,,,,,,,,,,,,,,
1656265696.258198,1656265696.265382,81.000000,0.000000,4285.641113,4254.871582,4082.564209,4057.948730,4232.307617,450.000000,4.000000,95.000000,,,,0.000000,2.000000,4.000000,2.000000,4.000000,4.000000,66.666664,,,,,,,,,,,,,,,,,,,,,,,,,,,,,,,,,,,,,,,,,,,,,,,,,,,,,,,,,,,,,,,
1656265696.266018,1656265696.273099,82.000000,0.000000,4244.615234,4213.846191,4090.256348,4020.000000,4200.000000,450.000000,4.000000,95.000000,,,,0.000000,2.000000,4.000000,2.000000,4.000000,4.000000,66.666664,,,,,,,,,,,,,,,,,,,,,,,,,,,,,,,,,,,,,,,,,,,,,,,,,,,,,,,,,,,,,,,
1656265696.273837,1656265696.280915,83.000000,0.000000,4196.410156,4163.589844,4071.794922,4014.358887,4166.153809,16193.000000,4.000000,95.000000,,,,0.000000,2.000000,4.000000,2.000000,4.000000,4.000000,66.666664,,,,,,,,,,,,,,,,,,,,,,,,,,,,,,,,,,,,,,,,,,,,,,,,,,,,,,,,,,,,,,,
1656265696.281657,1656265696.288632,84.000000,0.000000,4221.538574,4213.333496,4076.410156,4051.281982,4181.025879,450.000000,4.000000,95.000000,,,,0.000000,2.000000,4.000000,2.000000,4.000000,4.000000,66.666664,,,,,,,,,,,,,,,,,,,,,,,,,,,,,,,,,,,,,,,,,,,,,,,,,,,,,,,,,,,,,,,
1656265696.289477,1656265696.296449,85.000000,0.000000,4285.128418,4273.846191,4100.512695,4066.153809,4223.077148,450.000000,4.000000,95.000000,,,,0.000000,2.000000,4.000000,2.000000,4.000000,4.000000,66.666664,,,,,,,,,,,,,,,,,,,,,,,,,,,,,,,,,,,,,,,,,,,,,,,,,,,,,,,,,,,,,,,
1656265696.297297,1656265696.304165,86.000000,0.000000,4278.461426,4238.461426,4100.512695,4048.718018,4220.512695,450.000000,4.000000,95.000000,,,,0.000000,2.000000,4.000000,2.000000,4.000000,4.000000,66.666664,,,,,,,,,,,,,,,,,,,,,,,,,,,,,,,,,,,,,,,,,,,,,,,,,,,,,,,,,,,,,,,
1656265696.305116,1656265696.312082,87.000000,0.000000,4226.153809,4202.563965,4074.358887,4056.923096,4204.102539,16193.000000,4.000000,95.000000,,,,0.000000,2.000000,4.000000,2.000000,4.000000,4.000000,66.666664,,,,,,,,,,,,,,,,,,,,,,,,,,,,,,,,,,,,,,,3.179319,1.067490,1.617988,13.473145,7.325753,3.608886,5.455459,1.257131,9.522396,5.988673,8.551153,7.276478,1.849237,3.204211,1.937484,2.189099,2.011678,3.783628,4.445377,3.797188,2.044406,3.396883,1.745905,10.218402,6.199206
1656265696.312936,1656265696.319899,88.000000,0.000000,4198.974121,4201.538574,4037.948730,4053.333252,4196.410156,450.000000,4.000000,95.000000,,,,0.000000,2.000000,4.000000,2.000000,4.000000,4.000000,66.666664,,,,,,,,,,,,,,,,,,,,,,,,,,,,,,,,,,,,,,,,,,,,,,,,,,,,,,,,,,,,,,,
1656265696.320756,1656265696.327816,89.000000,0.000000,4223.077148,4206.666504,4062.051270,4043.589844,4206.153809,450.000000,4.000000,95.000000,,,,0.000000,2.000000,4.000000,2.000000,4.000000,4.000000,66.666664,,,,,,,,,,,,,,,,,,,,,,,,,,,,,,,,,,,,,,,,,,,,,,,,,,,,,,,,,,,,,,,
1656265696.328576,1656265696.335633,90.000000,0.000000,4252.820313,4216.410156,4112.307617,4059.487061,4226.666504,450.000000,4.000000,95.000000,,,,0.000000,2.000000,4.000000,2.000000,4.000000,4.000000,66.666664,,,,,,,,,,,,,,,,,,,,,,,,,,,,,,,,,,,,,,,,,,,,,,,,,,,,,,,,,,,,,,,
1656265696.336395,1656265696.343550,91.000000,0.000000,4252.820313,4235.897461,4105.641113,4060.000000,4214.871582,16193.000000,4.000000,95.000000,,,,0.000000,2.000000,4.000000,2.000000,4.000000,4.000000,66.666664,,,,,,,,,,,,,,,,,,,,,,,,,,,,,,,,,,,,,,,,,,,,,,,,,,,,,,,,,,,,,,,
1656265696.344215,1656265696.351367,92.000000,0.000000,4244.102539,4244.102539,4085.641113,4045.128174,4191.794922,450.000000,4.000000,95.000000,,,,0.000000,2.000000,4.000000,2.000000,4.000000,4.000000,66.666664,,,,,,,,,,,,,,,,,,,,,,,,,,,,,,,,,,,,,,,,,,,,,,,,,,,,,,,,,,,,,,,
1656265696.352035,1656265696.359284,93.000000,0.000000,4231.794922,4218.461426,4077.948730,4028.718018,4182.563965,450.000000,4.000000,95.000000,,,,0.000000,2.000000,4.000000,2.000000,4.000000,4.000000,66.666664,,,,,,,,,,,,,,,,,,,,,,,,,,,,,,,,,,,,,,,,,,,,,,,,,,,,,,,,,,,,,,,
1656265696.359855,1656265696.367101,94.000000,0.000000,4234.358887,4221.538574,4085.128174,4032.820557,4189.230957,450.000000,4.000000,95.000000,,,,0.000000,2.000000,4.000000,2.000000,4.000000,4.000000,66.666664,,,,,,,,,,,,,,,,,,,,,,,,,,,,,,,,,,,,,,,,,,,,,,,,,,,,,,,,,,,,,,,
1656265696.367674,1656265696.375018,95.000000,0.000000,4238.461426,4243.589844,4095.384521,4049.743652,4201.025879,16193.000000,4.000000,95.000000,,,,0.000000,2.000000,4.000000,2.000000,4.000000,4.000000,66.666664,,,,,,,,,,,,,,,,,,,,,,,,,,,,,,,,,,,,,,,,,,,,,,,,,,,,,,,,,,,,,,,
1656265696.375494,1656265696.382834,96.000000,0.000000,4222.051270,4222.563965,4078.974365,4034.871826,4197.948730,450.000000,4.000000,95.000000,,,,0.000000,2.000000,4.000000,2.000000,4.000000,4.000000,66.666664,,,,,,,,,,,,,,,,,,,,,,,,,,,,,,,,,,,,,,,,,,,,,,,,,,,,,,,,,,,,,,,
1656265696.383314,1656265696.390751,97.000000,0.000000,4245.128418,4227.179688,4071.281982,4037.948730,4214.871582,450.000000,4.000000,95.000000,,,,0.000000,2.000000,4.000000,2.000000,4.000000,4.000000,66.666664,,,,,,,,,,,,,,,,,,,,,,,,,,,,,,,,,,,,,,,,,,,,,,,,,,,,,,,,,,,,,,,
1656265696.391134,1656265696.398568,98.000000,0.000000,4279.487305,4262.563965,4080.000000,4063.076904,4236.410156,450.000000,4.000000,95.000000,,,,0.000000,2.000000,4.000000,2.000000,4.000000,4.000000,66.666664,,,,,,,,,,,,,,,,,,,,,,,,,,,,,,,,,,,,,,,,,,,,,,,,,,,,,,,,,,,,,,,
1656265696.398954,1656265696.406485,99.000000,0.000000,4267.179688,4264.102539,4092.307617,4060.512939,4217.436035,16193.000000,4.000000,95.000000,,,,0.000000,2.000000,4.000000,2.000000,4.000000,4.000000,66.666664,,,,,,,,,,,,,,,,,,,,,,,,,,,,,,,,,,,,,,,,,,,,,,,,,,,,,,,,,,,,,,,
1656265696.406773,1656265696.414301,100.000000,0.000000,4226.666504,4220.512695,4093.846191,4042.564209,4181.538574,450.000000,4.000000,95.000000,,,,0.000000,2.000000,4.000000,2.000000,4.000000,4.000000,66.666664,,,,,,,,,,,,,,,,,,,,,,,,,,,,,,,,,,,,,,,,,,,,,,,,,,,,,,,,,,,,,,,
1656265696.414593,1656265696.422018,101.000000,0.000000,4200.000000,4190.256348,4094.871826,4030.256348,4165.128418,450.000000,4.000000,95.000000,,,,0.000000,2.000000,4.000000,2.000000,4.000000,4.000000,66.666664,,,,,,,,,,,,,,,,,,,,,,,,,,,,,,,,,,,,,,,,,,,,,,,,,,,,,,,,,,,,,,,
1656265696.422413,1656265696.429835,102.000000,0.000000,4250.256348,4230.256348,4113.846191,4067.692383,4194.871582,450.000000,4.000000,95.000000,,,,0.000000,2.000000,4.000000,2.000000,4.000000,4.000000,66.666664,,,,,,,,,,,,,,,,,,,,,,,,,,,,,,,,,,,,,,,,,,,,,,,,,,,,,,,,,,,,,,,
1656265696.430232,1656265696.437552,103.000000,0.000000,4310.769043,4262.563965,4096.922852,4120.000000,4233.333496,16193.000000,4.000000,95.000000,,,,0.000000,2.000000,4.000000,2.000000,4.000000,4.000000,66.666664,,,,,,,,,,,,,,,,,,,,,,,,,,,,,,,,,,,,,,,2.724818,1.222577,1.639796,13.626547,7.433167,3.278785,4.373520,1.204012,8.872245,6.275167,9.505923,6.528251,1.952628,3.111312,2.111019,2.602211,2.049153,5.024719,4.542656,4.049567,2.156439,3.311470,1.681156,10.835294,6.168079
1656265696.438052,1656265696.445369,104.000000,0.000000,4292.307617,4246.666504,4079.487061,4114.358887,4228.205078,450.000000,4.000000,95.000000,,,,0.000000,2.000000,4.000000,2.000000,4.000000,4.000000,66.666664,,,,,,,,,,,,,,,,,,,,,,,,,,,,,,,,,,,,,,,,,,,,,,,,,,,,,,,,,,,,,,,
1656265696.445872,1656265696.453085,105.000000,0.000000,4213.846191,4226.666504,4095.897461,4064.615479,4185.641113,450.000000,4.000000,95.000000,,,,0.000000,2.000000,4.000000,2.000000,4.000000,4.000000,66.666664,,,,,,,,,,,,,,,,,,,,,,,,,,,,,,,,,,,,,,,,,,,,,,,,,,,,,,,,,,,,,,,
1656265696.453692,1656265696.460902,106.000000,0.000000,4147.692383,4190.769043,4088.205078,4018.974365,4145.641113,450.000000,4.000000,95.000000,,,,0.000000,2.000000,4.000000,2.000000,4.000000,4.000000,66.666664,,,,,,,,,,,,,,,,,,,,,,,,,,,,,,,,,,,,,,,,,,,,,,,,,,,,,,,,,,,,,,,
1656265696.461511,1656265696.468619,107.000000,0.000000,4188.717773,4194.358887,4073.333252,4028.718018,4173.333496,16193.000000,4.000000,95.000000,,,,0.000000,2.000000,4.000000,2.000000,4.000000,4.000000,66.666664,,,,,,,,,,,,,,,,,,,,,,,,,,,,,,,,,,,,,,,,,,,,,,,,,,,,,,,,,,,,,,,
1656265696.469331,1656265696.476536,108.000000,0.000000,4265.641113,4254.358887,4070.769287,4058.461426,4227.692383,450.000000,4.000000,95.000000,,,,0.000000,2.000000,4.000000,2.000000,4.000000,4.000000,66.666664,,,,,,,,,,,,,,,,,,,,,,,,,,,,,,,,,,,,,,,,,,,,,,,,,,,,,,,,,,,,,,,
1656265696.477151,1656265696.484353,109.000000,0.000000,4260.000000,4275.384766,4073.846191,4061.025635,4230.769043,450.000000,4.000000,95.000000,,,,0.000000,2.000000,4.000000,2.000000,4.000000,4.000000,66.666664,,,,,,,,,,,,,,,,,,,,,,,,,,,,,,,,,,,,,,,,,,,,,,,,,,,,,,,,,,,,,,,
1656265696.484971,1656265696.492270,110.000000,0.000000,4218.974121,4228.205078,4089.743652,4054.358887,4195.384766,450.000000,4.000000,95.000000,,,,0.000000,2.000000,4.000000,2.000000,4.000000,4.000000,66.666664,,,,,,,,,,,,,,,,,,,,,,,,,,,,,,,,,,,,,,,,,,,,,,,,,,,,,,,,,,,,,,,
1656265696.492791,1656265696.500087,111.000000,0.000000,4197.436035,4190.256348,4090.256348,4045.641113,4163.589844,16193.000000,4.000000,95.000000,,,,0.000000,2.000000,4.000000,2.000000,4.000000,4.000000,66.666664,,,,,,,,,,,,,,,,,,,,,,,,,,,,,,,,,,,,,,,,,,,,,,,,,,,,,,,,,,,,,,,
1656265696.500610,1656265696.508004,112.000000,0.000000,4212.820313,4213.333496,4094.871826,4060.512939,4195.384766,450.000000,4.000000,95.000000,,,,0.000000,2.000000,4.000000,2.000000,4.000000,4.000000,66.666664,,,,,,,,,,,,,,,,,,,,,,,,,,,,,,,,,,,,,,,,,,,,,,,,,,,,,,,,,,,,,,,
1656265696.508430,1656265696.515821,113.000000,0.000000,4241.538574,4224.615234,4120.000000,4082.564209,4224.615234,450.000000,4.000000,95.000000,,,,0.000000,2.000000,4.000000,2.000000,4.000000,4.000000,66.666664,,,,,,,,,,,,,,,,,,,,,,,,,,,,,,,,,,,,,,,,,,,,,,,,,,,,,,,,,,,,,,,
1656265696.516250,1656265696.523738,114.000000,0.000000,4244.615234,4208.205078,4122.563965,4083.076904,4201.538574,450.000000,4.000000,95.000000,,,,0.000000,2.000000,4.000000,2.000000,4.000000,4.000000,66.666664,,,,,,,,,,,,,,,,,,,,,,,,,,,,,,,,,,,,,,,,,,,,,,,,,,,,,,,,,,,,,,,
1656265696.524070,1656265696.531555,115.000000,0.000000,4243.589844,4240.512695,4105.128418,4084.102539,4211.794922,16193.000000,4.000000,95.000000,,,,0.000000,2.000000,4.000000,2.000000,4.000000,4.000000,66.666664,,,,,,,,,,,,,,,,,,,,,,,,,,,,,,,,,,,,,,,,,,,,,,,,,,,,,,,,,,,,,,,
1656265696.531889,1656265696.539472,116.000000,0.000000,4238.461426,4267.692383,4090.769287,4070.769287,4228.205078,450.000000,4.000000,95.000000,,,,0.000000,2.000000,4.000000,2.000000,4.000000,4.000000,66.666664,,,,,,,,,,,,,,,,,,,,,,,,,,,,,,,,,,,,,,,,,,,,,,,,,,,,,,,,,,,,,,,
1656265696.539709,1656265696.547289,117.000000,0.000000,4234.871582,4254.871582,4105.128418,4068.205078,4209.743652,450.000000,4.000000,95.000000,,,,0.000000,2.000000,4.000000,2.000000,4.000000,4.000000,66.666664,,,,,,,,,,,,,,,,,,,,,,,,,,,,,,,,,,,,,,,,,,,,,,,,,,,,,,,,,,,,,,,
1656265696.547529,1656265696.555206,118.000000,0.000000,4228.205078,4243.077148,4104.615234,4087.692383,4193.846191,450.000000,4.000000,95.000000,,,,0.000000,2.000000,4.000000,2.000000,4.000000,4.000000,66.666664,,,,,,,,,,,,,,,,,,,,,,,,,,,,,,,,,,,,,,,,,,,,,,,,,,,,,,,,,,,,,,,
1656265696.555349,1656265696.563023,119.000000,0.000000,4199.487305,4239.487305,4068.205078,4067.692383,4199.487305,16193.000000,4.000000,95.000000,,,,0.000000,2.000000,4.000000,2.000000,4.000000,4.000000,66.666664,,,,,,,,,,,,,,,,,,,,,,,,,,,,,,,,,,,,,,,2.416672,1.393960,1.605433,13.794070,7.521821,3.016413,3.371791,1.177506,8.303590,6.474360,10.356100,5.839890,2.308625,2.924534,2.256736,3.141921,2.294813,6.360291,4.988698,4.230964,2.272122,3.219551,1.652141,11.131847,6.101629
1656265696.563168,1656265696.570940,120.000000,0.000000,4237.948730,4252.820313,4080.512939,4051.794922,4232.820313,450.000000,4.000000,95.000000,,,,0.000000,2.000000,4.000000,2.000000,4.000000,4.000000,66.666664,,,,,,,,,,,,,,,,,,,,,,,,,,,,,,,,,,,,,,,,,,,,,,,,,,,,,,,,,,,,,,,
1656265696.570988,1656265696.578756,121.000000,0.000000,4315.897461,4260.512695,4116.410156,4078.974365,4249.743652,450.000000,4.000000,95.000000,,,,0.000000,2.000000,4.000000,2.000000,4.000000,4.000000,66.666664,,,,,,,,,,,,,,,,,,,,,,,,,,,,,,,,,,,,,,,,,,,,,,,,,,,,,,,,,,,,,,,
1656265696.578808,1656265696.586473,122.000000,0.000000,4314.358887,4253.333496,4114.871582,4095.384521,4248.205078,450.000000,4.000000,95.000000,,,,0.000000,2.000000,4.000000,2.000000,4.000000,4.000000,66.666664,,,,,,,,,,,,,,,,,,,,,,,,,,,,,,,,,,,,,,,,,,,,,,,,,,,,,,,,,,,,,,,
1656265696.586628,1656265696.594290,123.000000,0.000000,4244.615234,4235.384766,4091.281982,4069.230713,4232.307617,16193.000000,4.000000,95.000000,,,,0.000000,2.000000,4.000000,2.000000,4.000000,4.000000,66.666664,,,,,,,,,,,,,,,,,,,,,,,,,,,,,,,,,,,,,,,,,,,,,,,,,,,,,,,,,,,,,,,
1656265696.594447,1656265696.602007,124.000000,0.000000,4200.512695,4205.641113,4088.205078,4041.025635,4185.128418,450.000000,4.000000,95.000000,,,,0.000000,2.000000,4.000000,2.000000,4.000000,4.000000,66.666664,,,,,,,,,,,,,,,,,,,,,,,,,,,,,,,,,,,,,,,,,,,,,,,,,,,,,,,,,,,,,,,
1656265696.602267,1656265696.609924,125.000000,0.000000,4246.153809,4241.025879,4114.871582,4059.487061,4195.897461,450.000000,4.000000,95.000000,,,,0.000000,2.000000,4.000000,2.000000,4.000000,4.000000,66.666664,,,,,,,,,,,,,,,,,,,,,,,,,,,,,,,,,,,,,,,,,,,,,,,,,,,,,,,,,,,,,,,
1656265696.610087,1656265696.617742,126.000000,0.000000,4290.256348,4307.692383,4116.922852,4085.641113,4256.922852,450.000000,4.000000,95.000000,,,,0.000000,2.000000,4.000000,2.000000,4.000000,4.000000,66.666664,,,,,,,,,,,,,,,,,,,,,,,,,,,,,,,,,,,,,,,,,,,,,,,,,,,,,,,,,,,,,,,
1656265696.617907,1656265696.625659,127.000000,0.000000,4258.461426,4301.025879,4106.666504,4100.512695,4254.871582,243.000000,4.000000,95.000000,,,,0.000000,2.000000,4.000000,2.000000,4.000000,4.000000,66.666664,,,,,,,,,,,,,,,,,,,,,,,,,,,,,,,,,,,,,,,,,,,,,,,,,,,,,,,,,,,,,,,
1656265696.625726,1656265696.633476,0.000000,0.000000,4227.692383,4247.692383,4103.077148,4091.281982,4198.974121,450.000000,4.000000,95.000000,,,,0.000000,2.000000,4.000000,2.000000,4.000000,4.000000,66.666664,,,,,,,,,,,,,,,,,,,,,,,,,,,,,,,,,,,,,,,,,,,,,,,,,,,,,,,,,,,,,,,
1656265696.633546,1656265696.641393,1.000000,0.000000,4204.615234,4201.025879,4084.615479,4037.948730,4154.358887,450.000000,4.000000,95.000000,,,,0.000000,4.000000,4.000000,2.000000,4.000000,4.000000,83.333336,,,,,,,,,,,,,,,,,,,,,,,,,,,,,,,,,,,,,,,,,,,,,,,,,,,,,,,,,,,,,,,
1656265696.641366,1656265696.649211,2.000000,0.000000,4205.641113,4205.641113,4081.538574,4034.358887,4180.000000,16095.000000,4.000000,95.000000,,,,0.000000,4.000000,4.000000,2.000000,4.000000,4.000000,83.333336,,,,,,,,,,,,,,,,,,,,,,,,,,,,,,,,,,,,,,,,,,,,,,,,,,,,,,,,,,,,,,,
1656265696.649186,1656265696.657028,3.000000,0.000000,4257.436035,4247.179688,4084.102539,4094.358887,4252.307617,450.000000,4.000000,95.000000,,,,0.000000,4.000000,4.000000,2.000000,4.000000,4.000000,83.333336,,,,,,,,,,,,,,,,,,,,,,,,,,,,,,,,,,,,,,,,,,,,,,,,,,,,,,,,,,,,,,,
1656265696.657005,1656265696.664745,4.000000,0.000000,4271.794922,4252.307617,4075.897461,4111.282227,4260.512695,307.000000,4.000000,95.000000,,,,0.000000,4.000000,2.000000,2.000000,4.000000,4.000000,66.666664,,,,,,,,,,,,,,,,,,,,,,,,,,,,,,,,,,,,,,,,,,,,,,,,,,,,,,,,,,,,,,,
1656265696.664825,1656265696.672561,5.000000,0.000000,4236.922852,4228.205078,4082.051270,4066.666748,4206.666504,450.000000,4.000000,95.000000,,,,0.000000,4.000000,2.000000,2.000000,4.000000,4.000000,66.666664,,,,,,,,,,,,,,,,,,,,,,,,,,,,,,,,,,,,,,,,,,,,,,,,,,,,,,,,,,,,,,,
1656265696.672645,1656265696.680479,6.000000,0.000000,4211.282227,4201.538574,4071.281982,4022.564209,4170.769043,16073.000000,4.000000,95.000000,,,,0.000000,4.000000,2.000000,4.000000,4.000000,4.000000,83.333336,,,,,,,,,,,,,,,,,,,,,,,,,,,,,,,,,,,,,,,,,,,,,,,,,,,,,,,,,,,,,,,
1656265696.680465,1656265696.688297,7.000000,0.000000,4204.615234,4184.615234,4054.358887,4030.769287,4180.512695,450.000000,4.000000,95.000000,,,,0.000000,4.000000,2.000000,4.000000,4.000000,4.000000,83.333336,1.000000,50.000000,2.000000,2.000000,2.000000,3.000000,3.000000,,,,,,,,,,,,,,,,,,,,,,,,,,,,,,,,2.214451,1.531139,1.546824,13.845797,7.580104,2.794423,2.803990,1.229432,7.938309,6.537838,10.552999,5.353570,2.831339,2.687264,2.354439,3.672091,2.755782,7.460651,5.637822,4.293663,2.332557,3.121516,1.660681,11.056409,5.984240
1656265696.688285,1656265696.696214,8.000000,0.000000,4212.820313,4189.743652,4070.769287,4055.384521,4187.179688,450.000000,4.000000,95.000000,,,,0.000000,4.000000,2.000000,4.000000,2.000000,4.000000,66.666664,,,,,,,,,,,,,,,,,,,,,,,,,,,,,,,,,,,,,,,,,,,,,,,,,,,,,,,,,,,,,,,
1656265696.696104,1656265696.704032,9.000000,0.000000,4220.512695,4204.615234,4081.025635,4054.358887,4177.948730,266.000000,4.000000,95.000000,,,,0.000000,4.000000,2.000000,4.000000,2.000000,4.000000,66.666664,,,,,,,,,,,,,,,,,,,,,,,,,,,,,,,,,,,,,,,,,,,,,,,,,,,,,,,,,,,,,,,
1656265696.703924,1656265696.711950,10.000000,0.000000,4216.922852,4217.436035,4069.743652,4047.692383,4202.051270,450.000000,4.000000,95.000000,,,,0.000000,4.000000,2.000000,4.000000,2.000000,4.000000,66.666664,,,,,,,,,,,,,,,,,,,,,,,,,,,,,,,,,,,,,,,,,,,,,,,,,,,,,,,,,,,,,,,
1656265696.711744,1656265696.719767,11.000000,0.000000,4209.230957,4221.538574,4065.641113,4039.487061,4216.922852,16268.000000,4.000000,95.000000,,,,0.000000,4.000000,2.000000,4.000000,2.000000,4.000000,66.666664,,,,,,,,,,,,,,,,,,,,,,,,,,,,,,,,,,,,,,,,,,,,,,,,,,,,,,,,,,,,,,,
1656265696.719563,1656265696.727585,12.000000,0.000000,4223.077148,4239.487305,4091.794922,4060.000000,4190.769043,450.000000,4.000000,95.000000,,,,0.000000,4.000000,2.000000,4.000000,2.000000,4.000000,66.666664,,,,,,,,,,,,,,,,,,,,,,,,,,,,,,,,,,,,,,,,,,,,,,,,,,,,,,,,,,,,,,,
1656265696.727383,1656265696.735502,13.000000,0.000000,4209.230957,4243.589844,4096.922852,4068.205078,4159.487305,450.000000,4.000000,95.000000,,,,0.000000,4.000000,2.000000,4.000000,2.000000,4.000000,66.666664,,,,,,,,,,,,,,,,,,,,,,,,,,,,,,,,,,,,,,,,,,,,,,,,,,,,,,,,,,,,,,,
1656265696.735203,1656265696.743419,14.000000,0.000000,4166.153809,4193.846191,4058.974365,4010.256348,4155.384766,450.000000,4.000000,95.000000,,,,0.000000,4.000000,2.000000,4.000000,2.000000,4.000000,66.666664,,,,,,,,,,,,,,,,,,,,,,,,,,,,,,,,,,,,,,,,,,,,,,,,,,,,,,,,,,,,,,,
1656265696.743023,1656265696.751237,15.000000,0.000000,4191.282227,4184.102539,4051.281982,4004.102539,4195.384766,16268.000000,4.000000,95.000000,,,,0.000000,4.000000,2.000000,4.000000,2.000000,4.000000,66.666664,,,,,,,,,,,,,,,,,,,,,,,,,,,,,,,,,,,,,,,,,,,,,,,,,,,,,,,,,,,,,,,
1656265696.750842,1656265696.759154,16.000000,0.000000,4237.948730,4241.025879,4064.615479,4049.743652,4218.461426,0.000000,4.000000,95.000000,,,,0.000000,4.000000,2.000000,4.000000,2.000000,4.000000,66.666664,,,,,,,,,,,,,,,,,,,,,,,,,,,,,,,,,,,,,,,,,,,,,,,,,,,,,,,,,,,,,,,
1656265696.758662,1656265696.766972,17.000000,0.000000,4237.948730,4267.692383,4071.794922,4045.641113,4203.077148,0.000000,4.000000,95.000000,,,,0.000000,4.000000,2.000000,4.000000,2.000000,4.000000,66.666664,,,,,,,,,,,,,,,,,,,,,,,,,,,,,,,,,,,,,,,,,,,,,,,,,,,,,,,,,,,,,,,
1656265696.766482,1656265696.774889,18.000000,0.000000,4201.538574,4212.307617,4067.692383,4017.948730,4184.615234,0.000000,4.000000,95.000000,,,,0.000000,4.000000,2.000000,4.000000,2.000000,4.000000,66.666664,,,,,,,,,,,,,,,,,,,,,,,,,,,,,,,,,,,,,,,,,,,,,,,,,,,,,,,,,,,,,,,
1656265696.774302,1656265696.782807,19.000000,0.000000,4150.769043,4146.153809,4058.461426,4001.025635,4147.692383,0.000000,4.000000,95.000000,,,,0.000000,4.000000,2.000000,4.000000,2.000000,4.000000,66.666664,,,,,,,,,,,,,,,,,,,,,,,,,,,,,,,,,,,,,,,,,,,,,,,,,,,,,,,,,,,,,,,
1656265696.782122,1656265696.790626,20.000000,0.000000,4189.230957,4187.179688,4084.615479,4028.205078,4142.051270,0.000000,4.000000,95.000000,,,,0.000000,4.000000,2.000000,4.000000,2.000000,4.000000,66.666664,,,,,,,,,,,,,,,,,,,,,,,,,,,,,,,,,,,,,,,,,,,,,,,,,,,,,,,,,,,,,,,
1656265696.789941,1656265696.798444,21.000000,0.000000,4264.615234,4238.974121,4094.871826,4080.512939,4189.230957,0.000000,4.000000,95.000000,,,,0.000000,4.000000,2.000000,4.000000,2.000000,4.000000,66.666664,,,,,,,,,,,,,,,,,,,,,,,,,,,,,,,,,,,,,,,,,,,,,,,,,,,,,,,,,,,,,,,
1656265696.797761,1656265696.806361,22.000000,0.000000,4250.769043,4215.897461,4083.076904,4093.846191,4207.692383,0.000000,4.000000,95.000000,,,,0.000000,4.000000,2.000000,4.000000,2.000000,4.000000,66.666664,,,,,,,,,,,,,,,,,,,,,,,,,,,,,,,,,,,,,,,,,,,,,,,,,,,,,,,,,,,,,,,
1656265696.805581,1656265696.814178,23.000000,0.000000,4200.000000,4201.025879,4090.769287,4061.538574,4174.358887,0.000000,4.000000,95.000000,,,,0.000000,4.000000,2.000000,4.000000,2.000000,4.000000,66.666664,,,,,,,,,,,,,,,,,,,,,,,,,,,,,,,,,,,,,,,2.116143,1.594085,1.523490,13.833844,7.615312,2.592508,2.745071,1.398919,7.847446,6.464995,9.798464,5.075819,3.395236,2.455467,2.399006,4.030231,3.338171,7.999694,6.282433,4.232569,2.355400,2.982409,1.696283,10.725330,5.804945
1656265696.813400,1656265696.822095,24.000000,0.000000,4171.794922,4196.922852,4080.512939,4026.666748,4158.974121,0.000000,4.000000,95.000000,,,,0.000000,4.000000,2.000000,4.000000,2.000000,4.000000,66.666664,,,,,,,,,,,,,,,,,,,,,,,,,,,,,,,,,,,,,,,,,,,,,,,,,,,,,,,,,,,,,,,
1656265696.821220,1656265696.830013,25.000000,0.000000,4198.461426,4192.820313,4071.281982,4038.461426,4209.743652,0.000000,4.000000,95.000000,,,,0.000000,4.000000,2.000000,4.000000,2.000000,4.000000,66.666664,,,,,,,,,,,,,,,,,,,,,,,,,,,,,,,,,,,,,,,,,,,,,,,,,,,,,,,,,,,,,,,
1656265696.829040,1656265696.837831,26.000000,0.000000,4257.436035,4204.615234,4097.436035,4065.128174,4241.025879,0.000000,4.000000,95.000000,,,,0.000000,4.000000,2.000000,4.000000,2.000000,4.000000,66.666664,,,,,,,,,,,,,,,,,,,,,,,,,,,,,,,,,,,,,,,,,,,,,,,,,,,,,,,,,,,,,,,
1656265696.836860,1656265696.845749,27.000000,0.000000,4276.922852,4217.436035,4110.256348,4060.000000,4214.871582,0.000000,4.000000,95.000000,,,,0.000000,4.000000,2.000000,4.000000,2.000000,4.000000,66.666664,,,,,,,,,,,,,,,,,,,,,,,,,,,,,,,,,,,,,,,,,,,,,,,,,,,,,,,,,,,,,,,
1656265696.844679,1656265696.853567,28.000000,0.000000,4250.256348,4226.153809,4077.435791,4061.538574,4215.384766,0.000000,4.000000,95.000000,,,,0.000000,4.000000,2.000000,4.000000,2.000000,4.000000,66.666664,,,,,,,,,,,,,,,,,,,,,,,,,,,,,,,,,,,,,,,,,,,,,,,,,,,,,,,,,,,,,,,
1656265696.852499,1656265696.861485,29.000000,0.000000,4222.563965,4229.743652,4043.589844,4076.410156,4226.153809,0.000000,4.000000,95.000000,,,,0.000000,4.000000,2.000000,4.000000,2.000000,4.000000,66.666664,,,,,,,,,,,,,,,,,,,,,,,,,,,,,,,,,,,,,,,,,,,,,,,,,,,,,,,,,,,,,,,
1656265696.860319,1656265696.869303,30.000000,0.000000,4248.205078,4248.717773,4081.538574,4080.000000,4216.410156,0.000000,4.000000,95.000000,,,,0.000000,4.000000,2.000000,4.000000,2.000000,4.000000,66.666664,,,,,,,,,,,,,,,,,,,,,,,,,,,,,,,,,,,,,,,,,,,,,,,,,,,,,,,,,,,,,,,
1656265696.868139,1656265696.877220,31.000000,0.000000,4260.000000,4251.794922,4134.871582,4062.051270,4206.666504,0.000000,4.000000,95.000000,,,,0.000000,4.000000,2.000000,4.000000,2.000000,4.000000,66.666664,,,,,,,,,,,,,,,,,,,,,,,,,,,,,,,,,,,,,,,,,,,,,,,,,,,,,,,,,,,,,,,
1656265696.875959,1656265696.885038,32.000000,0.000000,4209.743652,4220.000000,4120.000000,4052.307617,4193.333496,0.000000,4.000000,95.000000,,,,0.000000,4.000000,2.000000,4.000000,2.000000,4.000000,66.666664,,,,,,,,,,,,,,,,,,,,,,,,,,,,,,,,,,,,,,,,,,,,,,,,,,,,,,,,,,,,,,,
1656265696.883778,1656265696.892956,33.000000,0.000000,4224.102539,4225.641113,4116.410156,4072.820557,4196.410156,0.000000,4.000000,95.000000,,,,0.000000,4.000000,2.000000,4.000000,2.000000,4.000000,66.666664,,,,,,,,,,,,,,,,,,,,,,,,,,,,,,,,,,,,,,,,,,,,,,,,,,,,,,,,,,,,,,,
1656265696.891598,1656265696.900773,34.000000,0.000000,4289.743652,4244.102539,4144.102539,4074.358887,4206.153809,0.000000,4.000000,95.000000,,,,0.000000,4.000000,2.000000,4.000000,2.000000,4.000000,66.666664,,,,,,,,,,,,,,,,,,,,,,,,,,,,,,,,,,,,,,,,,,,,,,,,,,,,,,,,,,,,,,,
1656265696.899418,1656265696.908591,35.000000,0.000000,4272.820313,4219.487305,4132.307617,4066.153809,4216.410156,0.000000,4.000000,95.000000,,,,0.000000,4.000000,2.000000,4.000000,2.000000,4.000000,66.666664,,,,,,,,,,,,,,,,,,,,,,,,,,,,,,,,,,,,,,,,,,,,,,,,,,,,,,,,,,,,,,,
1656265696.907238,1656265696.916308,36.000000,0.000000,4198.461426,4199.487305,4081.538574,4066.153809,4212.820313,0.000000,4.000000,95.000000,,,,0.000000,4.000000,2.000000,4.000000,2.000000,4.000000,66.666664,,,,,,,,,,,,,,,,,,,,,,,,,,,,,,,,,,,,,,,,,,,,,,,,,,,,,,,,,,,,,,,
1656265696.915057,1656265696.924227,37.000000,0.000000,4168.717773,4203.589844,4062.564209,4035.384521,4172.820313,0.000000,4.000000,95.000000,,,,0.000000,4.000000,2.000000,4.000000,2.000000,4.000000,66.666664,,,,,,,,,,,,,,,,,,,,,,,,,,,,,,,,,,,,,,,,,,,,,,,,,,,,,,,,,,,,,,,
1656265696.922877,1656265696.932046,38.000000,0.000000,4233.333496,4229.743652,4096.922852,4053.333252,4200.000000,0.000000,4.000000,95.000000,,,,0.000000,4.000000,2.000000,4.000000,2.000000,4.000000,66.666664,,,,,,,,,,,,,,,,,,,,,,,,,,,,,,,,,,,,,,,,,,,,,,,,,,,,,,,,,,,,,,,
1656265696.930697,1656265696.939865,39.000000,0.000000,4310.769043,4241.538574,4115.384766,4113.333496,4274.871582,0.000000,4.000000,95.000000,,,,0.000000,4.000000,2.000000,4.000000,2.000000,4.000000,66.666664,,,,,,,,,,,,,,,,,,,,,,,,,,,,,,,,,,,,,,,2.202918,1.578481,1.587279,13.957595,7.641563,2.497784,2.996020,1.684584,8.057362,6.286551,8.301195,4.950441,3.849143,2.244949,2.391806,4.137258,3.928246,7.788453,6.741905,4.101699,2.360093,2.762112,1.745239,10.382045,5.576018
1656265696.938517,1656265696.947684,40.000000,0.000000,4295.897461,4223.077148,4111.282227,4105.641113,4252.820313,0.000000,4.000000,95.000000,,,,0.000000,4.000000,2.000000,4.000000,2.000000,4.000000,66.666664,,,,,,,,,,,,,,,,,,,,,,,,,,,,,,,,,,,,,,,,,,,,,,,,,,,,,,,,,,,,,,,
1656265696.946336,1656265696.955601,41.000000,0.000000,4215.384766,4211.794922,4086.153809,4048.718018,4178.974121,0.000000,4.000000,95.000000,,,,0.000000,4.000000,2.000000,4.000000,2.000000,4.000000,66.666664,,,,,,,,,,,,,,,,,,,,,,,,,,,,,,,,,,,,,,,,,,,,,,,,,,,,,,,,,,,,,,,
1656265696.954156,1656265696.963519,42.000000,0.000000,4165.128418,4191.794922,4040.512939,4026.153809,4149.230957,0.000000,4.000000,95.000000,,,,0.000000,4.000000,2.000000,4.000000,2.000000,4.000000,66.666664,,,,,,,,,,,,,,,,,,,,,,,,,,,,,,,,,,,,,,,,,,,,,,,,,,,,,,,,,,,,,,,
1656265696.961976,1656265696.971337,43.000000,0.000000,4197.948730,4191.282227,4054.358887,4058.461426,4175.897461,0.000000,4.000000,95.000000,,,,0.000000,4.000000,2.000000,4.000000,2.000000,4.000000,66.666664,,,,,,,,,,,,,,,,,,,,,,,,,,,,,,,,,,,,,,,,,,,,,,,,,,,,,,,,,,,,,,,
1656265696.969796,1656265696.979156,44.000000,0.000000,4233.333496,4214.871582,4094.871826,4054.871826,4208.205078,0.000000,4.000000,95.000000,,,,0.000000,4.000000,2.000000,4.000000,2.000000,4.000000,66.666664,,,,,,,,,,,,,,,,,,,,,,,,,,,,,,,,,,,,,,,,,,,,,,,,,,,,,,,,,,,,,,,
1656265696.977615,1656265696.987073,45.000000,0.000000,4217.436035,4204.615234,4084.102539,4025.128174,4208.717773,0.000000,4.000000,95.000000,,,,0.000000,4.000000,2.000000,4.000000,2.000000,4.000000,66.666664,,,,,,,,,,,,,,,,,,,,,,,,,,,,,,,,,,,,,,,,,,,,,,,,,,,,,,,,,,,,,,,
1656265696.985435,1656265696.994890,46.000000,0.000000,4202.051270,4183.589844,4071.794922,4042.564209,4185.128418,0.000000,4.000000,95.000000,,,,0.000000,4.000000,2.000000,4.000000,2.000000,4.000000,66.666664,,,,,,,,,,,,,,,,,,,,,,,,,,,,,,,,,,,,,,,,,,,,,,,,,,,,,,,,,,,,,,,
1656265696.993255,1656265697.002807,47.000000,0.000000,4195.897461,4168.717773,4070.769287,4051.794922,4156.922852,0.000000,4.000000,95.000000,,,,0.000000,4.000000,2.000000,4.000000,2.000000,4.000000,66.666664,,,,,,,,,,,,,,,,,,,,,,,,,,,,,,,,,,,,,,,,,,,,,,,,,,,,,,,,,,,,,,,
1656265697.001075,1656265697.010624,48.000000,0.000000,4206.153809,4174.871582,4075.384521,4052.820557,4178.461426,0.000000,4.000000,95.000000,,,,0.000000,4.000000,2.000000,4.000000,2.000000,4.000000,66.666664,,,,,,,,,,,,,,,,,,,,,,,,,,,,,,,,,,,,,,,,,,,,,,,,,,,,,,,,,,,,,,,
1656265697.008894,1656265697.018542,49.000000,0.000000,4227.692383,4199.487305,4098.974121,4064.102539,4210.256348,0.000000,4.000000,95.000000,,,,0.000000,4.000000,2.000000,4.000000,2.000000,4.000000,66.666664,,,,,,,,,,,,,,,,,,,,,,,,,,,,,,,,,,,,,,,,,,,,,,,,,,,,,,,,,,,,,,,
1656265697.016714,1656265697.026459,50.000000,0.000000,4227.692383,4207.179688,4107.692383,4055.897461,4196.922852,0.000000,4.000000,95.000000,,,,0.000000,4.000000,2.000000,4.000000,2.000000,4.000000,66.666664,,,,,,,,,,,,,,,,,,,,,,,,,,,,,,,,,,,,,,,,,,,,,,,,,,,,,,,,,,,,,,,
1656265697.024534,1656265697.034277,51.000000,0.000000,4224.102539,4206.153809,4085.641113,4061.538574,4184.615234,0.000000,4.000000,95.000000,,,,0.000000,4.000000,2.000000,4.000000,2.000000,4.000000,66.666664,,,,,,,,,,,,,,,,,,,,,,,,,,,,,,,,,,,,,,,,,,,,,,,,,,,,,,,,,,,,,,,
1656265697.032354,1656265697.042095,52.000000,0.000000,4224.102539,4198.974121,4057.435791,4063.076904,4186.666504,0.000000,4.000000,95.000000,,,,0.000000,4.000000,2.000000,4.000000,2.000000,4.000000,66.666664,,,,,,,,,,,,,,,,,,,,,,,,,,,,,,,,,,,,,,,,,,,,,,,,,,,,,,,,,,,,,,,
1656265697.040173,1656265697.050012,53.000000,0.000000,4232.307617,4189.230957,4056.923096,4038.974365,4198.974121,0.000000,4.000000,95.000000,,,,0.000000,4.000000,2.000000,4.000000,2.000000,4.000000,66.666664,,,,,,,,,,,,,,,,,,,,,,,,,,,,,,,,,,,,,,,,,,,,,,,,,,,,,,,,,,,,,,,
1656265697.047993,1656265697.057930,54.000000,0.000000,4234.871582,4167.692383,4051.794922,4040.512939,4212.820313,0.000000,4.000000,95.000000,,,,0.000000,4.000000,2.000000,4.000000,2.000000,4.000000,66.666664,,,,,,,,,,,,,,,,,,,,,,,,,,,,,,,,,,,,,,,,,,,,,,,,,,,,,,,,,,,,,,,
1656265697.055813,1656265697.065747,55.000000,0.000000,4209.743652,4158.974121,4043.589844,4046.153809,4191.794922,0.000000,4.000000,95.000000,,,,0.000000,4.000000,2.000000,4.000000,2.000000,4.000000,66.666664,,,,,,,,,,,,,,,,,,,,,,,,,,,,,,,,,,,,,,,2.575122,1.509857,1.748353,14.410595,7.667660,2.671425,3.271946,2.070568,8.530377,6.044876,6.549066,4.870385,4.002363,2.042384,2.341843,4.046467,4.414219,6.908995,6.931265,3.990164,2.390248,2.486396,1.800429,10.278220,5.329119
1656265697.063633,1656265697.073665,56.000000,0.000000,4215.897461,4198.461426,4068.718018,4053.846191,4169.230957,0.000000,4.000000,95.000000,,,,0.000000,4.000000,2.000000,4.000000,2.000000,4.000000,66.666664,,,,,,,,,,,,,,,,,,,,,,,,,,,,,,,,,,,,,,,,,,,,,,,,,,,,,,,,,,,,,,,
1656265697.071453,1656265697.081483,57.000000,0.000000,4250.769043,4224.102539,4066.666748,4084.615479,4188.717773,0.000000,4.000000,95.000000,,,,0.000000,4.000000,2.000000,4.000000,2.000000,4.000000,66.666664,,,,,,,,,,,,,,,,,,,,,,,,,,,,,,,,,,,,,,,,,,,,,,,,,,,,,,,,,,,,,,,
1656265697.079272,1656265697.089400,58.000000,0.000000,4263.589844,4214.871582,4056.410156,4088.205078,4219.487305,0.000000,4.000000,95.000000,,,,0.000000,4.000000,2.000000,4.000000,2.000000,4.000000,66.666664,,,,,,,,,,,,,,,,,,,,,,,,,,,,,,,,,,,,,,,,,,,,,,,,,,,,,,,,,,,,,,,
1656265697.087092,1656265697.097218,59.000000,0.000000,4225.128418,4202.563965,4092.820557,4042.564209,4190.256348,0.000000,4.000000,95.000000,,,,0.000000,4.000000,2.000000,4.000000,2.000000,4.000000,66.666664,,,,,,,,,,,,,,,,,,,,,,,,,,,,,,,,,,,,,,,,,,,,,,,,,,,,,,,,,,,,,,,
1656265697.094912,1656265697.105135,60.000000,0.000000,4160.000000,4180.512695,4099.487305,4007.179443,4135.897461,0.000000,4.000000,95.000000,,,,0.000000,4.000000,2.000000,4.000000,2.000000,4.000000,66.666664,,,,,,,,,,,,,,,,,,,,,,,,,,,,,,,,,,,,,,,,,,,,,,,,,,,,,,,,,,,,,,,
1656265697.102731,1656265697.112953,61.000000,0.000000,4180.512695,4173.846191,4065.128174,4028.205078,4170.769043,0.000000,4.000000,95.000000,,,,0.000000,4.000000,2.000000,4.000000,2.000000,4.000000,66.666664,,,,,,,,,,,,,,,,,,,,,,,,,,,,,,,,,,,,,,,,,,,,,,,,,,,,,,,,,,,,,,,
1656265697.110551,1656265697.120870,62.000000,0.000000,4266.153809,4198.974121,4069.743652,4053.333252,4242.051270,0.000000,4.000000,95.000000,,,,0.000000,4.000000,2.000000,4.000000,2.000000,4.000000,66.666664,,,,,,,,,,,,,,,,,,,,,,,,,,,,,,,,,,,,,,,,,,,,,,,,,,,,,,,,,,,,,,,
1656265697.118371,1656265697.128688,63.000000,0.000000,4282.563965,4218.461426,4109.230957,4064.615479,4237.436035,0.000000,4.000000,95.000000,,,,0.000000,4.000000,2.000000,4.000000,2.000000,4.000000,66.666664,,,,,,,,,,,,,,,,,,,,,,,,,,,,,,,,,,,,,,,,,,,,,,,,,,,,,,,,,,,,,,,
1656265697.126191,1656265697.136605,64.000000,0.000000,4221.538574,4202.563965,4083.076904,4052.307617,4185.128418,450.000000,4.000000,95.000000,,,,0.000000,4.000000,2.000000,4.000000,2.000000,4.000000,66.666664,,,,,,,,,,,,,,,,,,,,,,,,,,,,,,,,,,,,,,,,,,,,,,,,,,,,,,,,,,,,,,,
1656265697.134010,1656265697.144423,65.000000,0.000000,4175.897461,4181.538574,4018.974365,4010.769287,4147.179688,450.000000,4.000000,95.000000,,,,0.000000,4.000000,2.000000,4.000000,2.000000,4.000000,66.666664,,,,,,,,,,,,,,,,,,,,,,,,,,,,,,,,,,,,,,,,,,,,,,,,,,,,,,,,,,,,,,,
1656265697.141830,1656265697.152340,66.000000,0.000000,4215.897461,4202.051270,4043.076904,4027.692383,4178.974121,16110.000000,4.000000,95.000000,,,,0.000000,4.000000,2.000000,4.000000,2.000000,4.000000,66.666664,,,,,,,,,,,,,,,,,,,,,,,,,,,,,,,,,,,,,,,,,,,,,,,,,,,,,,,,,,,,,,,
1656265697.149650,1656265697.160158,67.000000,0.000000,4275.384766,4216.410156,4080.000000,4086.666748,4239.487305,450.000000,4.000000,95.000000,,,,0.000000,4.000000,2.000000,4.000000,2.000000,4.000000,66.666664,,,,,,,,,,,,,,,,,,,,,,,,,,,,,,,,,,,,,,,,,,,,,,,,,,,,,,,,,,,,,,,
1656265697.157470,1656265697.168075,68.000000,0.000000,4264.615234,4200.512695,4056.923096,4075.384521,4237.948730,16113.000000,4.000000,95.000000,,,,0.000000,4.000000,4.000000,4.000000,2.000000,4.000000,83.333336,,,,,,,,,,,,,,,,,,,,,,,,,,,,,,,,,,,,,,,,,,,,,,,,,,,,,,,,,,,,,,,
1656265697.165290,1656265697.175893,69.000000,0.000000,4228.717773,4189.743652,4059.487061,4008.205078,4181.025879,450.000000,4.000000,95.000000,,,,0.000000,4.000000,4.000000,4.000000,2.000000,4.000000,83.333336,,,,,,,,,,,,,,,,,,,,,,,,,,,,,,,,,,,,,,,,,,,,,,,,,,,,,,,,,,,,,,,
1656265697.173109,1656265697.183810,70.000000,0.000000,4197.948730,4167.179688,4062.564209,3983.076904,4140.512695,16144.000000,4.000000,95.000000,,,,0.000000,4.000000,4.000000,4.000000,2.000000,4.000000,83.333336,,,,,,,,,,,,,,,,,,,,,,,,,,,,,,,,,,,,,,,,,,,,,,,,,,,,,,,,,,,,,,,
1656265697.180929,1656265697.191627,71.000000,0.000000,4201.025879,4165.128418,4041.538574,4012.820557,4172.820313,450.000000,4.000000,95.000000,,,,0.000000,4.000000,4.000000,4.000000,2.000000,4.000000,83.333336,1.000000,50.000000,2.000000,2.000000,2.000000,2.000000,3.000000,,,,,,,,,,,,,,,,,,,,,,,,,,,,,,,,3.301452,1.456906,1.971403,15.245682,7.719820,3.210161,3.394825,2.507783,9.152657,5.777061,5.044549,4.823248,3.807997,1.874100,2.276670,3.876113,4.716382,5.696185,6.863227,3.969338,2.457149,2.289770,1.841074,10.514193,5.118802
1656265697.188749,1656265697.199544,72.000000,0.000000,4225.128418,4190.256348,4054.358887,4014.358887,4204.615234,450.000000,4.000000,95.000000,,,,0.000000,4.000000,4.000000,4.000000,4.000000,4.000000,100.000000,,,,,,,,,,,,,,,,,,,,,,,,,,,,,,,,,,,,,,,,,,,,,,,,,,,,,,,,,,,,,,,
1656265697.196569,1656265697.207362,73.000000,0.000000,4215.897461,4199.487305,4078.461426,3995.897461,4181.538574,16109.000000,4.000000,95.000000,,,,0.000000,4.000000,4.000000,4.000000,4.000000,4.000000,100.000000,,,,,,,,,,,,,,,,,,,,,,,,,,,,,,,,,,,,,,,,,,,,,,,,,,,,,,,,,,,,,,,
1656265697.204388,1656265697.215279,74.000000,0.000000,4214.358887,4203.077148,4082.051270,4032.307617,4175.384766,450.000000,4.000000,95.000000,,,,0.000000,4.000000,4.000000,4.000000,4.000000,4.000000,100.000000,,,,,,,,,,,,,,,,,,,,,,,,,,,,,,,,,,,,,,,,,,,,,,,,,,,,,,,,,,,,,,,
1656265697.212208,1656265697.223197,75.000000,0.000000,4231.794922,4196.922852,4078.974365,4048.205078,4183.589844,16163.000000,4.000000,95.000000,,,,0.000000,4.000000,4.000000,4.000000,4.000000,4.000000,100.000000,,,,,,,,,,,,,,,,,,,,,,,,,,,,,,,,,,,,,,,,,,,,,,,,,,,,,,,,,,,,,,,
1656265697.220028,1656265697.231015,76.000000,0.000000,4246.666504,4203.589844,4085.641113,4015.384521,4186.666504,450.000000,4.000000,95.000000,,,,0.000000,4.000000,4.000000,4.000000,4.000000,4.000000,100.000000,,,,,,,,,,,,,,,,,,,,,,,,,,,,,,,,,,,,,,,,,,,,,,,,,,,,,,,,,,,,,,,
1656265697.227847,1656265697.238932,77.000000,0.000000,4233.846191,4227.692383,4083.589844,4020.000000,4190.769043,450.000000,4.000000,95.000000,,,,0.000000,4.000000,4.000000,4.000000,4.000000,4.000000,100.000000,,,,,,,,,,,,,,,,,,,,,,,,,,,,,,,,,,,,,,,,,,,,,,,,,,,,,,,,,,,,,,,
1656265697.235667,1656265697.246750,78.000000,0.000000,4201.538574,4216.410156,4067.692383,4033.846191,4190.256348,450.000000,4.000000,95.000000,,,,0.000000,4.000000,4.000000,4.000000,4.000000,4.000000,100.000000,,,,,,,,,,,,,,,,,,,,,,,,,,,,,,,,,,,,,,,,,,,,,,,,,,,,,,,,,,,,,,,
1656265697.243487,1656265697.254668,79.000000,0.000000,4229.230957,4214.871582,4074.358887,4023.589844,4203.077148,16163.000000,4.000000,95.000000,,,,0.000000,4.000000,4.000000,4.000000,4.000000,4.000000,100.000000,,,,,,,,,,,,,,,,,,,,,,,,,,,,,,,,,,,,,,,,,,,,,,,,,,,,,,,,,,,,,,,
1656265697.251307,1656265697.262485,80.000000,0.000000,4281.025879,4234.358887,4096.922852,4030.256348,4211.282227,450.000000,4.000000,95.000000,,,,0.000000,4.000000,4.000000,4.000000,4.000000,4.000000,100.000000,,,,,,,,,,,,,,,,,,,,,,,,,,,,,,,,,,,,,,,,,,,,,,,,,,,,,,,,,,,,,,,
1656265697.259127,1656265697.270403,81.000000,0.000000,4272.820313,4217.436035,4113.846191,4061.025635,4206.666504,450.000000,4.000000,95.000000,,,,0.000000,4.000000,4.000000,4.000000,4.000000,4.000000,100.000000,,,,,,,,,,,,,,,,,,,,,,,,,,,,,,,,,,,,,,,,,,,,,,,,,,,,,,,,,,,,,,,
1656265697.266946,1656265697.278220,82.000000,0.000000,4217.436035,4193.333496,4076.923096,4057.948730,4208.205078,450.000000,4.000000,95.000000,,,,0.000000,4.000000,4.000000,4.000000,4.000000,4.000000,100.000000,,,,,,,,,,,,,,,,,,,,,,,,,,,,,,,,,,,,,,,,,,,,,,,,,,,,,,,,,,,,,,,
1656265697.274766,1656265697.286138,83.000000,0.000000,4191.794922,4185.128418,4034.871826,4024.615479,4196.410156,16163.000000,4.000000,95.000000,,,,0.000000,4.000000,4.000000,4.000000,4.000000,4.000000,100.000000,,,,,,,,,,,,,,,,,,,,,,,,,,,,,,,,,,,,,,,,,,,,,,,,,,,,,,,,,,,,,,,
1656265697.282586,1656265697.293955,84.000000,0.000000,4235.384766,4210.769043,4080.000000,4045.641113,4201.538574,450.000000,4.000000,95.000000,,,,0.000000,4.000000,4.000000,4.000000,4.000000,4.000000,100.000000,,,,,,,,,,,,,,,,,,,,,,,,,,,,,,,,,,,,,,,,,,,,,,,,,,,,,,,,,,,,,,,
1656265697.290406,1656265697.301873,85.000000,0.000000,4271.282227,4265.128418,4117.948730,4082.564209,4232.820313,450.000000,4.000000,95.000000,,,,0.000000,4.000000,4.000000,4.000000,4.000000,4.000000,100.000000,,,,,,,,,,,,,,,,,,,,,,,,,,,,,,,,,,,,,,,,,,,,,,,,,,,,,,,,,,,,,,,
1656265697.298225,1656265697.309690,86.000000,0.000000,4263.077148,4271.282227,4095.384521,4067.179443,4251.282227,450.000000,4.000000,95.000000,,,,0.000000,4.000000,4.000000,4.000000,4.000000,4.000000,100.000000,,,,,,,,,,,,,,,,,,,,,,,,,,,,,,,,,,,,,,,,,,,,,,,,,,,,,,,,,,,,,,,
1656265697.306045,1656265697.317607,87.000000,0.000000,4238.461426,4223.077148,4086.666748,4021.025635,4229.743652,16163.000000,4.000000,95.000000,,,,0.000000,4.000000,4.000000,4.000000,4.000000,4.000000,100.000000,,,,,,,,,,,,,,,,,,,,,,,,,,,,,,,,,,,,,,,4.341518,1.502408,2.187162,16.302219,7.847818,4.019145,3.379911,2.902771,9.739876,5.494469,4.005162,4.873664,3.379528,1.818580,2.241677,3.726614,4.752017,4.560970,6.607086,4.056856,2.599993,2.322189,1.822823,10.974869,5.018722
1656265697.313865,1656265697.325425,88.000000,0.000000,4207.179688,4192.307617,4098.974121,3983.589844,4178.461426,450.000000,4.000000,95.000000,,,,0.000000,4.000000,4.000000,4.000000,4.000000,4.000000,100.000000,,,,,,,,,,,,,,,,,,,,,,,,,,,,,,,,,,,,,,,,,,,,,,,,,,,,,,,,,,,,,,,
1656265697.321684,1656265697.333342,89.000000,0.000000,4222.051270,4222.051270,4093.333252,4008.205078,4191.794922,450.000000,4.000000,95.000000,,,,0.000000,4.000000,4.000000,4.000000,4.000000,4.000000,100.000000,,,,,,,,,,,,,,,,,,,,,,,,,,,,,,,,,,,,,,,,,,,,,,,,,,,,,,,,,,,,,,,
1656265697.329504,1656265697.341160,90.000000,0.000000,4272.307617,4253.333496,4075.384521,4053.846191,4252.820313,450.000000,4.000000,95.000000,,,,0.000000,4.000000,4.000000,4.000000,4.000000,4.000000,100.000000,,,,,,,,,,,,,,,,,,,,,,,,,,,,,,,,,,,,,,,,,,,,,,,,,,,,,,,,,,,,,,,
1656265697.337324,1656265697.349077,91.000000,0.000000,4283.077148,4254.358887,4100.512695,4060.000000,4254.871582,16163.000000,4.000000,95.000000,,,,0.000000,4.000000,4.000000,4.000000,4.000000,4.000000,100.000000,,,,,,,,,,,,,,,,,,,,,,,,,,,,,,,,,,,,,,,,,,,,,,,,,,,,,,,,,,,,,,,
1656265697.345144,1656265697.356894,92.000000,0.000000,4251.794922,4250.769043,4119.487305,4052.820557,4217.436035,450.000000,4.000000,95.000000,,,,0.000000,4.000000,4.000000,4.000000,4.000000,4.000000,100.000000,,,,,,,,,,,,,,,,,,,,,,,,,,,,,,,,,,,,,,,,,,,,,,,,,,,,,,,,,,,,,,,
1656265697.352964,1656265697.364811,93.000000,0.000000,4227.692383,4227.179688,4067.179443,4051.281982,4197.948730,450.000000,4.000000,95.000000,,,,0.000000,4.000000,4.000000,4.000000,4.000000,4.000000,100.000000,,,,,,,,,,,,,,,,,,,,,,,,,,,,,,,,,,,,,,,,,,,,,,,,,,,,,,,,,,,,,,,
1656265697.360783,1656265697.372629,94.000000,0.000000,4246.153809,4227.692383,4062.051270,4060.000000,4209.230957,450.000000,4.000000,95.000000,,,,0.000000,4.000000,4.000000,4.000000,4.000000,4.000000,100.000000,,,,,,,,,,,,,,,,,,,,,,,,,,,,,,,,,,,,,,,,,,,,,,,,,,,,,,,,,,,,,,,
1656265697.368603,1656265697.380546,95.000000,0.000000,4265.128418,4251.794922,4127.692383,4057.435791,4213.846191,16163.000000,4.000000,95.000000,,,,0.000000,4.000000,4.000000,4.000000,4.000000,4.000000,100.000000,,,,,,,,,,,,,,,,,,,,,,,,,,,,,,,,,,,,,,,,,,,,,,,,,,,,,,,,,,,,,,,
1656265697.376423,1656265697.388363,96.000000,0.000000,4237.948730,4241.025879,4134.871582,4042.564209,4196.410156,450.000000,4.000000,95.000000,,,,0.000000,4.000000,4.000000,4.000000,4.000000,4.000000,100.000000,,,,,,,,,,,,,,,,,,,,,,,,,,,,,,,,,,,,,,,,,,,,,,,,,,,,,,,,,,,,,,,
1656265697.384243,1656265697.396280,97.000000,0.000000,4222.051270,4223.589844,4097.436035,4055.384521,4211.794922,450.000000,4.000000,95.000000,,,,0.000000,4.000000,4.000000,4.000000,4.000000,4.000000,100.000000,,,,,,,,,,,,,,,,,,,,,,,,,,,,,,,,,,,,,,,,,,,,,,,,,,,,,,,,,,,,,,,
1656265697.392062,1656265697.404098,98.000000,0.000000,4248.717773,4217.436035,4088.718018,4065.641113,4249.743652,450.000000,4.000000,95.000000,,,,0.000000,4.000000,4.000000,4.000000,4.000000,4.000000,100.000000,,,,,,,,,,,,,,,,,,,,,,,,,,,,,,,,,,,,,,,,,,,,,,,,,,,,,,,,,,,,,,,
1656265697.399882,1656265697.411815,99.000000,0.000000,4269.230957,4226.153809,4101.538574,4064.102539,4251.794922,16163.000000,4.000000,95.000000,,,,0.000000,4.000000,4.000000,4.000000,4.000000,4.000000,100.000000,,,,,,,,,,,,,,,,,,,,,,,,,,,,,,,,,,,,,,,,,,,,,,,,,,,,,,,,,,,,,,,
1656265697.407702,1656265697.419732,100.000000,0.000000,4234.358887,4225.641113,4081.025635,4048.205078,4215.384766,450.000000,4.000000,95.000000,,,,0.000000,4.000000,4.000000,4.000000,4.000000,4.000000,100.000000,,,,,,,,,,,,,,,,,,,,,,,,,,,,,,,,,,,,,,,,,,,,,,,,,,,,,,,,,,,,,,,
1656265697.415522,1656265697.427550,101.000000,0.000000,4190.256348,4210.769043,4049.230713,4022.564209,4185.128418,450.000000,4.000000,95.000000,,,,0.000000,4.000000,4.000000,4.000000,4.000000,4.000000,100.000000,,,,,,,,,,,,,,,,,,,,,,,,,,,,,,,,,,,,,,,,,,,,,,,,,,,,,,,,,,,,,,,
1656265697.423341,1656265697.435468,102.000000,0.000000,4227.179688,4239.487305,4080.000000,4040.512939,4200.000000,450.000000,4.000000,95.000000,,,,0.000000,4.000000,4.000000,4.000000,4.000000,4.000000,100.000000,,,,,,,,,,,,,,,,,,,,,,,,,,,,,,,,,,,,,,,,,,,,,,,,,,,,,,,,,,,,,,,
1656265697.431161,1656265697.443286,103.000000,0.000000,4272.820313,4273.333496,4122.563965,4054.871826,4220.000000,16163.000000,4.000000,95.000000,,,,0.000000,4.000000,4.000000,4.000000,4.000000,4.000000,100.000000,,,,,,,,,,,,,,,,,,,,,,,,,,,,,,,,,,,,,,,5.476391,1.704002,2.336887,17.262180,8.098776,4.946054,3.307943,3.197880,10.086611,5.175719,3.397975,5.074343,2.885843,1.942115,2.287355,3.669852,4.503694,3.871197,6.258409,4.216770,2.839731,2.650713,1.721543,11.384027,5.098540
1656265697.438981,1656265697.451203,104.000000,0.000000,4249.230957,4255.897461,4118.974121,4046.666748,4219.487305,450.000000,4.000000,95.000000,,,,0.000000,4.000000,4.000000,4.000000,4.000000,4.000000,100.000000,,,,,,,,,,,,,,,,,,,,,,,,,,,,,,,,,,,,,,,,,,,,,,,,,,,,,,,,,,,,,,,
1656265697.446801,1656265697.459021,105.000000,0.000000,4206.153809,4206.666504,4075.384521,4056.410156,4211.282227,450.000000,4.000000,95.000000,,,,0.000000,4.000000,4.000000,4.000000,4.000000,4.000000,100.000000,,,,,,,,,,,,,,,,,,,,,,,,,,,,,,,,,,,,,,,,,,,,,,,,,,,,,,,,,,,,,,,
1656265697.454620,1656265697.466938,106.000000,0.000000,4184.102539,4171.282227,4042.051270,4048.718018,4188.205078,450.000000,4.000000,95.000000,,,,0.000000,4.000000,4.000000,4.000000,4.000000,4.000000,100.000000,,,,,,,,,,,,,,,,,,,,,,,,,,,,,,,,,,,,,,,,,,,,,,,,,,,,,,,,,,,,,,,
1656265697.462440,1656265697.474756,107.000000,0.000000,4225.641113,4216.410156,4081.025635,4043.076904,4188.717773,16163.000000,4.000000,95.000000,,,,0.000000,4.000000,4.000000,4.000000,4.000000,4.000000,100.000000,,,,,,,,,,,,,,,,,,,,,,,,,,,,,,,,,,,,,,,,,,,,,,,,,,,,,,,,,,,,,,,
1656265697.470260,1656265697.482673,108.000000,0.000000,4270.256348,4284.615234,4110.769043,4060.512939,4214.358887,450.000000,4.000000,95.000000,,,,0.000000,4.000000,4.000000,4.000000,4.000000,4.000000,100.000000,,,,,,,,,,,,,,,,,,,,,,,,,,,,,,,,,,,,,,,,,,,,,,,,,,,,,,,,,,,,,,,
1656265697.478080,1656265697.490491,109.000000,0.000000,4236.922852,4272.820313,4080.000000,4064.102539,4215.384766,450.000000,4.000000,95.000000,,,,0.000000,4.000000,4.000000,4.000000,4.000000,4.000000,100.000000,,,,,,,,,,,,,,,,,,,,,,,,,,,,,,,,,,,,,,,,,,,,,,,,,,,,,,,,,,,,,,,
1656265697.485899,1656265697.498408,110.000000,0.000000,4181.538574,4218.461426,4062.564209,4039.487061,4178.974121,450.000000,4.000000,95.000000,,,,0.000000,4.000000,4.000000,4.000000,4.000000,4.000000,100.000000,,,,,,,,,,,,,,,,,,,,,,,,,,,,,,,,,,,,,,,,,,,,,,,,,,,,,,,,,,,,,,,
1656265697.493719,1656265697.506226,111.000000,0.000000,4156.922852,4199.487305,4060.000000,4015.384521,4143.077148,16163.000000,4.000000,95.000000,,,,0.000000,4.000000,4.000000,4.000000,4.000000,4.000000,100.000000,,,,,,,,,,,,,,,,,,,,,,,,,,,,,,,,,,,,,,,,,,,,,,,,,,,,,,,,,,,,,,,
1656265697.501539,1656265697.514143,112.000000,0.000000,4181.538574,4226.153809,4075.384521,4040.512939,4173.333496,450.000000,4.000000,95.000000,,,,0.000000,4.000000,4.000000,4.000000,4.000000,4.000000,100.000000,,,,,,,,,,,,,,,,,,,,,,,,,,,,,,,,,,,,,,,,,,,,,,,,,,,,,,,,,,,,,,,
1656265697.509359,1656265697.521961,113.000000,0.000000,4225.128418,4229.230957,4118.461426,4075.384521,4201.538574,450.000000,4.000000,95.000000,,,,0.000000,4.000000,4.000000,4.000000,4.000000,4.000000,100.000000,,,,,,,,,,,,,,,,,,,,,,,,,,,,,,,,,,,,,,,,,,,,,,,,,,,,,,,,,,,,,,,
1656265697.517178,1656265697.529878,114.000000,0.000000,4246.666504,4214.871582,4136.410156,4055.897461,4186.153809,450.000000,4.000000,95.000000,,,,0.000000,4.000000,4.000000,4.000000,4.000000,4.000000,100.000000,,,,,,,,,,,,,,,,,,,,,,,,,,,,,,,,,,,,,,,,,,,,,,,,,,,,,,,,,,,,,,,
1656265697.524998,1656265697.537695,115.000000,0.000000,4251.794922,4240.000000,4111.794922,4042.051270,4202.563965,16163.000000,4.000000,95.000000,,,,0.000000,4.000000,4.000000,4.000000,4.000000,4.000000,100.000000,,,,,,,,,,,,,,,,,,,,,,,,,,,,,,,,,,,,,,,,,,,,,,,,,,,,,,,,,,,,,,,
1656265697.532818,1656265697.545612,116.000000,0.000000,4230.256348,4252.307617,4072.307617,4065.128174,4230.256348,450.000000,4.000000,95.000000,,,,0.000000,4.000000,4.000000,4.000000,4.000000,4.000000,100.000000,,,,,,,,,,,,,,,,,,,,,,,,,,,,,,,,,,,,,,,,,,,,,,,,,,,,,,,,,,,,,,,
1656265697.540638,1656265697.553429,117.000000,0.000000,4215.897461,4227.179688,4071.794922,4077.435791,4226.666504,450.000000,4.000000,95.000000,,,,0.000000,4.000000,4.000000,4.000000,4.000000,4.000000,100.000000,,,,,,,,,,,,,,,,,,,,,,,,,,,,,,,,,,,,,,,,,,,,,,,,,,,,,,,,,,,,,,,
1656265697.548458,1656265697.561247,118.000000,0.000000,4214.358887,4195.897461,4109.743652,4077.948730,4193.846191,450.000000,4.000000,95.000000,,,,0.000000,4.000000,4.000000,4.000000,4.000000,4.000000,100.000000,,,,,,,,,,,,,,,,,,,,,,,,,,,,,,,,,,,,,,,,,,,,,,,,,,,,,,,,,,,,,,,
1656265697.556277,1656265697.569165,119.000000,0.000000,4209.743652,4189.230957,4113.846191,4075.897461,4182.563965,16163.000000,4.000000,95.000000,,,,0.000000,4.000000,4.000000,4.000000,4.000000,4.000000,100.000000,,,,,,,,,,,,,,,,,,,,,,,,,,,,,,,,,,,,,,,6.387952,2.054024,2.385680,17.794083,8.470340,5.722998,3.223216,3.378492,10.045566,4.787027,3.098340,5.411232,2.474951,2.258409,2.445588,3.722345,4.042859,3.815564,5.911653,4.386303,3.174752,3.193572,1.550690,11.468665,5.377886
1656265697.564097,1656265697.576983,120.000000,0.000000,4249.743652,4232.307617,4097.436035,4050.769287,4214.871582,450.000000,4.000000,95.000000,,,,0.000000,4.000000,4.000000,4.000000,4.000000,4.000000,100.000000,,,,,,,,,,,,,,,,,,,,,,,,,,,,,,,,,,,,,,,,,,,,,,,,,,,,,,,,,,,,,,,
1656265697.571917,1656265697.584900,121.000000,0.000000,4285.641113,4265.128418,4112.307617,4023.589844,4223.077148,450.000000,4.000000,95.000000,,,,0.000000,4.000000,4.000000,4.000000,4.000000,4.000000,100.000000,,,,,,,,,,,,,,,,,,,,,,,,,,,,,,,,,,,,,,,,,,,,,,,,,,,,,,,,,,,,,,,
1656265697.579737,1656265697.592718,122.000000,0.000000,4264.102539,4260.000000,4136.410156,4059.487061,4218.974121,450.000000,4.000000,95.000000,,,,0.000000,4.000000,4.000000,4.000000,4.000000,4.000000,100.000000,,,,,,,,,,,,,,,,,,,,,,,,,,,,,,,,,,,,,,,,,,,,,,,,,,,,,,,,,,,,,,,
1656265697.587556,1656265697.600636,123.000000,0.000000,4223.589844,4241.538574,4109.230957,4103.077148,4229.743652,16163.000000,4.000000,95.000000,,,,0.000000,4.000000,4.000000,4.000000,4.000000,4.000000,100.000000,,,,,,,,,,,,,,,,,,,,,,,,,,,,,,,,,,,,,,,,,,,,,,,,,,,,,,,,,,,,,,,
1656265697.595376,1656265697.608453,124.000000,0.000000,4204.102539,4216.922852,4081.538574,4060.000000,4207.692383,450.000000,4.000000,95.000000,,,,0.000000,4.000000,4.000000,4.000000,4.000000,4.000000,100.000000,,,,,,,,,,,,,,,,,,,,,,,,,,,,,,,,,,,,,,,,,,,,,,,,,,,,,,,,,,,,,,,
1656265697.603196,1656265697.616371,125.000000,0.000000,4240.000000,4226.153809,4105.641113,4044.102539,4215.384766,450.000000,4.000000,95.000000,,,,0.000000,4.000000,4.000000,4.000000,4.000000,4.000000,100.000000,,,,,,,,,,,,,,,,,,,,,,,,,,,,,,,,,,,,,,,,,,,,,,,,,,,,,,,,,,,,,,,
1656265697.611015,1656265697.624189,126.000000,0.000000,4280.000000,4250.769043,4109.230957,4095.384521,4264.102539,450.000000,4.000000,95.000000,,,,0.000000,4.000000,4.000000,4.000000,4.000000,4.000000,100.000000,,,,,,,,,,,,,,,,,,,,,,,,,,,,,,,,,,,,,,,,,,,,,,,,,,,,,,,,,,,,,,,
1656265697.618835,1656265697.632006,127.000000,0.000000,4273.333496,4257.948730,4110.769043,4112.307617,4248.717773,243.000000,4.000000,95.000000,,,,0.000000,4.000000,4.000000,4.000000,4.000000,4.000000,100.000000,,,,,,,,,,,,,,,,,,,,,,,,,,,,,,,,,,,,,,,,,,,,,,,,,,,,,,,,,,,,,,,
1656265697.626655,1656265697.639724,0.000000,0.000000,4238.461426,4250.256348,4116.410156,4082.051270,4200.512695,450.000000,4.000000,95.000000,,,,0.000000,4.000000,4.000000,4.000000,4.000000,4.000000,100.000000,,,,,,,,,,,,,,,,,,,,,,,,,,,,,,,,,,,,,,,,,,,,,,,,,,,,,,,,,,,,,,,
1656265697.634475,1656265697.647641,1.000000,0.000000,4202.051270,4223.589844,4089.743652,4048.205078,4187.692383,450.000000,4.000000,95.000000,,,,0.000000,4.000000,4.000000,4.000000,4.000000,4.000000,100.000000,,,,,,,,,,,,,,,,,,,,,,,,,,,,,,,,,,,,,,,,,,,,,,,,,,,,,,,,,,,,,,,
1656265697.642295,1656265697.655459,2.000000,0.000000,4228.205078,4229.230957,4109.230957,4049.743652,4204.615234,16139.000000,4.000000,95.000000,,,,0.000000,4.000000,4.000000,4.000000,4.000000,4.000000,100.000000,,,,,,,,,,,,,,,,,,,,,,,,,,,,,,,,,,,,,,,,,,,,,,,,,,,,,,,,,,,,,,,
1656265697.650114,1656265697.663376,3.000000,0.000000,4277.436035,4252.820313,4148.205078,4058.974365,4208.205078,450.000000,4.000000,95.000000,,,,0.000000,4.000000,4.000000,4.000000,4.000000,4.000000,100.000000,,,,,,,,,,,,,,,,,,,,,,,,,,,,,,,,,,,,,,,,,,,,,,,,,,,,,,,,,,,,,,,
1656265697.657934,1656265697.671194,4.000000,0.000000,4261.025879,4235.897461,4127.179688,4067.692383,4188.205078,16129.000000,4.000000,95.000000,,,,0.000000,4.000000,4.000000,4.000000,4.000000,4.000000,100.000000,,,,,,,,,,,,,,,,,,,,,,,,,,,,,,,,,,,,,,,,,,,,,,,,,,,,,,,,,,,,,,,
1656265697.665754,1656265697.679011,5.000000,0.000000,4215.897461,4195.384766,4108.205078,4075.897461,4176.410156,450.000000,4.000000,95.000000,,,,0.000000,4.000000,4.000000,4.000000,4.000000,4.000000,100.000000,,,,,,,,,,,,,,,,,,,,,,,,,,,,,,,,,,,,,,,,,,,,,,,,,,,,,,,,,,,,,,,
1656265697.673574,1656265697.686728,6.000000,0.000000,4194.871582,4167.692383,4114.358887,4044.102539,4165.641113,16172.000000,4.000000,95.000000,,,,0.000000,4.000000,4.000000,4.000000,4.000000,4.000000,100.000000,,,,,,,,,,,,,,,,,,,,,,,,,,,,,,,,,,,,,,,,,,,,,,,,,,,,,,,,,,,,,,,
1656265697.681393,1656265697.694646,7.000000,0.000000,4227.692383,4199.487305,4111.282227,4033.846191,4187.179688,450.000000,4.000000,95.000000,,,,0.000000,4.000000,4.000000,4.000000,4.000000,4.000000,100.000000,1.000000,50.000000,2.000000,2.000000,2.000000,2.000000,3.000000,,,,,,,,,,,,,,,,,,,,,,,,,,,,,,,,6.909299,2.484345,2.319262,17.699991,8.886965,6.155623,3.126823,3.454793,9.615771,4.322886,3.018015,5.775398,2.298233,2.731294,2.717773,3.903634,3.532615,4.319094,5.623898,4.507989,3.592215,3.738196,1.359684,11.118288,5.800091
1656265697.689213,1656265697.702463,8.000000,0.000000,4276.410156,4259.487305,4096.410156,4075.384521,4241.538574,450.000000,4.000000,95.000000,,,,0.000000,4.000000,4.000000,4.000000,4.000000,4.000000,100.000000,,,,,,,,,,,,,,,,,,,,,,,,,,,,,,,,,,,,,,,,,,,,,,,,,,,,,,,,,,,,,,,
1656265697.697033,1656265697.710381,9.000000,0.000000,4281.025879,4269.743652,4105.128418,4107.692383,4265.128418,16137.000000,4.000000,95.000000,,,,0.000000,4.000000,4.000000,4.000000,4.000000,4.000000,100.000000,,,,,,,,,,,,,,,,,,,,,,,,,,,,,,,,,,,,,,,,,,,,,,,,,,,,,,,,,,,,,,,
1656265697.704853,1656265697.718298,10.000000,0.000000,4259.487305,4254.358887,4150.256348,4104.102539,4239.487305,450.000000,4.000000,95.000000,,,,0.000000,4.000000,4.000000,4.000000,4.000000,4.000000,100.000000,,,,,,,,,,,,,,,,,,,,,,,,,,,,,,,,,,,,,,,,,,,,,,,,,,,,,,,,,,,,,,,
1656265697.712672,1656265697.726116,11.000000,0.000000,4243.589844,4248.717773,4153.846191,4070.256348,4206.153809,16121.000000,4.000000,95.000000,,,,0.000000,4.000000,4.000000,4.000000,4.000000,4.000000,100.000000,,,,,,,,,,,,,,,,,,,,,,,,,,,,,,,,,,,,,,,,,,,,,,,,,,,,,,,,,,,,,,,
1656265697.720492,1656265697.734034,12.000000,0.000000,4245.641113,4244.615234,4117.948730,4056.923096,4227.179688,450.000000,4.000000,95.000000,,,,0.000000,4.000000,4.000000,4.000000,4.000000,4.000000,100.000000,,,,,,,,,,,,,,,,,,,,,,,,,,,,,,,,,,,,,,,,,,,,,,,,,,,,,,,,,,,,,,,
1656265697.728312,1656265697.741852,13.000000,0.000000,4232.307617,4229.743652,4118.461426,4062.051270,4238.461426,450.000000,4.000000,95.000000,,,,0.000000,4.000000,4.000000,4.000000,4.000000,4.000000,100.000000,,,,,,,,,,,,,,,,,,,,,,,,,,,,,,,,,,,,,,,,,,,,,,,,,,,,,,,,,,,,,,,
1656265697.736132,1656265697.749670,14.000000,0.000000,4214.871582,4219.487305,4132.307617,4038.461426,4207.692383,450.000000,4.000000,95.000000,,,,0.000000,4.000000,4.000000,4.000000,4.000000,4.000000,100.000000,,,,,,,,,,,,,,,,,,,,,,,,,,,,,,,,,,,,,,,,,,,,,,,,,,,,,,,,,,,,,,,
1656265697.743951,1656265697.757388,15.000000,0.000000,4251.794922,4259.487305,4144.615234,4048.205078,4231.794922,16121.000000,4.000000,95.000000,,,,0.000000,4.000000,4.000000,4.000000,4.000000,4.000000,100.000000,,,,,,,,,,,,,,,,,,,,,,,,,,,,,,,,,,,,,,,,,,,,,,,,,,,,,,,,,,,,,,,
1656265697.751771,1656265697.765205,16.000000,0.000000,4280.000000,4286.666504,4155.384766,4074.358887,4251.794922,0.000000,4.000000,95.000000,,,,0.000000,4.000000,4.000000,4.000000,4.000000,4.000000,100.000000,,,,,,,,,,,,,,,,,,,,,,,,,,,,,,,,,,,,,,,,,,,,,,,,,,,,,,,,,,,,,,,
1656265697.759591,1656265697.772922,17.000000,0.000000,4269.230957,4263.589844,4145.641113,4056.923096,4221.025879,0.000000,4.000000,95.000000,,,,0.000000,4.000000,4.000000,4.000000,4.000000,4.000000,100.000000,,,,,,,,,,,,,,,,,,,,,,,,,,,,,,,,,,,,,,,,,,,,,,,,,,,,,,,,,,,,,,,
1656265697.767411,1656265697.780840,18.000000,0.000000,4256.922852,4232.307617,4115.384766,4041.025635,4214.358887,0.000000,4.000000,95.000000,,,,0.000000,4.000000,4.000000,4.000000,4.000000,4.000000,100.000000,,,,,,,,,,,,,,,,,,,,,,,,,,,,,,,,,,,,,,,,,,,,,,,,,,,,,,,,,,,,,,,
1656265697.775230,1656265697.788658,19.000000,0.000000,4216.922852,4202.563965,4091.281982,4045.641113,4201.538574,0.000000,4.000000,95.000000,,,,0.000000,4.000000,4.000000,4.000000,4.000000,4.000000,100.000000,,,,,,,,,,,,,,,,,,,,,,,,,,,,,,,,,,,,,,,,,,,,,,,,,,,,,,,,,,,,,,,
1656265697.783050,1656265697.796575,20.000000,0.000000,4218.461426,4218.974121,4126.153809,4067.692383,4175.384766,0.000000,4.000000,95.000000,,,,0.000000,4.000000,4.000000,4.000000,4.000000,4.000000,100.000000,,,,,,,,,,,,,,,,,,,,,,,,,,,,,,,,,,,,,,,,,,,,,,,,,,,,,,,,,,,,,,,
1656265697.790870,1656265697.804393,21.000000,0.000000,4285.128418,4251.794922,4161.538574,4078.461426,4193.846191,0.000000,4.000000,95.000000,,,,0.000000,4.000000,4.000000,4.000000,4.000000,4.000000,100.000000,,,,,,,,,,,,,,,,,,,,,,,,,,,,,,,,,,,,,,,,,,,,,,,,,,,,,,,,,,,,,,,
1656265697.798690,1656265697.812311,22.000000,0.000000,4299.487305,4243.077148,4143.077148,4067.692383,4228.717773,0.000000,4.000000,95.000000,,,,0.000000,4.000000,4.000000,4.000000,4.000000,4.000000,100.000000,,,,,,,,,,,,,,,,,,,,,,,,,,,,,,,,,,,,,,,,,,,,,,,,,,,,,,,,,,,,,,,
1656265697.806509,1656265697.820128,23.000000,0.000000,4229.743652,4220.512695,4083.589844,4062.564209,4227.692383,0.000000,4.000000,95.000000,,,,0.000000,4.000000,4.000000,4.000000,4.000000,4.000000,100.000000,,,,,,,,,,,,,,,,,,,,,,,,,,,,,,,,,,,,,,,6.939246,2.867655,2.154299,17.041277,9.209635,6.129304,3.022649,3.437641,8.983952,3.832576,3.063901,5.964798,2.392184,3.300940,3.079124,4.123908,3.129492,5.102208,5.394057,4.552589,4.070982,4.039033,1.220179,10.375839,6.232162
1656265697.814329,1656265697.828046,24.000000,0.000000,4166.153809,4189.230957,4041.538574,4052.307617,4182.051270,0.000000,4.000000,95.000000,,,,0.000000,4.000000,4.000000,4.000000,4.000000,4.000000,100.000000,,,,,,,,,,,,,,,,,,,,,,,,,,,,,,,,,,,,,,,,,,,,,,,,,,,,,,,,,,,,,,,
1656265697.822149,1656265697.835863,25.000000,0.000000,4208.717773,4205.128418,4086.153809,4058.974365,4183.077148,0.000000,4.000000,95.000000,,,,0.000000,4.000000,4.000000,4.000000,4.000000,4.000000,100.000000,,,,,,,,,,,,,,,,,,,,,,,,,,,,,,,,,,,,,,,,,,,,,,,,,,,,,,,,,,,,,,,
1656265697.829969,1656265697.843781,26.000000,0.000000,4287.179688,4276.922852,4118.461426,4079.487061,4249.230957,0.000000,4.000000,95.000000,,,,0.000000,4.000000,4.000000,4.000000,4.000000,4.000000,100.000000,,,,,,,,,,,,,,,,,,,,,,,,,,,,,,,,,,,,,,,,,,,,,,,,,,,,,,,,,,,,,,,
1656265697.837788,1656265697.851699,27.000000,0.000000,4286.666504,4289.743652,4099.487305,4080.000000,4274.871582,0.000000,4.000000,95.000000,,,,0.000000,4.000000,4.000000,4.000000,4.000000,4.000000,100.000000,,,,,,,,,,,,,,,,,,,,,,,,,,,,,,,,,,,,,,,,,,,,,,,,,,,,,,,,,,,,,,,
1656265697.845608,1656265697.859517,28.000000,0.000000,4242.563965,4229.230957,4114.871582,4059.487061,4228.205078,0.000000,4.000000,95.000000,,,,0.000000,4.000000,4.000000,4.000000,4.000000,4.000000,100.000000,,,,,,,,,,,,,,,,,,,,,,,,,,,,,,,,,,,,,,,,,,,,,,,,,,,,,,,,,,,,,,,
1656265697.853428,1656265697.867436,29.000000,0.000000,4206.153809,4180.000000,4113.333496,4034.358887,4171.794922,0.000000,4.000000,95.000000,,,,0.000000,4.000000,4.000000,4.000000,4.000000,4.000000,100.000000,,,,,,,,,,,,,,,,,,,,,,,,,,,,,,,,,,,,,,,,,,,,,,,,,,,,,,,,,,,,,,,
1656265697.861248,1656265697.875254,30.000000,0.000000,4209.230957,4192.307617,4078.974365,4037.948730,4188.717773,0.000000,4.000000,95.000000,,,,0.000000,4.000000,4.000000,4.000000,4.000000,4.000000,100.000000,,,,,,,,,,,,,,,,,,,,,,,,,,,,,,,,,,,,,,,,,,,,,,,,,,,,,,,,,,,,,,,
1656265697.869068,1656265697.883072,31.000000,0.000000,4234.358887,4208.205078,4082.564209,4036.923096,4226.666504,0.000000,4.000000,95.000000,,,,0.000000,4.000000,4.000000,4.000000,4.000000,4.000000,100.000000,,,,,,,,,,,,,,,,,,,,,,,,,,,,,,,,,,,,,,,,,,,,,,,,,,,,,,,,,,,,,,,
1656265697.876887,1656265697.890989,32.000000,0.000000,4244.102539,4200.000000,4109.230957,4019.487061,4205.641113,0.000000,4.000000,95.000000,,,,0.000000,4.000000,4.000000,4.000000,4.000000,4.000000,100.000000,,,,,,,,,,,,,,,,,,,,,,,,,,,,,,,,,,,,,,,,,,,,,,,,,,,,,,,,,,,,,,,
1656265697.884707,1656265697.898807,33.000000,0.000000,4267.692383,4218.461426,4105.128418,4051.281982,4197.948730,0.000000,4.000000,95.000000,,,,0.000000,4.000000,4.000000,4.000000,4.000000,4.000000,100.000000,,,,,,,,,,,,,,,,,,,,,,,,,,,,,,,,,,,,,,,,,,,,,,,,,,,,,,,,,,,,,,,
1656265697.892527,1656265697.906524,34.000000,0.000000,4279.487305,4229.743652,4078.974365,4090.256348,4212.820313,0.000000,4.000000,95.000000,,,,0.000000,4.000000,4.000000,4.000000,4.000000,4.000000,100.000000,,,,,,,,,,,,,,,,,,,,,,,,,,,,,,,,,,,,,,,,,,,,,,,,,,,,,,,,,,,,,,,
1656265697.900346,1656265697.914341,35.000000,0.000000,4264.102539,4227.179688,4093.846191,4092.307617,4210.769043,0.000000,4.000000,95.000000,,,,0.000000,4.000000,4.000000,4.000000,4.000000,4.000000,100.000000,,,,,,,,,,,,,,,,,,,,,,,,,,,,,,,,,,,,,,,,,,,,,,,,,,,,,,,,,,,,,,,
1656265697.908166,1656265697.922059,36.000000,0.000000,4241.538574,4216.922852,4126.153809,4073.333252,4200.000000,0.000000,4.000000,95.000000,,,,0.000000,4.000000,4.000000,4.000000,4.000000,4.000000,100.000000,,,,,,,,,,,,,,,,,,,,,,,,,,,,,,,,,,,,,,,,,,,,,,,,,,,,,,,,,,,,,,,
1656265697.915986,1656265697.929876,37.000000,0.000000,4224.102539,4181.538574,4116.410156,4037.435791,4175.897461,0.000000,4.000000,95.000000,,,,0.000000,4.000000,4.000000,4.000000,4.000000,4.000000,100.000000,,,,,,,,,,,,,,,,,,,,,,,,,,,,,,,,,,,,,,,,,,,,,,,,,,,,,,,,,,,,,,,
1656265697.923806,1656265697.937594,38.000000,0.000000,4253.846191,4205.128418,4096.410156,4035.384521,4181.538574,0.000000,4.000000,95.000000,,,,0.000000,4.000000,4.000000,4.000000,4.000000,4.000000,100.000000,,,,,,,,,,,,,,,,,,,,,,,,,,,,,,,,,,,,,,,,,,,,,,,,,,,,,,,,,,,,,,,
1656265697.931625,1656265697.945411,39.000000,0.000000,4282.051270,4275.384766,4076.410156,4069.230713,4226.666504,0.000000,4.000000,95.000000,,,,0.000000,4.000000,4.000000,4.000000,4.000000,4.000000,100.000000,,,,,,,,,,,,,,,,,,,,,,,,,,,,,,,,,,,,,,,6.563618,3.083499,1.942169,16.106602,9.294721,5.689337,2.890971,3.334951,8.463324,3.404472,3.114532,5.814732,2.690428,3.892074,3.473825,4.231669,2.958791,5.842755,5.174765,4.516880,4.614316,3.969662,1.220987,9.392831,6.512554
1656265697.939445,1656265697.953128,40.000000,0.000000,4274.871582,4276.410156,4069.230713,4075.897461,4246.153809,0.000000,4.000000,95.000000,,,,0.000000,4.000000,4.000000,4.000000,4.000000,4.000000,100.000000,,,,,,,,,,,,,,,,,,,,,,,,,,,,,,,,,,,,,,,,,,,,,,,,,,,,,,,,,,,,,,,
1656265697.947265,1656265697.960945,41.000000,0.000000,4250.256348,4220.512695,4072.307617,4030.769287,4212.820313,0.000000,4.000000,95.000000,,,,0.000000,4.000000,4.000000,4.000000,4.000000,4.000000,100.000000,,,,,,,,,,,,,,,,,,,,,,,,,,,,,,,,,,,,,,,,,,,,,,,,,,,,,,,,,,,,,,,
1656265697.955085,1656265697.968663,42.000000,0.000000,4203.589844,4188.205078,4065.128174,3986.666748,4172.307617,0.000000,4.000000,95.000000,,,,0.000000,4.000000,4.000000,4.000000,4.000000,4.000000,100.000000,,,,,,,,,,,,,,,,,,,,,,,,,,,,,,,,,,,,,,,,,,,,,,,,,,,,,,,,,,,,,,,
1656265697.962905,1656265697.976480,43.000000,0.000000,4222.051270,4216.410156,4080.512939,4037.435791,4190.769043,0.000000,4.000000,95.000000,,,,0.000000,4.000000,4.000000,4.000000,4.000000,4.000000,100.000000,,,,,,,,,,,,,,,,,,,,,,,,,,,,,,,,,,,,,,,,,,,,,,,,,,,,,,,,,,,,,,,
1656265697.970724,1656265697.984197,44.000000,0.000000,4303.077148,4247.179688,4096.922852,4107.179688,4229.230957,0.000000,4.000000,95.000000,,,,0.000000,4.000000,4.000000,4.000000,4.000000,4.000000,100.000000,,,,,,,,,,,,,,,,,,,,,,,,,,,,,,,,,,,,,,,,,,,,,,,,,,,,,,,,,,,,,,,
1656265697.978544,1656265697.992115,45.000000,0.000000,4313.333496,4230.769043,4086.153809,4082.564209,4244.615234,0.000000,4.000000,95.000000,,,,0.000000,4.000000,4.000000,4.000000,4.000000,4.000000,100.000000,,,,,,,,,,,,,,,,,,,,,,,,,,,,,,,,,,,,,,,,,,,,,,,,,,,,,,,,,,,,,,,
1656265697.986364,1656265697.999933,46.000000,0.000000,4237.948730,4201.538574,4082.051270,4025.641113,4226.153809,0.000000,4.000000,95.000000,,,,0.000000,4.000000,4.000000,4.000000,4.000000,4.000000,100.000000,,,,,,,,,,,,,,,,,,,,,,,,,,,,,,,,,,,,,,,,,,,,,,,,,,,,,,,,,,,,,,,
1656265697.994183,1656265698.007850,47.000000,0.000000,4174.871582,4186.153809,4088.205078,4001.538574,4164.615234,0.000000,4.000000,95.000000,,,,0.000000,4.000000,4.000000,4.000000,4.000000,4.000000,100.000000,,,,,,,,,,,,,,,,,,,,,,,,,,,,,,,,,,,,,,,,,,,,,,,,,,,,,,,,,,,,,,,
1656265698.002003,1656265698.015668,48.000000,0.000000,4204.615234,4202.051270,4088.718018,4028.205078,4173.333496,0.000000,4.000000,95.000000,,,,0.000000,4.000000,4.000000,4.000000,4.000000,4.000000,100.000000,,,,,,,,,,,,,,,,,,,,,,,,,,,,,,,,,,,,,,,,,,,,,,,,,,,,,,,,,,,,,,,
1656265698.009823,1656265698.023586,49.000000,0.000000,4276.410156,4221.025879,4082.051270,4079.487061,4256.922852,0.000000,4.000000,95.000000,,,,0.000000,4.000000,4.000000,4.000000,4.000000,4.000000,100.000000,,,,,,,,,,,,,,,,,,,,,,,,,,,,,,,,,,,,,,,,,,,,,,,,,,,,,,,,,,,,,,,
1656265698.017643,1656265698.031403,50.000000,0.000000,4282.051270,4224.102539,4102.051270,4087.692383,4259.487305,0.000000,4.000000,95.000000,,,,0.000000,4.000000,4.000000,4.000000,4.000000,4.000000,100.000000,,,,,,,,,,,,,,,,,,,,,,,,,,,,,,,,,,,,,,,,,,,,,,,,,,,,,,,,,,,,,,,
1656265698.025463,1656265698.039321,51.000000,0.000000,4244.615234,4228.717773,4111.794922,4062.051270,4195.897461,0.000000,4.000000,95.000000,,,,0.000000,4.000000,4.000000,4.000000,4.000000,4.000000,100.000000,,,,,,,,,,,,,,,,,,,,,,,,,,,,,,,,,,,,,,,,,,,,,,,,,,,,,,,,,,,,,,,
1656265698.033282,1656265698.047138,52.000000,0.000000,4240.512695,4226.666504,4064.615479,4056.410156,4182.051270,0.000000,4.000000,95.000000,,,,0.000000,4.000000,4.000000,4.000000,4.000000,4.000000,100.000000,,,,,,,,,,,,,,,,,,,,,,,,,,,,,,,,,,,,,,,,,,,,,,,,,,,,,,,,,,,,,,,
1656265698.041102,1656265698.055056,53.000000,0.000000,4262.563965,4231.794922,4052.820557,4064.102539,4218.461426,0.000000,4.000000,95.000000,,,,0.000000,4.000000,4.000000,4.000000,4.000000,4.000000,100.000000,,,,,,,,,,,,,,,,,,,,,,,,,,,,,,,,,,,,,,,,,,,,,,,,,,,,,,,,,,,,,,,
1656265698.048922,1656265698.062873,54.000000,0.000000,4250.256348,4229.743652,4089.743652,4032.307617,4218.461426,0.000000,4.000000,95.000000,,,,0.000000,4.000000,4.000000,4.000000,4.000000,4.000000,100.000000,,,,,,,,,,,,,,,,,,,,,,,,,,,,,,,,,,,,,,,,,,,,,,,,,,,,,,,,,,,,,,,
1656265698.056742,1656265698.070791,55.000000,0.000000,4216.410156,4213.333496,4086.153809,4018.461426,4191.794922,0.000000,4.000000,95.000000,,,,0.000000,4.000000,4.000000,4.000000,4.000000,4.000000,100.000000,,,,,,,,,,,,,,,,,,,,,,,,,,,,,,,,,,,,,,,5.901076,3.079801,1.761914,15.278795,9.070984,4.986659,2.747922,3.188461,8.375107,3.131473,3.127714,5.268044,3.083218,4.462741,3.830917,4.115719,3.084180,6.292425,4.919761,4.417085,5.216176,3.615810,1.432859,8.367711,6.528655
1656265698.064561,1656265698.078608,56.000000,0.000000,4229.743652,4216.922852,4069.743652,4052.307617,4205.128418,0.000000,4.000000,95.000000,,,,0.000000,4.000000,4.000000,4.000000,4.000000,4.000000,100.000000,,,,,,,,,,,,,,,,,,,,,,,,,,,,,,,,,,,,,,,,,,,,,,,,,,,,,,,,,,,,,,,
1656265698.072381,1656265698.086325,57.000000,0.000000,4264.615234,4218.974121,4090.769287,4031.281982,4222.563965,0.000000,4.000000,95.000000,,,,0.000000,4.000000,4.000000,4.000000,4.000000,4.000000,100.000000,,,,,,,,,,,,,,,,,,,,,,,,,,,,,,,,,,,,,,,,,,,,,,,,,,,,,,,,,,,,,,,
1656265698.080201,1656265698.094143,58.000000,0.000000,4281.025879,4224.615234,4120.512695,4009.230713,4221.538574,0.000000,4.000000,95.000000,,,,0.000000,4.000000,4.000000,4.000000,4.000000,4.000000,100.000000,,,,,,,,,,,,,,,,,,,,,,,,,,,,,,,,,,,,,,,,,,,,,,,,,,,,,,,,,,,,,,,
1656265698.088021,1656265698.101860,59.000000,0.000000,4263.589844,4225.641113,4092.307617,4056.410156,4209.230957,0.000000,4.000000,95.000000,,,,0.000000,4.000000,4.000000,4.000000,4.000000,4.000000,100.000000,,,,,,,,,,,,,,,,,,,,,,,,,,,,,,,,,,,,,,,,,,,,,,,,,,,,,,,,,,,,,,,
1656265698.095840,1656265698.109778,60.000000,0.000000,4227.692383,4201.025879,4047.179443,4059.487061,4184.102539,0.000000,4.000000,95.000000,,,,0.000000,4.000000,4.000000,4.000000,4.000000,4.000000,100.000000,,,,,,,,,,,,,,,,,,,,,,,,,,,,,,,,,,,,,,,,,,,,,,,,,,,,,,,,,,,,,,,
1656265698.103660,1656265698.117596,61.000000,0.000000,4253.846191,4206.153809,4064.102539,4038.974365,4211.282227,0.000000,4.000000,95.000000,,,,0.000000,4.000000,4.000000,4.000000,4.000000,4.000000,100.000000,,,,,,,,,,,,,,,,,,,,,,,,,,,,,,,,,,,,,,,,,,,,,,,,,,,,,,,,,,,,,,,
1656265698.111480,1656265698.125414,62.000000,0.000000,4300.000000,4230.256348,4078.974365,4067.692383,4255.384766,0.000000,4.000000,95.000000,,,,0.000000,4.000000,4.000000,4.000000,4.000000,4.000000,100.000000,,,,,,,,,,,,,,,,,,,,,,,,,,,,,,,,,,,,,,,,,,,,,,,,,,,,,,,,,,,,,,,
1656265698.119300,1656265698.133131,63.000000,0.000000,4271.282227,4237.948730,4073.333252,4091.794922,4234.358887,0.000000,4.000000,95.000000,,,,0.000000,4.000000,4.000000,4.000000,4.000000,4.000000,100.000000,,,,,,,,,,,,,,,,,,,,,,,,,,,,,,,,,,,,,,,,,,,,,,,,,,,,,,,,,,,,,,,
1656265698.127119,1656265698.141049,64.000000,0.000000,4203.077148,4216.410156,4071.281982,4070.256348,4197.436035,450.000000,4.000000,95.000000,,,,0.000000,4.000000,4.000000,4.000000,4.000000,4.000000,100.000000,,,,,,,,,,,,,,,,,,,,,,,,,,,,,,,,,,,,,,,,,,,,,,,,,,,,,,,,,,,,,,,
1656265698.134939,1656265698.148867,65.000000,0.000000,4181.538574,4158.974121,4057.948730,4029.743652,4180.000000,450.000000,4.000000,95.000000,,,,0.000000,4.000000,4.000000,4.000000,4.000000,4.000000,100.000000,,,,,,,,,,,,,,,,,,,,,,,,,,,,,,,,,,,,,,,,,,,,,,,,,,,,,,,,,,,,,,,
1656265698.142759,1656265698.156784,66.000000,0.000000,4240.000000,4184.615234,4069.230713,4032.307617,4192.307617,16160.000000,4.000000,95.000000,,,,0.000000,4.000000,4.000000,4.000000,4.000000,4.000000,100.000000,,,,,,,,,,,,,,,,,,,,,,,,,,,,,,,,,,,,,,,,,,,,,,,,,,,,,,,,,,,,,,,
1656265698.150579,1656265698.164602,67.000000,0.000000,4293.846191,4282.563965,4085.128174,4057.435791,4239.487305,450.000000,4.000000,95.000000,,,,0.000000,4.000000,4.000000,4.000000,4.000000,4.000000,100.000000,,,,,,,,,,,,,,,,,,,,,,,,,,,,,,,,,,,,,,,,,,,,,,,,,,,,,,,,,,,,,,,
1656265698.158399,1656265698.172520,68.000000,0.000000,4287.179688,4274.871582,4083.589844,4063.076904,4260.000000,16145.000000,4.000000,95.000000,,,,0.000000,4.000000,4.000000,4.000000,4.000000,4.000000,100.000000,,,,,,,,,,,,,,,,,,,,,,,,,,,,,,,,,,,,,,,,,,,,,,,,,,,,,,,,,,,,,,,
1656265698.166218,1656265698.180337,69.000000,0.000000,4243.077148,4208.717773,4074.358887,4051.281982,4221.025879,450.000000,4.000000,95.000000,,,,0.000000,4.000000,4.000000,4.000000,4.000000,4.000000,100.000000,,,,,,,,,,,,,,,,,,,,,,,,,,,,,,,,,,,,,,,,,,,,,,,,,,,,,,,,,,,,,,,
1656265698.174038,1656265698.188255,70.000000,0.000000,4193.333496,4200.000000,4045.641113,4022.051270,4171.794922,16183.000000,4.000000,95.000000,,,,0.000000,4.000000,4.000000,4.000000,4.000000,4.000000,100.000000,,,,,,,,,,,,,,,,,,,,,,,,,,,,,,,,,,,,,,,,,,,,,,,,,,,,,,,,,,,,,,,
1656265698.181858,1656265698.196073,71.000000,0.000000,4218.461426,4242.051270,4060.512939,4033.846191,4183.077148,450.000000,4.000000,95.000000,,,,0.000000,4.000000,4.000000,4.000000,4.000000,4.000000,100.000000,1.000000,50.000000,2.000000,2.000000,2.000000,2.000000,3.000000,,,,,,,,,,,,,,,,,,,,,,,,,,,,,,,,5.151190,2.867450,1.717755,14.907856,8.576759,4.287603,2.698523,3.089180,8.896673,3.076377,3.089911,4.386775,3.475778,5.016888,4.084330,3.742577,3.488171,6.375165,4.637840,4.293874,5.884677,3.218441,1.859644,7.504491,6.283399
1656265698.189677,1656265698.203990,72.000000,0.000000,4260.512695,4277.436035,4122.051270,4053.333252,4204.615234,450.000000,4.000000,95.000000,,,,0.000000,4.000000,4.000000,4.000000,4.000000,4.000000,100.000000,,,,,,,,,,,,,,,,,,,,,,,,,,,,,,,,,,,,,,,,,,,,,,,,,,,,,,,,,,,,,,,
1656265698.197497,1656265698.211808,73.000000,0.000000,4237.436035,4251.282227,4120.000000,4027.179443,4196.922852,16164.000000,4.000000,95.000000,,,,0.000000,4.000000,4.000000,4.000000,4.000000,4.000000,100.000000,,,,,,,,,,,,,,,,,,,,,,,,,,,,,,,,,,,,,,,,,,,,,,,,,,,,,,,,,,,,,,,
1656265698.205317,1656265698.219725,74.000000,0.000000,4218.461426,4214.358887,4060.000000,4021.025635,4206.153809,450.000000,4.000000,95.000000,,,,0.000000,4.000000,4.000000,4.000000,4.000000,4.000000,100.000000,,,,,,,,,,,,,,,,,,,,,,,,,,,,,,,,,,,,,,,,,,,,,,,,,,,,,,,,,,,,,,,
1656265698.213137,1656265698.227543,75.000000,0.000000,4211.794922,4212.820313,4032.820557,4036.410156,4197.948730,16091.000000,4.000000,95.000000,,,,0.000000,4.000000,4.000000,4.000000,4.000000,4.000000,100.000000,,,,,,,,,,,,,,,,,,,,,,,,,,,,,,,,,,,,,,,,,,,,,,,,,,,,,,,,,,,,,,,
1656265698.220956,1656265698.235460,76.000000,0.000000,4218.974121,4229.230957,4058.461426,4033.333252,4183.077148,450.000000,4.000000,95.000000,,,,0.000000,4.000000,4.000000,4.000000,4.000000,4.000000,100.000000,,,,,,,,,,,,,,,,,,,,,,,,,,,,,,,,,,,,,,,,,,,,,,,,,,,,,,,,,,,,,,,
1656265698.228776,1656265698.243278,77.000000,0.000000,4238.974121,4223.077148,4066.153809,4029.230713,4197.948730,450.000000,4.000000,95.000000,,,,0.000000,4.000000,4.000000,4.000000,4.000000,4.000000,100.000000,,,,,,,,,,,,,,,,,,,,,,,,,,,,,,,,,,,,,,,,,,,,,,,,,,,,,,,,,,,,,,,
1656265698.236596,1656265698.251195,78.000000,0.000000,4212.307617,4189.230957,4033.846191,4030.256348,4199.487305,450.000000,4.000000,95.000000,,,,0.000000,4.000000,4.000000,4.000000,4.000000,4.000000,100.000000,,,,,,,,,,,,,,,,,,,,,,,,,,,,,,,,,,,,,,,,,,,,,,,,,,,,,,,,,,,,,,,
1656265698.244416,1656265698.259013,79.000000,0.000000,4192.820313,4194.871582,4030.769287,4036.923096,4206.666504,16091.000000,4.000000,95.000000,,,,0.000000,4.000000,4.000000,4.000000,4.000000,4.000000,100.000000,,,,,,,,,,,,,,,,,,,,,,,,,,,,,,,,,,,,,,,,,,,,,,,,,,,,,,,,,,,,,,,
1656265698.252236,1656265698.266830,80.000000,0.000000,4232.820313,4226.666504,4043.589844,4035.384521,4228.205078,450.000000,4.000000,95.000000,,,,0.000000,4.000000,4.000000,4.000000,4.000000,4.000000,100.000000,,,,,,,,,,,,,,,,,,,,,,,,,,,,,,,,,,,,,,,,,,,,,,,,,,,,,,,,,,,,,,,
1656265698.260055,1656265698.274648,81.000000,0.000000,4251.282227,4226.666504,4048.718018,4026.153809,4221.538574,450.000000,4.000000,95.000000,,,,0.000000,4.000000,4.000000,4.000000,4.000000,4.000000,100.000000,,,,,,,,,,,,,,,,,,,,,,,,,,,,,,,,,,,,,,,,,,,,,,,,,,,,,,,,,,,,,,,
1656265698.267875,1656265698.282365,82.000000,0.000000,4196.410156,4203.077148,4070.256348,4023.076904,4172.820313,450.000000,4.000000,95.000000,,,,0.000000,4.000000,4.000000,4.000000,4.000000,4.000000,100.000000,,,,,,,,,,,,,,,,,,,,,,,,,,,,,,,,,,,,,,,,,,,,,,,,,,,,,,,,,,,,,,,
1656265698.275695,1656265698.290183,83.000000,0.000000,4152.820313,4187.692383,4072.307617,4012.820557,4149.230957,16091.000000,4.000000,95.000000,,,,0.000000,4.000000,4.000000,4.000000,4.000000,4.000000,100.000000,,,,,,,,,,,,,,,,,,,,,,,,,,,,,,,,,,,,,,,,,,,,,,,,,,,,,,,,,,,,,,,
1656265698.283514,1656265698.297900,84.000000,0.000000,4205.641113,4213.846191,4052.820557,4013.846191,4203.077148,450.000000,4.000000,95.000000,,,,0.000000,4.000000,4.000000,4.000000,4.000000,4.000000,100.000000,,,,,,,,,,,,,,,,,,,,,,,,,,,,,,,,,,,,,,,,,,,,,,,,,,,,,,,,,,,,,,,
1656265698.291334,1656265698.305818,85.000000,0.000000,4264.615234,4250.769043,4060.000000,4016.923096,4233.333496,450.000000,4.000000,95.000000,,,,0.000000,4.000000,4.000000,4.000000,4.000000,4.000000,100.000000,,,,,,,,,,,,,,,,,,,,,,,,,,,,,,,,,,,,,,,,,,,,,,,,,,,,,,,,,,,,,,,
1656265698.299154,1656265698.313636,86.000000,0.000000,4238.461426,4245.641113,4083.076904,4023.589844,4211.794922,450.000000,4.000000,95.000000,,,,0.000000,4.000000,4.000000,4.000000,4.000000,4.000000,100.000000,,,,,,,,,,,,,,,,,,,,,,,,,,,,,,,,,,,,,,,,,,,,,,,,,,,,,,,,,,,,,,,
1656265698.306974,1656265698.321554,87.000000,0.000000,4195.897461,4191.282227,4064.615479,4043.076904,4192.820313,16091.000000,4.000000,95.000000,,,,0.000000,4.000000,4.000000,4.000000,4.000000,4.000000,100.000000,,,,,,,,,,,,,,,,,,,,,,,,,,,,,,,,,,,,,,,4.458745,2.498283,1.930676,15.161611,7.963583,3.731421,2.849926,3.108548,9.922054,3.237911,3.057049,3.345496,3.822325,5.571460,4.188467,3.127474,4.089905,6.183806,4.411870,4.212549,6.546318,3.006557,2.433123,6.944046,5.911082
1656265698.314793,1656265698.329372,88.000000,0.000000,4174.358887,4155.897461,4020.512939,4038.461426,4167.692383,450.000000,4.000000,95.000000,,,,0.000000,4.000000,4.000000,4.000000,4.000000,4.000000,100.000000,,,,,,,,,,,,,,,,,,,,,,,,,,,,,,,,,,,,,,,,,,,,,,,,,,,,,,,,,,,,,,,
1656265698.322613,1656265698.337289,89.000000,0.000000,4192.820313,4189.230957,4038.461426,4032.307617,4173.846191,450.000000,4.000000,95.000000,,,,0.000000,4.000000,4.000000,4.000000,4.000000,4.000000,100.000000,,,,,,,,,,,,,,,,,,,,,,,,,,,,,,,,,,,,,,,,,,,,,,,,,,,,,,,,,,,,,,,
1656265698.330433,1656265698.345107,90.000000,0.000000,4253.846191,4203.589844,4073.846191,4051.281982,4218.974121,450.000000,4.000000,95.000000,,,,0.000000,4.000000,4.000000,4.000000,4.000000,4.000000,100.000000,,,,,,,,,,,,,,,,,,,,,,,,,,,,,,,,,,,,,,,,,,,,,,,,,,,,,,,,,,,,,,,
1656265698.338253,1656265698.353025,91.000000,0.000000,4281.025879,4198.974121,4066.153809,4060.000000,4235.384766,16091.000000,4.000000,95.000000,,,,0.000000,4.000000,4.000000,4.000000,4.000000,4.000000,100.000000,,,,,,,,,,,,,,,,,,,,,,,,,,,,,,,,,,,,,,,,,,,,,,,,,,,,,,,,,,,,,,,
1656265698.346073,1656265698.360843,92.000000,0.000000,4253.846191,4214.358887,4068.205078,4034.871826,4206.666504,450.000000,4.000000,95.000000,,,,0.000000,4.000000,4.000000,4.000000,4.000000,4.000000,100.000000,,,,,,,,,,,,,,,,,,,,,,,,,,,,,,,,,,,,,,,,,,,,,,,,,,,,,,,,,,,,,,,
1656265698.353892,1656265698.368760,93.000000,0.000000,4222.563965,4192.307617,4066.666748,4008.205078,4166.153809,450.000000,4.000000,95.000000,,,,0.000000,4.000000,4.000000,4.000000,4.000000,4.000000,100.000000,,,,,,,,,,,,,,,,,,,,,,,,,,,,,,,,,,,,,,,,,,,,,,,,,,,,,,,,,,,,,,,
1656265698.361712,1656265698.376578,94.000000,0.000000,4228.717773,4190.256348,4060.000000,4032.307617,4173.846191,450.000000,4.000000,95.000000,,,,0.000000,4.000000,4.000000,4.000000,4.000000,4.000000,100.000000,,,,,,,,,,,,,,,,,,,,,,,,,,,,,,,,,,,,,,,,,,,,,,,,,,,,,,,,,,,,,,,
1656265698.369532,1656265698.384496,95.000000,0.000000,4226.153809,4238.974121,4081.025635,4060.512939,4203.589844,16091.000000,4.000000,95.000000,,,,0.000000,4.000000,4.000000,4.000000,4.000000,4.000000,100.000000,,,,,,,,,,,,,,,,,,,,,,,,,,,,,,,,,,,,,,,,,,,,,,,,,,,,,,,,,,,,,,,
1656265698.377352,1656265698.392313,96.000000,0.000000,4204.102539,4240.512695,4093.846191,4040.512939,4191.282227,450.000000,4.000000,95.000000,,,,0.000000,4.000000,4.000000,4.000000,4.000000,4.000000,100.000000,,,,,,,,,,,,,,,,,,,,,,,,,,,,,,,,,,,,,,,,,,,,,,,,,,,,,,,,,,,,,,,
1656265698.385171,1656265698.400231,97.000000,0.000000,4216.922852,4225.641113,4073.846191,4025.128174,4181.538574,450.000000,4.000000,95.000000,,,,0.000000,4.000000,4.000000,4.000000,4.000000,4.000000,100.000000,,,,,,,,,,,,,,,,,,,,,,,,,,,,,,,,,,,,,,,,,,,,,,,,,,,,,,,,,,,,,,,
1656265698.392991,1656265698.408049,98.000000,0.000000,4230.256348,4233.333496,4056.410156,4020.000000,4201.025879,450.000000,4.000000,95.000000,,,,0.000000,4.000000,4.000000,4.000000,4.000000,4.000000,100.000000,,,,,,,,,,,,,,,,,,,,,,,,,,,,,,,,,,,,,,,,,,,,,,,,,,,,,,,,,,,,,,,
1656265698.400811,1656265698.415966,99.000000,0.000000,4233.333496,4223.589844,4082.564209,4034.358887,4223.589844,16091.000000,4.000000,95.000000,,,,0.000000,4.000000,4.000000,4.000000,4.000000,4.000000,100.000000,,,,,,,,,,,,,,,,,,,,,,,,,,,,,,,,,,,,,,,,,,,,,,,,,,,,,,,,,,,,,,,
1656265698.408630,1656265698.423784,100.000000,0.000000,4246.153809,4211.794922,4100.512695,4067.179443,4215.897461,450.000000,4.000000,95.000000,,,,0.000000,4.000000,4.000000,4.000000,4.000000,4.000000,100.000000,,,,,,,,,,,,,,,,,,,,,,,,,,,,,,,,,,,,,,,,,,,,,,,,,,,,,,,,,,,,,,,
1656265698.416450,1656265698.431701,101.000000,0.000000,4231.794922,4201.025879,4073.846191,4057.948730,4181.025879,450.000000,4.000000,95.000000,,,,0.000000,4.000000,4.000000,4.000000,4.000000,4.000000,100.000000,,,,,,,,,,,,,,,,,,,,,,,,,,,,,,,,,,,,,,,,,,,,,,,,,,,,,,,,,,,,,,,
1656265698.424270,1656265698.439519,102.000000,0.000000,4223.589844,4193.333496,4054.358887,4043.076904,4207.692383,450.000000,4.000000,95.000000,,,,0.000000,4.000000,4.000000,4.000000,4.000000,4.000000,100.000000,,,,,,,,,,,,,,,,,,,,,,,,,,,,,,,,,,,,,,,,,,,,,,,,,,,,,,,,,,,,,,,
1656265698.432090,1656265698.447236,103.000000,0.000000,4247.179688,4211.794922,4050.256348,4057.435791,4264.102539,16091.000000,4.000000,95.000000,,,,0.000000,4.000000,4.000000,4.000000,4.000000,4.000000,100.000000,,,,,,,,,,,,,,,,,,,,,,,,,,,,,,,,,,,,,,,3.933243,2.035050,2.450967,15.934824,7.446883,3.374680,3.254997,3.246962,11.077377,3.575310,3.090731,2.405217,4.056984,6.102363,4.147407,2.405452,4.748232,5.865330,4.332626,4.219185,7.055822,3.042279,3.002329,6.716486,5.601292
1656265698.439910,1656265698.455054,104.000000,0.000000,4257.948730,4249.230957,4081.025635,4065.641113,4246.666504,450.000000,4.000000,95.000000,,,,0.000000,4.000000,4.000000,4.000000,4.000000,4.000000,100.000000,,,,,,,,,,,,,,,,,,,,,,,,,,,,,,,,,,,,,,,,,,,,,,,,,,,,,,,,,,,,,,,
1656265698.447729,1656265698.462771,105.000000,0.000000,4226.153809,4217.948730,4105.128418,4048.205078,4185.641113,450.000000,4.000000,95.000000,,,,0.000000,4.000000,4.000000,4.000000,4.000000,4.000000,100.000000,,,,,,,,,,,,,,,,,,,,,,,,,,,,,,,,,,,,,,,,,,,,,,,,,,,,,,,,,,,,,,,
1656265698.455549,1656265698.470689,106.000000,0.000000,4187.179688,4151.282227,4071.281982,4027.692383,4171.282227,450.000000,4.000000,95.000000,,,,0.000000,4.000000,4.000000,4.000000,4.000000,4.000000,100.000000,,,,,,,,,,,,,,,,,,,,,,,,,,,,,,,,,,,,,,,,,,,,,,,,,,,,,,,,,,,,,,,
1656265698.463369,1656265698.478507,107.000000,0.000000,4207.692383,4177.948730,4062.051270,4037.948730,4205.641113,16091.000000,4.000000,95.000000,,,,0.000000,4.000000,4.000000,4.000000,4.000000,4.000000,100.000000,,,,,,,,,,,,,,,,,,,,,,,,,,,,,,,,,,,,,,,,,,,,,,,,,,,,,,,,,,,,,,,
1656265698.471189,1656265698.486425,108.000000,0.000000,4243.077148,4217.948730,4088.718018,4041.538574,4212.307617,450.000000,4.000000,95.000000,,,,0.000000,4.000000,4.000000,4.000000,4.000000,4.000000,100.000000,,,,,,,,,,,,,,,,,,,,,,,,,,,,,,,,,,,,,,,,,,,,,,,,,,,,,,,,,,,,,,,
1656265698.479008,1656265698.494243,109.000000,0.000000,4251.282227,4221.538574,4102.051270,4043.076904,4190.769043,450.000000,4.000000,95.000000,,,,0.000000,4.000000,4.000000,4.000000,4.000000,4.000000,100.000000,,,,,,,,,,,,,,,,,,,,,,,,,,,,,,,,,,,,,,,,,,,,,,,,,,,,,,,,,,,,,,,
1656265698.486828,1656265698.502061,110.000000,0.000000,4224.615234,4201.538574,4082.564209,4061.538574,4186.153809,450.000000,4.000000,95.000000,,,,0.000000,4.000000,4.000000,4.000000,4.000000,4.000000,100.000000,,,,,,,,,,,,,,,,,,,,,,,,,,,,,,,,,,,,,,,,,,,,,,,,,,,,,,,,,,,,,,,
1656265698.494648,1656265698.509778,111.000000,0.000000,4165.641113,4156.410156,4042.564209,4041.025635,4179.487305,16091.000000,4.000000,95.000000,,,,0.000000,4.000000,4.000000,4.000000,4.000000,4.000000,100.000000,,,,,,,,,,,,,,,,,,,,,,,,,,,,,,,,,,,,,,,,,,,,,,,,,,,,,,,,,,,,,,,
1656265698.502468,1656265698.517596,112.000000,0.000000,4188.717773,4175.384766,4052.307617,4025.641113,4180.512695,450.000000,4.000000,95.000000,,,,0.000000,4.000000,4.000000,4.000000,4.000000,4.000000,100.000000,,,,,,,,,,,,,,,,,,,,,,,,,,,,,,,,,,,,,,,,,,,,,,,,,,,,,,,,,,,,,,,
1656265698.510287,1656265698.525313,113.000000,0.000000,4255.384766,4222.051270,4080.000000,4057.435791,4194.358887,450.000000,4.000000,95.000000,,,,0.000000,4.000000,4.000000,4.000000,4.000000,4.000000,100.000000,,,,,,,,,,,,,,,,,,,,,,,,,,,,,,,,,,,,,,,,,,,,,,,,,,,,,,,,,,,,,,,
1656265698.518107,1656265698.533231,114.000000,0.000000,4254.358887,4218.974121,4070.769287,4074.871826,4200.512695,450.000000,4.000000,95.000000,,,,0.000000,4.000000,4.000000,4.000000,4.000000,4.000000,100.000000,,,,,,,,,,,,,,,,,,,,,,,,,,,,,,,,,,,,,,,,,,,,,,,,,,,,,,,,,,,,,,,
1656265698.525927,1656265698.541048,115.000000,0.000000,4219.487305,4201.538574,4063.589844,4063.076904,4184.102539,16091.000000,4.000000,95.000000,,,,0.000000,4.000000,4.000000,4.000000,4.000000,4.000000,100.000000,,,,,,,,,,,,,,,,,,,,,,,,,,,,,,,,,,,,,,,,,,,,,,,,,,,,,,,,,,,,,,,
1656265698.533747,1656265698.548966,116.000000,0.000000,4194.871582,4180.512695,4063.076904,4042.564209,4156.410156,450.000000,4.000000,95.000000,,,,0.000000,4.000000,4.000000,4.000000,4.000000,4.000000,100.000000,,,,,,,,,,,,,,,,,,,,,,,,,,,,,,,,,,,,,,,,,,,,,,,,,,,,,,,,,,,,,,,
1656265698.541566,1656265698.556784,117.000000,0.000000,4217.436035,4184.615234,4065.641113,4039.487061,4185.128418,450.000000,4.000000,95.000000,,,,0.000000,4.000000,4.000000,4.000000,4.000000,4.000000,100.000000,,,,,,,,,,,,,,,,,,,,,,,,,,,,,,,,,,,,,,,,,,,,,,,,,,,,,,,,,,,,,,,
1656265698.549386,1656265698.564701,118.000000,0.000000,4247.179688,4214.358887,4083.589844,4050.769287,4211.794922,450.000000,4.000000,95.000000,,,,0.000000,4.000000,4.000000,4.000000,4.000000,4.000000,100.000000,,,,,,,,,,,,,,,,,,,,,,,,,,,,,,,,,,,,,,,,,,,,,,,,,,,,,,,,,,,,,,,
1656265698.557206,1656265698.572519,119.000000,0.000000,4225.641113,4207.179688,4093.846191,4041.538574,4175.384766,16091.000000,4.000000,95.000000,,,,0.000000,4.000000,4.000000,4.000000,4.000000,4.000000,100.000000,,,,,,,,,,,,,,,,,,,,,,,,,,,,,,,,,,,,,,,3.564469,1.557363,3.259175,16.910576,7.213058,3.197670,3.879519,3.416874,11.889990,4.034215,3.188069,1.819224,4.114661,6.505577,4.013774,1.735417,5.324930,5.562519,4.414514,4.305908,7.191248,3.218183,3.401375,6.797476,5.485658
1656265698.565026,1656265698.580437,120.000000,0.000000,4208.717773,4212.820313,4082.051270,4046.153809,4180.000000,450.000000,4.000000,95.000000,,,,0.000000,4.000000,4.000000,4.000000,4.000000,4.000000,100.000000,,,,,,,,,,,,,,,,,,,,,,,,,,,,,,,,,,,,,,,,,,,,,,,,,,,,,,,,,,,,,,,
1656265698.572845,1656265698.588255,121.000000,0.000000,4214.871582,4246.666504,4068.205078,4069.230713,4205.641113,450.000000,4.000000,95.000000,,,,0.000000,4.000000,4.000000,4.000000,4.000000,4.000000,100.000000,,,,,,,,,,,,,,,,,,,,,,,,,,,,,,,,,,,,,,,,,,,,,,,,,,,,,,,,,,,,,,,
1656265698.580665,1656265698.596072,122.000000,0.000000,4216.922852,4231.794922,4068.718018,4068.205078,4205.128418,450.000000,4.000000,95.000000,,,,0.000000,4.000000,4.000000,4.000000,4.000000,4.000000,100.000000,,,,,,,,,,,,,,,,,,,,,,,,,,,,,,,,,,,,,,,,,,,,,,,,,,,,,,,,,,,,,,,
1656265698.588485,1656265698.603789,123.000000,0.000000,4197.948730,4191.282227,4057.948730,4049.743652,4196.922852,16091.000000,4.000000,95.000000,,,,0.000000,4.000000,4.000000,4.000000,4.000000,4.000000,100.000000,,,,,,,,,,,,,,,,,,,,,,,,,,,,,,,,,,,,,,,,,,,,,,,,,,,,,,,,,,,,,,,
1656265698.596305,1656265698.611707,124.000000,0.000000,4164.102539,4180.000000,4035.384521,4041.025635,4183.077148,450.000000,4.000000,95.000000,,,,0.000000,4.000000,4.000000,4.000000,4.000000,4.000000,100.000000,,,,,,,,,,,,,,,,,,,,,,,,,,,,,,,,,,,,,,,,,,,,,,,,,,,,,,,,,,,,,,,
1656265698.604124,1656265698.619524,125.000000,0.000000,4192.820313,4200.000000,4049.743652,4054.871826,4188.717773,450.000000,4.000000,95.000000,,,,0.000000,4.000000,4.000000,4.000000,4.000000,4.000000,100.000000,,,,,,,,,,,,,,,,,,,,,,,,,,,,,,,,,,,,,,,,,,,,,,,,,,,,,,,,,,,,,,,
1656265698.611944,1656265698.627242,126.000000,0.000000,4253.846191,4204.615234,4075.897461,4066.153809,4210.256348,450.000000,4.000000,95.000000,,,,0.000000,4.000000,4.000000,4.000000,4.000000,4.000000,100.000000,,,,,,,,,,,,,,,,,,,,,,,,,,,,,,,,,,,,,,,,,,,,,,,,,,,,,,,,,,,,,,,
1656265698.619764,1656265698.635059,127.000000,0.000000,4247.692383,4193.333496,4083.076904,4068.205078,4220.000000,243.000000,4.000000,95.000000,,,,0.000000,4.000000,4.000000,4.000000,4.000000,4.000000,100.000000,,,,,,,,,,,,,,,,,,,,,,,,,,,,,,,,,,,,,,,,,,,,,,,,,,,,,,,,,,,,,,,
1656265698.627584,1656265698.642777,0.000000,0.000000,4192.820313,4194.871582,4068.718018,4050.769287,4197.436035,450.000000,4.000000,95.000000,,,,0.000000,4.000000,4.000000,4.000000,4.000000,4.000000,100.000000,,,,,,,,,,,,,,,,,,,,,,,,,,,,,,,,,,,,,,,,,,,,,,,,,,,,,,,,,,,,,,,
1656265698.635404,1656265698.650594,1.000000,0.000000,4166.153809,4181.538574,4042.564209,4024.615479,4168.717773,450.000000,4.000000,95.000000,,,,0.000000,4.000000,4.000000,4.000000,4.000000,4.000000,100.000000,,,,,,,,,,,,,,,,,,,,,,,,,,,,,,,,,,,,,,,,,,,,,,,,,,,,,,,,,,,,,,,
1656265698.643223,1656265698.658312,2.000000,0.000000,4211.282227,4202.563965,4067.692383,4054.871826,4193.333496,16153.000000,4.000000,95.000000,,,,0.000000,4.000000,4.000000,4.000000,4.000000,4.000000,100.000000,,,,,,,,,,,,,,,,,,,,,,,,,,,,,,,,,,,,,,,,,,,,,,,,,,,,,,,,,,,,,,,
1656265698.651043,1656265698.666230,3.000000,0.000000,4257.948730,4260.000000,4122.051270,4076.923096,4221.025879,450.000000,4.000000,95.000000,,,,0.000000,4.000000,4.000000,4.000000,4.000000,4.000000,100.000000,,,,,,,,,,,,,,,,,,,,,,,,,,,,,,,,,,,,,,,,,,,,,,,,,,,,,,,,,,,,,,,
1656265698.658863,1656265698.674048,4.000000,0.000000,4239.487305,4252.820313,4114.871582,4054.871826,4209.230957,16124.000000,4.000000,95.000000,,,,0.000000,4.000000,4.000000,4.000000,4.000000,4.000000,100.000000,,,,,,,,,,,,,,,,,,,,,,,,,,,,,,,,,,,,,,,,,,,,,,,,,,,,,,,,,,,,,,,
1656265698.666682,1656265698.681965,5.000000,0.000000,4196.922852,4206.666504,4053.333252,4044.615479,4198.974121,450.000000,4.000000,95.000000,,,,0.000000,4.000000,4.000000,4.000000,4.000000,4.000000,100.000000,,,,,,,,,,,,,,,,,,,,,,,,,,,,,,,,,,,,,,,,,,,,,,,,,,,,,,,,,,,,,,,
1656265698.674502,1656265698.689783,6.000000,0.000000,4178.461426,4193.333496,4025.641113,4041.538574,4185.641113,16160.000000,4.000000,95.000000,,,,0.000000,4.000000,4.000000,4.000000,4.000000,4.000000,100.000000,,,,,,,,,,,,,,,,,,,,,,,,,,,,,,,,,,,,,,,,,,,,,,,,,,,,,,,,,,,,,,,
1656265698.682322,1656265698.697701,7.000000,0.000000,4210.769043,4223.589844,4070.769287,4069.743652,4183.077148,450.000000,4.000000,95.000000,,,,0.000000,4.000000,4.000000,4.000000,4.000000,4.000000,100.000000,1.000000,58.333332,3.000000,2.000000,3.000000,2.000000,3.000000,,,,,,,,,,,,,,,,,,,,,,,,,,,,,,,,3.321864,1.176878,4.233617,17.667336,7.320070,3.173012,4.618766,3.504172,12.022960,4.553049,3.272801,1.699951,3.956027,6.622715,3.863703,1.273141,5.712234,5.326653,4.578822,4.412659,6.800461,3.348635,3.495260,7.139053,5.576125
1656265698.690142,1656265698.705519,8.000000,0.000000,4246.666504,4255.384766,4104.102539,4082.051270,4220.000000,450.000000,4.000000,95.000000,,,,0.000000,4.000000,4.000000,4.000000,4.000000,4.000000,100.000000,,,,,,,,,,,,,,,,,,,,,,,,,,,,,,,,,,,,,,,,,,,,,,,,,,,,,,,,,,,,,,,
1656265698.697961,1656265698.713337,9.000000,0.000000,4243.589844,4237.436035,4089.230713,4044.102539,4246.153809,16118.000000,4.000000,95.000000,,,,0.000000,4.000000,4.000000,4.000000,4.000000,4.000000,100.000000,,,,,,,,,,,,,,,,,,,,,,,,,,,,,,,,,,,,,,,,,,,,,,,,,,,,,,,,,,,,,,,
1656265698.705781,1656265698.721054,10.000000,0.000000,4233.846191,4212.307617,4062.051270,4031.794922,4247.179688,450.000000,4.000000,95.000000,,,,0.000000,4.000000,4.000000,4.000000,4.000000,4.000000,100.000000,,,,,,,,,,,,,,,,,,,,,,,,,,,,,,,,,,,,,,,,,,,,,,,,,,,,,,,,,,,,,,,
1656265698.713601,1656265698.728972,11.000000,0.000000,4224.102539,4214.871582,4044.102539,4035.384521,4223.589844,16089.000000,4.000000,95.000000,,,,0.000000,4.000000,4.000000,4.000000,4.000000,4.000000,100.000000,,,,,,,,,,,,,,,,,,,,,,,,,,,,,,,,,,,,,,,,,,,,,,,,,,,,,,,,,,,,,,,
1656265698.721421,1656265698.736790,12.000000,0.000000,4223.077148,4233.846191,4080.000000,4043.589844,4198.974121,450.000000,4.000000,95.000000,,,,0.000000,4.000000,4.000000,4.000000,4.000000,4.000000,100.000000,,,,,,,,,,,,,,,,,,,,,,,,,,,,,,,,,,,,,,,,,,,,,,,,,,,,,,,,,,,,,,,
1656265698.729241,1656265698.744707,13.000000,0.000000,4222.563965,4230.769043,4102.563965,4067.179443,4202.563965,450.000000,4.000000,95.000000,,,,0.000000,4.000000,4.000000,4.000000,4.000000,4.000000,100.000000,,,,,,,,,,,,,,,,,,,,,,,,,,,,,,,,,,,,,,,,,,,,,,,,,,,,,,,,,,,,,,,
1656265698.737060,1656265698.752626,14.000000,0.000000,4204.102539,4202.563965,4064.615479,4062.564209,4195.897461,450.000000,4.000000,95.000000,,,,0.000000,4.000000,4.000000,4.000000,4.000000,4.000000,100.000000,,,,,,,,,,,,,,,,,,,,,,,,,,,,,,,,,,,,,,,,,,,,,,,,,,,,,,,,,,,,,,,
1656265698.744880,1656265698.760444,15.000000,0.000000,4210.256348,4205.128418,4052.307617,4047.692383,4201.025879,16089.000000,4.000000,95.000000,,,,0.000000,4.000000,4.000000,4.000000,4.000000,4.000000,100.000000,,,,,,,,,,,,,,,,,,,,,,,,,,,,,,,,,,,,,,,,,,,,,,,,,,,,,,,,,,,,,,,
1656265698.752700,1656265698.768362,16.000000,0.000000,4240.512695,4216.410156,4061.025635,4063.589844,4226.153809,0.000000,4.000000,95.000000,,,,0.000000,4.000000,4.000000,4.000000,4.000000,4.000000,100.000000,,,,,,,,,,,,,,,,,,,,,,,,,,,,,,,,,,,,,,,,,,,,,,,,,,,,,,,,,,,,,,,
1656265698.760520,1656265698.776181,17.000000,0.000000,4250.256348,4222.563965,4066.666748,4075.384521,4224.615234,0.000000,4.000000,95.000000,,,,0.000000,4.000000,4.000000,4.000000,4.000000,4.000000,100.000000,,,,,,,,,,,,,,,,,,,,,,,,,,,,,,,,,,,,,,,,,,,,,,,,,,,,,,,,,,,,,,,
1656265698.768339,1656265698.783999,18.000000,0.000000,4216.922852,4203.077148,4076.923096,4028.718018,4184.615234,0.000000,4.000000,95.000000,,,,0.000000,4.000000,4.000000,4.000000,4.000000,4.000000,100.000000,,,,,,,,,,,,,,,,,,,,,,,,,,,,,,,,,,,,,,,,,,,,,,,,,,,,,,,,,,,,,,,
1656265698.776159,1656265698.791716,19.000000,0.000000,4179.487305,4160.512695,4065.128174,3993.333252,4155.897461,0.000000,4.000000,95.000000,,,,0.000000,4.000000,4.000000,4.000000,4.000000,4.000000,100.000000,,,,,,,,,,,,,,,,,,,,,,,,,,,,,,,,,,,,,,,,,,,,,,,,,,,,,,,,,,,,,,,
1656265698.783979,1656265698.799534,20.000000,0.000000,4196.410156,4183.077148,4048.205078,4034.358887,4193.846191,0.000000,4.000000,95.000000,,,,0.000000,4.000000,4.000000,4.000000,4.000000,4.000000,100.000000,,,,,,,,,,,,,,,,,,,,,,,,,,,,,,,,,,,,,,,,,,,,,,,,,,,,,,,,,,,,,,,
1656265698.791798,1656265698.807252,21.000000,0.000000,4221.025879,4231.794922,4048.718018,4055.897461,4222.051270,0.000000,4.000000,95.000000,,,,0.000000,4.000000,4.000000,4.000000,4.000000,4.000000,100.000000,,,,,,,,,,,,,,,,,,,,,,,,,,,,,,,,,,,,,,,,,,,,,,,,,,,,,,,,,,,,,,,
1656265698.799618,1656265698.815170,22.000000,0.000000,4226.153809,4232.307617,4069.230713,4031.281982,4202.051270,0.000000,4.000000,95.000000,,,,0.000000,4.000000,4.000000,4.000000,4.000000,4.000000,100.000000,,,,,,,,,,,,,,,,,,,,,,,,,,,,,,,,,,,,,,,,,,,,,,,,,,,,,,,,,,,,,,,
1656265698.807438,1656265698.822988,23.000000,0.000000,4210.256348,4203.077148,4068.205078,4016.923096,4178.461426,0.000000,4.000000,95.000000,,,,0.000000,4.000000,4.000000,4.000000,4.000000,4.000000,100.000000,,,,,,,,,,,,,,,,,,,,,,,,,,,,,,,,,,,,,,,3.112440,1.008520,5.137658,17.802570,7.667839,3.287160,5.311888,3.429404,11.423996,5.069736,3.239144,2.022273,3.586237,6.317633,3.757758,1.035784,5.824612,5.075894,4.658953,4.450291,5.918419,3.284894,3.262905,7.640459,5.764754
1656265698.815258,1656265698.830906,24.000000,0.000000,4168.205078,4175.897461,4027.179443,4014.871826,4162.051270,0.000000,4.000000,95.000000,,,,0.000000,4.000000,4.000000,4.000000,4.000000,4.000000,100.000000,,,,,,,,,,,,,,,,,,,,,,,,,,,,,,,,,,,,,,,,,,,,,,,,,,,,,,,,,,,,,,,
1656265698.823078,1656265698.838724,25.000000,0.000000,4187.692383,4181.538574,4041.538574,4034.871826,4184.102539,0.000000,4.000000,95.000000,,,,0.000000,4.000000,4.000000,4.000000,4.000000,4.000000,100.000000,,,,,,,,,,,,,,,,,,,,,,,,,,,,,,,,,,,,,,,,,,,,,,,,,,,,,,,,,,,,,,,
1656265698.830897,1656265698.846542,26.000000,0.000000,4249.743652,4208.717773,4094.871826,4055.384521,4214.358887,0.000000,4.000000,95.000000,,,,0.000000,4.000000,4.000000,4.000000,4.000000,4.000000,100.000000,,,,,,,,,,,,,,,,,,,,,,,,,,,,,,,,,,,,,,,,,,,,,,,,,,,,,,,,,,,,,,,
1656265698.838717,1656265698.854259,27.000000,0.000000,4254.871582,4236.410156,4087.692383,4053.333252,4212.307617,0.000000,4.000000,95.000000,,,,0.000000,4.000000,4.000000,4.000000,4.000000,4.000000,100.000000,,,,,,,,,,,,,,,,,,,,,,,,,,,,,,,,,,,,,,,,,,,,,,,,,,,,,,,,,,,,,,,
1656265698.846537,1656265698.862076,28.000000,0.000000,4225.128418,4209.743652,4054.871826,4042.564209,4192.820313,0.000000,4.000000,95.000000,,,,0.000000,4.000000,4.000000,4.000000,4.000000,4.000000,100.000000,,,,,,,,,,,,,,,,,,,,,,,,,,,,,,,,,,,,,,,,,,,,,,,,,,,,,,,,,,,,,,,
1656265698.854357,1656265698.869794,29.000000,0.000000,4196.922852,4136.922852,4053.846191,4016.923096,4155.897461,0.000000,4.000000,95.000000,,,,0.000000,4.000000,4.000000,4.000000,4.000000,4.000000,100.000000,,,,,,,,,,,,,,,,,,,,,,,,,,,,,,,,,,,,,,,,,,,,,,,,,,,,,,,,,,,,,,,
1656265698.862176,1656265698.877611,30.000000,0.000000,4204.615234,4164.102539,4084.102539,4016.923096,4154.871582,0.000000,4.000000,95.000000,,,,0.000000,4.000000,4.000000,4.000000,4.000000,4.000000,100.000000,,,,,,,,,,,,,,,,,,,,,,,,,,,,,,,,,,,,,,,,,,,,,,,,,,,,,,,,,,,,,,,
1656265698.869996,1656265698.885328,31.000000,0.000000,4226.666504,4249.230957,4089.230713,4056.410156,4193.333496,0.000000,4.000000,95.000000,,,,0.000000,4.000000,4.000000,4.000000,4.000000,4.000000,100.000000,,,,,,,,,,,,,,,,,,,,,,,,,,,,,,,,,,,,,,,,,,,,,,,,,,,,,,,,,,,,,,,
1656265698.877816,1656265698.893146,32.000000,0.000000,4212.307617,4237.436035,4070.769287,4059.487061,4192.820313,0.000000,4.000000,95.000000,,,,0.000000,4.000000,4.000000,4.000000,4.000000,4.000000,100.000000,,,,,,,,,,,,,,,,,,,,,,,,,,,,,,,,,,,,,,,,,,,,,,,,,,,,,,,,,,,,,,,
1656265698.885636,1656265698.900863,33.000000,0.000000,4200.000000,4182.051270,4080.512939,4042.564209,4149.743652,0.000000,4.000000,95.000000,,,,0.000000,4.000000,4.000000,4.000000,4.000000,4.000000,100.000000,,,,,,,,,,,,,,,,,,,,,,,,,,,,,,,,,,,,,,,,,,,,,,,,,,,,,,,,,,,,,,,
1656265698.893455,1656265698.908680,34.000000,0.000000,4195.384766,4169.743652,4084.102539,4036.923096,4118.974121,0.000000,4.000000,95.000000,,,,0.000000,4.000000,4.000000,4.000000,4.000000,4.000000,100.000000,,,,,,,,,,,,,,,,,,,,,,,,,,,,,,,,,,,,,,,,,,,,,,,,,,,,,,,,,,,,,,,
1656265698.901275,1656265698.916397,35.000000,0.000000,4195.384766,4189.230957,4071.794922,4033.846191,4144.615234,0.000000,4.000000,95.000000,,,,0.000000,4.000000,4.000000,4.000000,4.000000,4.000000,100.000000,,,,,,,,,,,,,,,,,,,,,,,,,,,,,,,,,,,,,,,,,,,,,,,,,,,,,,,,,,,,,,,
1656265698.909095,1656265698.924315,36.000000,0.000000,4209.743652,4214.871582,4063.076904,4045.641113,4178.974121,0.000000,4.000000,95.000000,,,,0.000000,4.000000,4.000000,4.000000,4.000000,4.000000,100.000000,,,,,,,,,,,,,,,,,,,,,,,,,,,,,,,,,,,,,,,,,,,,,,,,,,,,,,,,,,,,,,,
1656265698.916915,1656265698.932132,37.000000,0.000000,4205.128418,4204.102539,4053.333252,4049.230713,4178.461426,0.000000,4.000000,95.000000,,,,0.000000,4.000000,4.000000,4.000000,4.000000,4.000000,100.000000,,,,,,,,,,,,,,,,,,,,,,,,,,,,,,,,,,,,,,,,,,,,,,,,,,,,,,,,,,,,,,,
1656265698.924734,1656265698.940050,38.000000,0.000000,4214.871582,4193.846191,4044.102539,4053.846191,4205.128418,0.000000,4.000000,95.000000,,,,0.000000,4.000000,4.000000,4.000000,4.000000,4.000000,100.000000,,,,,,,,,,,,,,,,,,,,,,,,,,,,,,,,,,,,,,,,,,,,,,,,,,,,,,,,,,,,,,,
1656265698.932554,1656265698.947868,39.000000,0.000000,4257.948730,4220.000000,4037.435791,4069.743652,4241.538574,0.000000,4.000000,95.000000,,,,0.000000,4.000000,4.000000,4.000000,4.000000,4.000000,100.000000,,,,,,,,,,,,,,,,,,,,,,,,,,,,,,,,,,,,,,,2.868125,1.095484,5.704522,17.131081,8.061044,3.574119,5.813864,3.160422,10.287695,5.521398,3.045467,2.634511,3.080739,5.595445,3.731061,0.981593,5.616389,4.685451,4.510480,4.345159,4.802304,3.007939,2.788293,8.127125,5.877745
1656265698.940374,1656265698.955785,40.000000,0.000000,4273.333496,4237.948730,4054.871826,4074.358887,4227.692383,0.000000,4.000000,95.000000,,,,0.000000,4.000000,4.000000,4.000000,4.000000,4.000000,100.000000,,,,,,,,,,,,,,,,,,,,,,,,,,,,,,,,,,,,,,,,,,,,,,,,,,,,,,,,,,,,,,,
1656265698.948194,1656265698.963703,41.000000,0.000000,4233.333496,4207.179688,4075.384521,4056.410156,4182.563965,0.000000,4.000000,95.000000,,,,0.000000,4.000000,4.000000,4.000000,4.000000,4.000000,100.000000,,,,,,,,,,,,,,,,,,,,,,,,,,,,,,,,,,,,,,,,,,,,,,,,,,,,,,,,,,,,,,,
1656265698.956013,1656265698.971521,42.000000,0.000000,4187.179688,4157.436035,4056.923096,4039.487061,4160.000000,0.000000,4.000000,95.000000,,,,0.000000,4.000000,4.000000,4.000000,4.000000,4.000000,100.000000,,,,,,,,,,,,,,,,,,,,,,,,,,,,,,,,,,,,,,,,,,,,,,,,,,,,,,,,,,,,,,,
1656265698.963833,1656265698.979340,43.000000,0.000000,4221.025879,4180.000000,4061.025635,4062.564209,4193.333496,0.000000,4.000000,95.000000,,,,0.000000,4.000000,4.000000,4.000000,4.000000,4.000000,100.000000,,,,,,,,,,,,,,,,,,,,,,,,,,,,,,,,,,,,,,,,,,,,,,,,,,,,,,,,,,,,,,,
1656265698.971653,1656265698.987057,44.000000,0.000000,4281.025879,4234.871582,4108.717773,4071.281982,4215.384766,0.000000,4.000000,95.000000,,,,0.000000,4.000000,4.000000,4.000000,4.000000,4.000000,100.000000,,,,,,,,,,,,,,,,,,,,,,,,,,,,,,,,,,,,,,,,,,,,,,,,,,,,,,,,,,,,,,,
1656265698.979473,1656265698.994875,45.000000,0.000000,4253.333496,4223.077148,4117.948730,4055.384521,4191.282227,0.000000,4.000000,95.000000,,,,0.000000,4.000000,4.000000,4.000000,4.000000,4.000000,100.000000,,,,,,,,,,,,,,,,,,,,,,,,,,,,,,,,,,,,,,,,,,,,,,,,,,,,,,,,,,,,,,,
1656265698.987292,1656265699.002592,46.000000,0.000000,4182.563965,4173.846191,4058.974365,4055.384521,4185.641113,0.000000,4.000000,95.000000,,,,0.000000,4.000000,4.000000,4.000000,4.000000,4.000000,100.000000,,,,,,,,,,,,,,,,,,,,,,,,,,,,,,,,,,,,,,,,,,,,,,,,,,,,,,,,,,,,,,,
1656265698.995112,1656265699.010410,47.000000,0.000000,4151.282227,4151.282227,4027.692383,4039.487061,4177.436035,0.000000,4.000000,95.000000,,,,0.000000,4.000000,4.000000,4.000000,4.000000,4.000000,100.000000,,,,,,,,,,,,,,,,,,,,,,,,,,,,,,,,,,,,,,,,,,,,,,,,,,,,,,,,,,,,,,,
1656265699.002932,1656265699.018127,48.000000,0.000000,4207.692383,4202.051270,4091.281982,4049.230713,4164.615234,0.000000,4.000000,95.000000,,,,0.000000,4.000000,4.000000,4.000000,4.000000,4.000000,100.000000,,,,,,,,,,,,,,,,,,,,,,,,,,,,,,,,,,,,,,,,,,,,,,,,,,,,,,,,,,,,,,,
1656265699.010752,1656265699.025945,49.000000,0.000000,4271.794922,4259.487305,4122.563965,4094.358887,4198.461426,0.000000,4.000000,95.000000,,,,0.000000,4.000000,4.000000,4.000000,4.000000,4.000000,100.000000,,,,,,,,,,,,,,,,,,,,,,,,,,,,,,,,,,,,,,,,,,,,,,,,,,,,,,,,,,,,,,,
1656265699.018572,1656265699.033662,50.000000,0.000000,4246.666504,4251.794922,4080.000000,4100.000000,4220.512695,0.000000,4.000000,95.000000,,,,0.000000,4.000000,4.000000,4.000000,4.000000,4.000000,100.000000,,,,,,,,,,,,,,,,,,,,,,,,,,,,,,,,,,,,,,,,,,,,,,,,,,,,,,,,,,,,,,,
1656265699.026391,1656265699.041479,51.000000,0.000000,4213.333496,4218.974121,4054.871826,4074.871826,4192.820313,0.000000,4.000000,95.000000,,,,0.000000,4.000000,4.000000,4.000000,4.000000,4.000000,100.000000,,,,,,,,,,,,,,,,,,,,,,,,,,,,,,,,,,,,,,,,,,,,,,,,,,,,,,,,,,,,,,,
1656265699.034211,1656265699.049197,52.000000,0.000000,4222.563965,4182.051270,4046.153809,4057.948730,4157.948730,0.000000,4.000000,95.000000,,,,0.000000,4.000000,4.000000,4.000000,4.000000,4.000000,100.000000,,,,,,,,,,,,,,,,,,,,,,,,,,,,,,,,,,,,,,,,,,,,,,,,,,,,,,,,,,,,,,,
1656265699.042031,1656265699.057014,53.000000,0.000000,4241.025879,4197.436035,4067.692383,4065.641113,4171.282227,0.000000,4.000000,95.000000,,,,0.000000,4.000000,4.000000,4.000000,4.000000,4.000000,100.000000,,,,,,,,,,,,,,,,,,,,,,,,,,,,,,,,,,,,,,,,,,,,,,,,,,,,,,,,,,,,,,,
1656265699.049851,1656265699.064731,54.000000,0.000000,4234.358887,4262.051270,4105.128418,4067.179443,4194.871582,0.000000,4.000000,95.000000,,,,0.000000,4.000000,4.000000,4.000000,4.000000,4.000000,100.000000,,,,,,,,,,,,,,,,,,,,,,,,,,,,,,,,,,,,,,,,,,,,,,,,,,,,,,,,,,,,,,,
1656265699.057670,1656265699.072548,55.000000,0.000000,4210.256348,4257.948730,4100.512695,4047.179443,4186.666504,0.000000,4.000000,95.000000,,,,0.000000,4.000000,4.000000,4.000000,4.000000,4.000000,100.000000,,,,,,,,,,,,,,,,,,,,,,,,,,,,,,,,,,,,,,,2.573210,1.407579,5.766202,15.759686,8.305495,4.052678,6.003378,2.756476,8.939697,5.854681,2.714783,3.297021,2.564094,4.645130,3.803574,0.998835,5.119215,4.130095,4.082611,4.074485,3.794456,2.628042,2.223077,8.410686,5.770562
1656265699.065490,1656265699.080266,56.000000,0.000000,4225.641113,4217.436035,4066.153809,4049.230713,4208.205078,0.000000,4.000000,95.000000,,,,0.000000,4.000000,4.000000,4.000000,4.000000,4.000000,100.000000,,,,,,,,,,,,,,,,,,,,,,,,,,,,,,,,,,,,,,,,,,,,,,,,,,,,,,,,,,,,,,,
1656265699.073310,1656265699.088183,57.000000,0.000000,4244.615234,4213.846191,4046.153809,4050.256348,4220.512695,0.000000,4.000000,95.000000,,,,0.000000,4.000000,4.000000,4.000000,4.000000,4.000000,100.000000,,,,,,,,,,,,,,,,,,,,,,,,,,,,,,,,,,,,,,,,,,,,,,,,,,,,,,,,,,,,,,,
1656265699.081129,1656265699.096001,58.000000,0.000000,4240.000000,4227.179688,4070.256348,4052.820557,4197.436035,0.000000,4.000000,95.000000,,,,0.000000,4.000000,4.000000,4.000000,4.000000,4.000000,100.000000,,,,,,,,,,,,,,,,,,,,,,,,,,,,,,,,,,,,,,,,,,,,,,,,,,,,,,,,,,,,,,,
1656265699.088949,1656265699.103919,59.000000,0.000000,4214.358887,4232.820313,4091.794922,4070.256348,4178.974121,0.000000,4.000000,95.000000,,,,0.000000,4.000000,4.000000,4.000000,4.000000,4.000000,100.000000,,,,,,,,,,,,,,,,,,,,,,,,,,,,,,,,,,,,,,,,,,,,,,,,,,,,,,,,,,,,,,,
1656265699.096769,1656265699.111736,60.000000,0.000000,4185.128418,4224.102539,4069.743652,4055.384521,4173.846191,0.000000,4.000000,95.000000,,,,0.000000,4.000000,4.000000,4.000000,4.000000,4.000000,100.000000,,,,,,,,,,,,,,,,,,,,,,,,,,,,,,,,,,,,,,,,,,,,,,,,,,,,,,,,,,,,,,,
1656265699.104589,1656265699.119654,61.000000,0.000000,4226.153809,4228.717773,4062.051270,4046.666748,4213.846191,0.000000,4.000000,95.000000,,,,0.000000,4.000000,4.000000,4.000000,4.000000,4.000000,100.000000,,,,,,,,,,,,,,,,,,,,,,,,,,,,,,,,,,,,,,,,,,,,,,,,,,,,,,,,,,,,,,,
1656265699.112409,1656265699.127472,62.000000,0.000000,4294.358887,4250.256348,4079.487061,4076.410156,4258.974121,0.000000,4.000000,95.000000,,,,0.000000,4.000000,4.000000,4.000000,4.000000,4.000000,100.000000,,,,,,,,,,,,,,,,,,,,,,,,,,,,,,,,,,,,,,,,,,,,,,,,,,,,,,,,,,,,,,,
1656265699.120228,1656265699.135389,63.000000,0.000000,4286.666504,4262.563965,4095.384521,4098.974121,4254.358887,0.000000,4.000000,95.000000,,,,0.000000,4.000000,4.000000,4.000000,4.000000,4.000000,100.000000,,,,,,,,,,,,,,,,,,,,,,,,,,,,,,,,,,,,,,,,,,,,,,,,,,,,,,,,,,,,,,,
1656265699.128048,1656265699.143207,64.000000,0.000000,4220.512695,4240.512695,4094.358887,4076.923096,4212.307617,450.000000,4.000000,95.000000,,,,0.000000,4.000000,4.000000,4.000000,4.000000,4.000000,100.000000,,,,,,,,,,,,,,,,,,,,,,,,,,,,,,,,,,,,,,,,,,,,,,,,,,,,,,,,,,,,,,,
1656265699.135868,1656265699.151024,65.000000,0.000000,4182.051270,4209.230957,4069.230713,4042.051270,4177.948730,450.000000,4.000000,95.000000,,,,0.000000,4.000000,4.000000,4.000000,4.000000,4.000000,100.000000,,,,,,,,,,,,,,,,,,,,,,,,,,,,,,,,,,,,,,,,,,,,,,,,,,,,,,,,,,,,,,,
1656265699.143688,1656265699.158842,66.000000,0.000000,4227.179688,4248.205078,4079.487061,4053.333252,4201.025879,16183.000000,4.000000,95.000000,,,,0.000000,4.000000,4.000000,4.000000,4.000000,4.000000,100.000000,,,,,,,,,,,,,,,,,,,,,,,,,,,,,,,,,,,,,,,,,,,,,,,,,,,,,,,,,,,,,,,
1656265699.151507,1656265699.166559,67.000000,0.000000,4291.282227,4296.410156,4105.641113,4077.435791,4240.000000,450.000000,4.000000,95.000000,,,,0.000000,4.000000,4.000000,4.000000,4.000000,4.000000,100.000000,,,,,,,,,,,,,,,,,,,,,,,,,,,,,,,,,,,,,,,,,,,,,,,,,,,,,,,,,,,,,,,
1656265699.159327,1656265699.174377,68.000000,0.000000,4287.692383,4274.871582,4097.948730,4087.179443,4254.871582,16101.000000,4.000000,95.000000,,,,0.000000,4.000000,4.000000,4.000000,4.000000,4.000000,100.000000,,,,,,,,,,,,,,,,,,,,,,,,,,,,,,,,,,,,,,,,,,,,,,,,,,,,,,,,,,,,,,,
1656265699.167147,1656265699.182094,69.000000,0.000000,4237.436035,4211.794922,4086.153809,4067.692383,4228.717773,450.000000,4.000000,95.000000,,,,0.000000,4.000000,4.000000,4.000000,4.000000,4.000000,100.000000,,,,,,,,,,,,,,,,,,,,,,,,,,,,,,,,,,,,,,,,,,,,,,,,,,,,,,,,,,,,,,,
1656265699.174966,1656265699.189912,70.000000,0.000000,4203.077148,4171.794922,4087.692383,4025.128174,4164.102539,16194.000000,4.000000,95.000000,,,,0.000000,4.000000,4.000000,4.000000,4.000000,4.000000,100.000000,,,,,,,,,,,,,,,,,,,,,,,,,,,,,,,,,,,,,,,,,,,,,,,,,,,,,,,,,,,,,,,
1656265699.182786,1656265699.197629,71.000000,0.000000,4230.769043,4231.794922,4108.717773,4058.974365,4169.230957,450.000000,4.000000,95.000000,,,,0.000000,4.000000,4.000000,4.000000,4.000000,4.000000,100.000000,1.000000,75.000000,3.000000,3.000000,3.000000,3.000000,3.000000,,,,,,,,,,,,,,,,,,,,,,,,,,,,,,,,2.279597,1.879621,5.340723,14.011945,8.287193,4.603382,5.826285,2.334898,7.713171,6.056567,2.325893,3.821210,2.141368,3.719987,3.965605,0.995660,4.440494,3.476093,3.474058,3.684904,3.200709,2.358453,1.752701,8.416199,5.410056
1656265699.190606,1656265699.205447,72.000000,0.000000,4276.922852,4305.641113,4109.743652,4122.563965,4246.153809,450.000000,4.000000,95.000000,,,,0.000000,4.000000,4.000000,4.000000,4.000000,4.000000,100.000000,,,,,,,,,,,,,,,,,,,,,,,,,,,,,,,,,,,,,,,,,,,,,,,,,,,,,,,,,,,,,,,
1656265699.198426,1656265699.213164,73.000000,0.000000,4281.025879,4289.230957,4101.025879,4107.692383,4267.692383,16103.000000,4.000000,95.000000,,,,0.000000,4.000000,4.000000,4.000000,4.000000,4.000000,100.000000,,,,,,,,,,,,,,,,,,,,,,,,,,,,,,,,,,,,,,,,,,,,,,,,,,,,,,,,,,,,,,,
1656265699.206246,1656265699.220981,74.000000,0.000000,4253.333496,4245.128418,4110.256348,4067.179443,4225.128418,450.000000,4.000000,95.000000,,,,0.000000,4.000000,4.000000,4.000000,4.000000,4.000000,100.000000,,,,,,,,,,,,,,,,,,,,,,,,,,,,,,,,,,,,,,,,,,,,,,,,,,,,,,,,,,,,,,,
1656265699.214065,1656265699.228699,75.000000,0.000000,4227.692383,4226.153809,4088.718018,4053.846191,4210.256348,16114.000000,4.000000,95.000000,,,,0.000000,4.000000,4.000000,4.000000,4.000000,4.000000,100.000000,,,,,,,,,,,,,,,,,,,,,,,,,,,,,,,,,,,,,,,,,,,,,,,,,,,,,,,,,,,,,,,
1656265699.221885,1656265699.236516,76.000000,0.000000,4246.153809,4234.871582,4080.512939,4081.025635,4237.436035,450.000000,4.000000,95.000000,,,,0.000000,4.000000,4.000000,4.000000,4.000000,4.000000,100.000000,,,,,,,,,,,,,,,,,,,,,,,,,,,,,,,,,,,,,,,,,,,,,,,,,,,,,,,,,,,,,,,
1656265699.229705,1656265699.244233,77.000000,0.000000,4263.589844,4234.871582,4115.897461,4109.230957,4241.025879,450.000000,4.000000,95.000000,,,,0.000000,4.000000,4.000000,4.000000,4.000000,4.000000,100.000000,,,,,,,,,,,,,,,,,,,,,,,,,,,,,,,,,,,,,,,,,,,,,,,,,,,,,,,,,,,,,,,
1656265699.237525,1656265699.252050,78.000000,0.000000,4242.563965,4219.487305,4120.512695,4088.205078,4223.077148,450.000000,4.000000,95.000000,,,,0.000000,4.000000,4.000000,4.000000,4.000000,4.000000,100.000000,,,,,,,,,,,,,,,,,,,,,,,,,,,,,,,,,,,,,,,,,,,,,,,,,,,,,,,,,,,,,,,
1656265699.245344,1656265699.259768,79.000000,0.000000,4255.384766,4229.230957,4081.025635,4076.410156,4235.384766,16114.000000,4.000000,95.000000,,,,0.000000,4.000000,4.000000,4.000000,4.000000,4.000000,100.000000,,,,,,,,,,,,,,,,,,,,,,,,,,,,,,,,,,,,,,,,,,,,,,,,,,,,,,,,,,,,,,,
1656265699.253164,1656265699.267585,80.000000,0.000000,4281.538574,4245.128418,4053.333252,4101.538574,4245.128418,450.000000,4.000000,95.000000,,,,0.000000,4.000000,4.000000,4.000000,4.000000,4.000000,100.000000,,,,,,,,,,,,,,,,,,,,,,,,,,,,,,,,,,,,,,,,,,,,,,,,,,,,,,,,,,,,,,,
1656265699.260984,1656265699.275302,81.000000,0.000000,4276.410156,4250.769043,4076.410156,4112.820313,4226.666504,450.000000,4.000000,95.000000,,,,0.000000,4.000000,4.000000,4.000000,4.000000,4.000000,100.000000,,,,,,,,,,,,,,,,,,,,,,,,,,,,,,,,,,,,,,,,,,,,,,,,,,,,,,,,,,,,,,,
1656265699.268804,1656265699.283220,82.000000,0.000000,4240.512695,4233.846191,4108.717773,4069.743652,4203.077148,450.000000,4.000000,95.000000,,,,0.000000,4.000000,4.000000,4.000000,4.000000,4.000000,100.000000,,,,,,,,,,,,,,,,,,,,,,,,,,,,,,,,,,,,,,,,,,,,,,,,,,,,,,,,,,,,,,,
1656265699.276623,1656265699.291038,83.000000,0.000000,4215.384766,4206.153809,4112.307617,4028.718018,4197.948730,16114.000000,4.000000,95.000000,,,,0.000000,4.000000,4.000000,4.000000,4.000000,4.000000,100.000000,,,,,,,,,,,,,,,,,,,,,,,,,,,,,,,,,,,,,,,,,,,,,,,,,,,,,,,,,,,,,,,
1656265699.284443,1656265699.298955,84.000000,0.000000,4266.666504,4233.846191,4111.282227,4069.743652,4232.820313,450.000000,4.000000,95.000000,,,,0.000000,4.000000,4.000000,4.000000,4.000000,4.000000,100.000000,,,,,,,,,,,,,,,,,,,,,,,,,,,,,,,,,,,,,,,,,,,,,,,,,,,,,,,,,,,,,,,
1656265699.292263,1656265699.306773,85.000000,0.000000,4312.820313,4280.512695,4103.589844,4115.384766,4260.512695,450.000000,4.000000,95.000000,,,,0.000000,4.000000,4.000000,4.000000,4.000000,4.000000,100.000000,,,,,,,,,,,,,,,,,,,,,,,,,,,,,,,,,,,,,,,,,,,,,,,,,,,,,,,,,,,,,,,
1656265699.300083,1656265699.314690,86.000000,0.000000,4278.461426,4264.615234,4087.179443,4098.974121,4256.922852,450.000000,4.000000,95.000000,,,,0.000000,4.000000,4.000000,4.000000,4.000000,4.000000,100.000000,,,,,,,,,,,,,,,,,,,,,,,,,,,,,,,,,,,,,,,,,,,,,,,,,,,,,,,,,,,,,,,
1656265699.307902,1656265699.322508,87.000000,0.000000,4219.487305,4208.205078,4065.128174,4081.538574,4228.717773,16114.000000,4.000000,95.000000,,,,0.000000,4.000000,4.000000,4.000000,4.000000,4.000000,100.000000,,,,,,,,,,,,,,,,,,,,,,,,,,,,,,,,,,,,,,,2.045933,2.469869,4.584394,12.264907,8.032000,5.034695,5.324481,2.026277,6.857592,6.183712,2.009139,4.139053,1.855153,3.048841,4.195894,0.951635,3.743445,2.820680,2.873346,3.273033,3.143595,2.368127,1.508513,8.239994,4.880834
1656265699.315722,1656265699.330425,88.000000,0.000000,4191.794922,4175.384766,4045.641113,4067.179443,4191.794922,450.000000,4.000000,95.000000,,,,0.000000,4.000000,4.000000,4.000000,4.000000,4.000000,100.000000,,,,,,,,,,,,,,,,,,,,,,,,,,,,,,,,,,,,,,,,,,,,,,,,,,,,,,,,,,,,,,,
1656265699.323542,1656265699.338243,89.000000,0.000000,4236.410156,4204.615234,4064.102539,4068.205078,4221.538574,450.000000,4.000000,95.000000,,,,0.000000,4.000000,4.000000,4.000000,4.000000,4.000000,100.000000,,,,,,,,,,,,,,,,,,,,,,,,,,,,,,,,,,,,,,,,,,,,,,,,,,,,,,,,,,,,,,,
