title:david_g_Forward, start timestamp:1656266427.132587, stop timestamp:1656266432.150336, headset type:INSIGHT, headset serial:A2D201AE, headset firmware:932, channels:84, sampling rate:eeg_128;pm_0.1;pow_8, samples:643       , version:2.1, 
Timestamp,EEG.Counter,EEG.Interpolated,EEG.AF3,EEG.T7,EEG.Pz,EEG.T8,EEG.AF4,EEG.RawCq,EEG.Battery,EEG.BatteryPercent,MarkerIndex,MarkerType,MarkerValueInt,EEG.MarkerHardware,CQ.AF3,CQ.T7,CQ.Pz,CQ.T8,CQ.AF4,CQ.Overall,EQ.SampleRateQuality,EQ.OVERALL,EQ.AF3,EQ.T7,EQ.Pz,EQ.T8,EQ.AF4,PM.Engagement.IsActive,PM.Engagement.Scaled,PM.Engagement.Raw,PM.Engagement.Min,PM.Engagement.Max,PM.Excitement.IsActive,PM.Excitement.Scaled,PM.Excitement.Raw,PM.Excitement.Min,PM.Excitement.Max,PM.LongTermExcitement,PM.Stress.IsActive,PM.Stress.Scaled,PM.Stress.Raw,PM.Stress.Min,PM.Stress.Max,PM.Relaxation.IsActive,PM.Relaxation.Scaled,PM.Relaxation.Raw,PM.Relaxation.Min,PM.Relaxation.Max,PM.Interest.IsActive,PM.Interest.Scaled,PM.Interest.Raw,PM.Interest.Min,PM.Interest.Max,PM.Focus.IsActive,PM.Focus.Scaled,PM.Focus.Raw,PM.Focus.Min,PM.Focus.Max,POW.AF3.Theta,POW.AF3.Alpha,POW.AF3.BetaL,POW.AF3.BetaH,POW.AF3.Gamma,POW.T7.Theta,POW.T7.Alpha,POW.T7.BetaL,POW.T7.BetaH,POW.T7.Gamma,POW.Pz.Theta,POW.Pz.Alpha,POW.Pz.BetaL,POW.Pz.BetaH,POW.Pz.Gamma,POW.T8.Theta,POW.T8.Alpha,POW.T8.BetaL,POW.T8.BetaH,POW.T8.Gamma,POW.AF4.Theta,POW.AF4.Alpha,POW.AF4.BetaL,POW.AF4.BetaH,POW.AF4.Gamma
1656266427.132587,31.000000,0.000000,4253.846191,4247.692383,4083.589844,4071.794922,4205.128418,0.000000,4.000000,91.000000,,,,0.000000,4.000000,4.000000,4.000000,4.000000,4.000000,100.000000,,,,,,,,,,,,,,,,,,,,,,,,,,,,,,,,,,,,,,,,,,,,,,,,,,,,,,,,,,,,,,,
1656266427.140501,32.000000,0.000000,4253.846191,4241.025879,4083.589844,4088.205078,4220.000000,0.000000,4.000000,91.000000,,,,0.000000,4.000000,4.000000,4.000000,4.000000,4.000000,100.000000,,,,,,,,,,,,,,,,,,,,,,,,,,,,,,,,,,,,,,,,,,,,,,,,,,,,,,,,,,,,,,,
1656266427.148316,33.000000,0.000000,4254.358887,4235.897461,4078.461426,4085.641113,4213.846191,0.000000,4.000000,91.000000,,,,0.000000,4.000000,4.000000,4.000000,4.000000,4.000000,100.000000,,,,,,,,,,,,,,,,,,,,,,,,,,,,,,,,,,,,,,,,,,,,,,,,,,,,,,,,,,,,,,,
1656266427.156230,34.000000,0.000000,4250.769043,4244.615234,4087.692383,4082.051270,4212.820313,0.000000,4.000000,91.000000,,,,0.000000,4.000000,4.000000,4.000000,4.000000,4.000000,100.000000,,,,,,,,,,,,,,,,,,,,,,,,,,,,,,,,,,,,,,,,,,,,,,,,,,,,,,,,,,,,,,,
1656266427.164044,35.000000,0.000000,4244.615234,4246.666504,4098.461426,4089.230713,4224.102539,0.000000,4.000000,91.000000,,,,0.000000,4.000000,4.000000,4.000000,4.000000,4.000000,100.000000,,,,,,,,,,,,,,,,,,,,,,,,,,,,,,,,,,,,,,,,,,,,,,,,,,,,,,,,,,,,,,,
1656266427.171959,36.000000,0.000000,4233.333496,4236.922852,4085.128174,4084.102539,4215.384766,0.000000,4.000000,91.000000,,,,0.000000,4.000000,4.000000,4.000000,4.000000,4.000000,100.000000,,,,,,,,,,,,,,,,,,,,,,,,,,,,,,,,,,,,,,,,,,,,,,,,,,,,,,,,,,,,,,,
1656266427.179773,37.000000,0.000000,4235.384766,4247.179688,4077.948730,4075.384521,4200.512695,0.000000,4.000000,91.000000,,,,0.000000,4.000000,4.000000,4.000000,4.000000,4.000000,100.000000,,,,,,,,,,,,,,,,,,,,,,,,,,,,,,,,,,,,,,,,,,,,,,,,,,,,,,,,,,,,,,,
1656266427.187687,38.000000,0.000000,4260.000000,4261.025879,4103.589844,4089.743652,4218.461426,0.000000,4.000000,91.000000,,,,0.000000,4.000000,4.000000,4.000000,4.000000,4.000000,100.000000,,,,,,,,,,,,,,,,,,,,,,,,,,,,,,,,,,,,,,,,,,,,,,,,,,,,,,,,,,,,,,,
1656266427.195502,39.000000,0.000000,4274.358887,4242.051270,4117.436035,4109.743652,4247.179688,0.000000,4.000000,91.000000,,,,0.000000,4.000000,4.000000,4.000000,4.000000,4.000000,100.000000,,,,,,,,,,,,,,,,,,,,,,,,,,,,,,,,,,,,,,,,,,,,,,,,,,,,,,,,,,,,,,,
1656266427.203416,40.000000,0.000000,4269.230957,4235.897461,4103.589844,4106.153809,4246.153809,0.000000,4.000000,91.000000,,,,0.000000,4.000000,4.000000,4.000000,4.000000,4.000000,100.000000,,,,,,,,,,,,,,,,,,,,,,,,,,,,,,,,,,,,,,,,,,,,,,,,,,,,,,,,,,,,,,,
1656266427.211231,41.000000,0.000000,4267.179688,4250.769043,4098.461426,4093.333252,4227.179688,0.000000,4.000000,91.000000,,,,0.000000,4.000000,4.000000,4.000000,4.000000,4.000000,100.000000,,,,,,,,,,,,,,,,,,,,,,,,,,,,,,,,,,,,,,,,,,,,,,,,,,,,,,,,,,,,,,,
1656266427.219145,42.000000,0.000000,4269.743652,4246.153809,4108.205078,4094.871826,4223.589844,0.000000,4.000000,91.000000,,,,0.000000,4.000000,4.000000,4.000000,4.000000,4.000000,100.000000,,,,,,,,,,,,,,,,,,,,,,,,,,,,,,,,,,,,,,,,,,,,,,,,,,,,,,,,,,,,,,,
1656266427.226959,43.000000,0.000000,4265.128418,4238.461426,4103.077148,4100.512695,4229.230957,0.000000,4.000000,91.000000,,,,0.000000,4.000000,4.000000,4.000000,4.000000,4.000000,100.000000,,,,,,,,,,,,,,,,,,,,,,,,,,,,,,,,,,,,,,,,,,,,,,,,,,,,,,,,,,,,,,,
1656266427.234774,44.000000,0.000000,4253.333496,4245.641113,4092.307617,4089.230713,4224.102539,0.000000,4.000000,91.000000,,,,0.000000,4.000000,4.000000,4.000000,4.000000,4.000000,100.000000,,,,,,,,,,,,,,,,,,,,,,,,,,,,,,,,,,,,,,,17.064592,3.127550,2.023701,0.658944,0.297581,2.453825,1.062181,0.464969,0.545676,0.509783,5.817647,1.372468,0.598579,0.506357,0.454389,5.648455,1.476786,1.148430,0.510580,0.367141,13.684721,3.232820,1.756756,0.792381,0.482627
1656266427.242488,45.000000,0.000000,4258.461426,4257.948730,4103.077148,4080.512939,4218.461426,0.000000,4.000000,91.000000,,,,0.000000,4.000000,4.000000,4.000000,4.000000,4.000000,100.000000,,,,,,,,,,,,,,,,,,,,,,,,,,,,,,,,,,,,,,,,,,,,,,,,,,,,,,,,,,,,,,,
1656266427.250402,46.000000,0.000000,4269.743652,4254.871582,4109.230957,4091.281982,4220.000000,0.000000,4.000000,91.000000,,,,0.000000,4.000000,4.000000,4.000000,4.000000,4.000000,100.000000,,,,,,,,,,,,,,,,,,,,,,,,,,,,,,,,,,,,,,,,,,,,,,,,,,,,,,,,,,,,,,,
1656266427.258217,47.000000,0.000000,4261.538574,4242.051270,4099.487305,4095.384521,4220.512695,0.000000,4.000000,91.000000,,,,0.000000,4.000000,4.000000,4.000000,4.000000,4.000000,100.000000,,,,,,,,,,,,,,,,,,,,,,,,,,,,,,,,,,,,,,,,,,,,,,,,,,,,,,,,,,,,,,,
1656266427.266031,48.000000,0.000000,4244.615234,4243.077148,4098.461426,4086.153809,4209.743652,0.000000,4.000000,91.000000,,,,0.000000,4.000000,4.000000,4.000000,4.000000,4.000000,100.000000,,,,,,,,,,,,,,,,,,,,,,,,,,,,,,,,,,,,,,,,,,,,,,,,,,,,,,,,,,,,,,,
1656266427.273746,49.000000,0.000000,4242.051270,4253.333496,4100.512695,4082.564209,4197.948730,0.000000,4.000000,91.000000,,,,0.000000,4.000000,4.000000,4.000000,4.000000,4.000000,100.000000,,,,,,,,,,,,,,,,,,,,,,,,,,,,,,,,,,,,,,,,,,,,,,,,,,,,,,,,,,,,,,,
1656266427.281560,50.000000,0.000000,4252.307617,4252.307617,4098.974121,4090.769287,4206.153809,0.000000,4.000000,91.000000,,,,0.000000,4.000000,4.000000,4.000000,4.000000,4.000000,100.000000,,,,,,,,,,,,,,,,,,,,,,,,,,,,,,,,,,,,,,,,,,,,,,,,,,,,,,,,,,,,,,,
1656266427.289375,51.000000,0.000000,4260.512695,4247.179688,4102.563965,4098.461426,4231.794922,0.000000,4.000000,91.000000,,,,0.000000,4.000000,4.000000,4.000000,4.000000,4.000000,100.000000,,,,,,,,,,,,,,,,,,,,,,,,,,,,,,,,,,,,,,,,,,,,,,,,,,,,,,,,,,,,,,,
1656266427.297089,52.000000,0.000000,4265.641113,4249.743652,4105.128418,4098.461426,4238.974121,0.000000,4.000000,91.000000,,,,0.000000,4.000000,4.000000,4.000000,4.000000,4.000000,100.000000,,,,,,,,,,,,,,,,,,,,,,,,,,,,,,,,,,,,,,,,,,,,,,,,,,,,,,,,,,,,,,,
1656266427.304904,53.000000,0.000000,4267.692383,4248.717773,4097.436035,4102.051270,4221.025879,0.000000,4.000000,91.000000,,,,0.000000,4.000000,4.000000,4.000000,4.000000,4.000000,100.000000,,,,,,,,,,,,,,,,,,,,,,,,,,,,,,,,,,,,,,,,,,,,,,,,,,,,,,,,,,,,,,,
1656266427.312618,54.000000,0.000000,4261.025879,4248.717773,4101.538574,4103.589844,4216.410156,0.000000,4.000000,91.000000,,,,0.000000,4.000000,4.000000,4.000000,4.000000,4.000000,100.000000,,,,,,,,,,,,,,,,,,,,,,,,,,,,,,,,,,,,,,,,,,,,,,,,,,,,,,,,,,,,,,,
1656266427.320532,55.000000,0.000000,4253.846191,4246.153809,4111.282227,4094.358887,4231.282227,0.000000,4.000000,91.000000,,,,0.000000,4.000000,4.000000,4.000000,4.000000,4.000000,100.000000,,,,,,,,,,,,,,,,,,,,,,,,,,,,,,,,,,,,,,,,,,,,,,,,,,,,,,,,,,,,,,,
1656266427.328347,56.000000,0.000000,4258.461426,4231.282227,4098.974121,4086.153809,4234.871582,0.000000,4.000000,91.000000,,,,0.000000,4.000000,4.000000,4.000000,4.000000,4.000000,100.000000,,,,,,,,,,,,,,,,,,,,,,,,,,,,,,,,,,,,,,,,,,,,,,,,,,,,,,,,,,,,,,,
1656266427.336261,57.000000,0.000000,4265.128418,4230.256348,4088.205078,4085.641113,4224.615234,0.000000,4.000000,91.000000,,,,0.000000,4.000000,4.000000,4.000000,4.000000,4.000000,100.000000,,,,,,,,,,,,,,,,,,,,,,,,,,,,,,,,,,,,,,,,,,,,,,,,,,,,,,,,,,,,,,,
1656266427.344075,58.000000,0.000000,4262.563965,4247.179688,4093.333252,4081.538574,4223.077148,0.000000,4.000000,91.000000,,,,0.000000,4.000000,4.000000,4.000000,4.000000,4.000000,100.000000,,,,,,,,,,,,,,,,,,,,,,,,,,,,,,,,,,,,,,,,,,,,,,,,,,,,,,,,,,,,,,,
1656266427.351990,59.000000,0.000000,4256.410156,4243.077148,4098.461426,4074.871826,4220.000000,0.000000,4.000000,91.000000,,,,0.000000,4.000000,4.000000,4.000000,4.000000,4.000000,100.000000,,,,,,,,,,,,,,,,,,,,,,,,,,,,,,,,,,,,,,,,,,,,,,,,,,,,,,,,,,,,,,,
1656266427.359804,60.000000,0.000000,4251.282227,4226.153809,4101.538574,4075.897461,4201.025879,0.000000,4.000000,91.000000,,,,0.000000,4.000000,4.000000,4.000000,4.000000,4.000000,100.000000,,,,,,,,,,,,,,,,,,,,,,,,,,,,,,,,,,,,,,,25.824291,3.201038,2.387173,0.723591,0.304991,3.146426,1.099556,0.574344,0.574983,0.487001,6.944306,1.454022,0.675779,0.516154,0.446938,6.273694,1.467142,1.332356,0.562715,0.387218,19.777241,3.194561,1.970508,0.916818,0.457526
1656266427.367719,61.000000,0.000000,4246.153809,4235.384766,4100.512695,4079.487061,4191.282227,0.000000,4.000000,91.000000,,,,0.000000,4.000000,4.000000,4.000000,4.000000,4.000000,100.000000,,,,,,,,,,,,,,,,,,,,,,,,,,,,,,,,,,,,,,,,,,,,,,,,,,,,,,,,,,,,,,,
1656266427.375533,62.000000,0.000000,4247.692383,4251.282227,4096.410156,4087.179443,4208.205078,0.000000,4.000000,91.000000,,,,0.000000,4.000000,4.000000,4.000000,4.000000,4.000000,100.000000,,,,,,,,,,,,,,,,,,,,,,,,,,,,,,,,,,,,,,,,,,,,,,,,,,,,,,,,,,,,,,,
1656266427.383447,63.000000,0.000000,4258.461426,4250.769043,4098.974121,4105.128418,4238.461426,0.000000,4.000000,91.000000,,,,0.000000,4.000000,4.000000,4.000000,4.000000,4.000000,100.000000,,,,,,,,,,,,,,,,,,,,,,,,,,,,,,,,,,,,,,,,,,,,,,,,,,,,,,,,,,,,,,,
1656266427.391262,64.000000,0.000000,4269.230957,4247.692383,4102.051270,4104.615234,4238.461426,450.000000,4.000000,91.000000,,,,0.000000,4.000000,4.000000,4.000000,4.000000,4.000000,100.000000,,,,,,,,,,,,,,,,,,,,,,,,,,,,,,,,,,,,,,,,,,,,,,,,,,,,,,,,,,,,,,,
1656266427.399176,65.000000,0.000000,4269.743652,4247.179688,4090.769287,4084.102539,4212.307617,450.000000,4.000000,91.000000,,,,0.000000,4.000000,4.000000,4.000000,4.000000,4.000000,100.000000,,,,,,,,,,,,,,,,,,,,,,,,,,,,,,,,,,,,,,,,,,,,,,,,,,,,,,,,,,,,,,,
1656266427.406990,66.000000,0.000000,4266.666504,4244.615234,4084.102539,4079.487061,4212.307617,16359.000000,4.000000,91.000000,,,,0.000000,4.000000,4.000000,4.000000,4.000000,4.000000,100.000000,,,,,,,,,,,,,,,,,,,,,,,,,,,,,,,,,,,,,,,,,,,,,,,,,,,,,,,,,,,,,,,
1656266427.414905,67.000000,0.000000,4274.358887,4232.307617,4094.871826,4093.333252,4232.820313,450.000000,4.000000,91.000000,,,,0.000000,4.000000,4.000000,4.000000,4.000000,4.000000,100.000000,,,,,,,,,,,,,,,,,,,,,,,,,,,,,,,,,,,,,,,,,,,,,,,,,,,,,,,,,,,,,,,
1656266427.422719,68.000000,0.000000,4291.282227,4220.000000,4104.615234,4098.461426,4239.487305,16125.000000,4.000000,91.000000,,,,0.000000,4.000000,4.000000,4.000000,4.000000,4.000000,100.000000,,,,,,,,,,,,,,,,,,,,,,,,,,,,,,,,,,,,,,,,,,,,,,,,,,,,,,,,,,,,,,,
1656266427.430533,69.000000,0.000000,4298.974121,4231.794922,4101.538574,4095.384521,4238.974121,450.000000,4.000000,91.000000,,,,0.000000,4.000000,4.000000,4.000000,4.000000,4.000000,100.000000,,,,,,,,,,,,,,,,,,,,,,,,,,,,,,,,,,,,,,,,,,,,,,,,,,,,,,,,,,,,,,,
1656266427.438248,70.000000,0.000000,4292.307617,4251.282227,4093.333252,4095.384521,4248.717773,1.000000,4.000000,91.000000,,,,0.000000,4.000000,4.000000,0.000000,4.000000,4.000000,66.666664,,,,,,,,,,,,,,,,,,,,,,,,,,,,,,,,,,,,,,,,,,,,,,,,,,,,,,,,,,,,,,,
1656266427.446162,71.000000,0.000000,4280.000000,4236.410156,4089.230713,4088.718018,4244.615234,450.000000,4.000000,91.000000,,,,0.000000,4.000000,4.000000,0.000000,4.000000,4.000000,66.666664,,,,,,,,,,,,,,,,,,,,,,,,,,,,,,,,,,,,,,,,,,,,,,,,,,,,,,,,,,,,,,,
1656266427.453977,72.000000,0.000000,4271.282227,4221.025879,4089.230713,4087.692383,4228.717773,450.000000,4.000000,91.000000,,,,0.000000,4.000000,4.000000,0.000000,4.000000,4.000000,66.666664,,,,,,,,,,,,,,,,,,,,,,,,,,,,,,,,,,,,,,,,,,,,,,,,,,,,,,,,,,,,,,,
1656266427.461691,73.000000,0.000000,4268.717773,4240.512695,4093.846191,4102.563965,4226.153809,16258.000000,4.000000,91.000000,,,,0.000000,4.000000,4.000000,0.000000,4.000000,4.000000,66.666664,,,,,,,,,,,,,,,,,,,,,,,,,,,,,,,,,,,,,,,,,,,,,,,,,,,,,,,,,,,,,,,
1656266427.469506,74.000000,0.000000,4276.410156,4250.256348,4098.974121,4109.230957,4224.102539,450.000000,4.000000,91.000000,,,,0.000000,4.000000,4.000000,0.000000,4.000000,4.000000,66.666664,,,,,,,,,,,,,,,,,,,,,,,,,,,,,,,,,,,,,,,,,,,,,,,,,,,,,,,,,,,,,,,
1656266427.477220,75.000000,0.000000,4286.666504,4234.358887,4095.384521,4097.948730,4220.000000,16167.000000,4.000000,91.000000,,,,0.000000,4.000000,4.000000,0.000000,4.000000,4.000000,66.666664,,,,,,,,,,,,,,,,,,,,,,,,,,,,,,,,,,,,,,,,,,,,,,,,,,,,,,,,,,,,,,,
1656266427.485134,76.000000,0.000000,4280.000000,4224.102539,4086.153809,4086.666748,4221.025879,450.000000,4.000000,91.000000,,,,0.000000,4.000000,4.000000,0.000000,4.000000,4.000000,66.666664,,,,,,,,,,,,,,,,,,,,,,,,,,,,,,,,,,,,,,,33.361443,3.256699,2.520507,0.777415,0.317212,3.821271,1.162397,0.708852,0.576340,0.468585,7.930191,1.556076,0.765515,0.507467,0.435106,6.864509,1.431528,1.398382,0.634015,0.419180,25.159451,3.306598,2.028807,1.007516,0.449688
1656266427.492949,77.000000,0.000000,4268.717773,4233.846191,4088.205078,4094.358887,4221.538574,450.000000,4.000000,91.000000,,,,0.000000,4.000000,4.000000,0.000000,4.000000,4.000000,66.666664,,,,,,,,,,,,,,,,,,,,,,,,,,,,,,,,,,,,,,,,,,,,,,,,,,,,,,,,,,,,,,,
1656266427.500863,78.000000,0.000000,4269.743652,4245.128418,4102.563965,4101.538574,4223.589844,450.000000,4.000000,91.000000,,,,0.000000,4.000000,4.000000,0.000000,4.000000,4.000000,66.666664,,,,,,,,,,,,,,,,,,,,,,,,,,,,,,,,,,,,,,,,,,,,,,,,,,,,,,,,,,,,,,,
1656266427.508678,79.000000,0.000000,4282.051270,4235.384766,4111.282227,4101.538574,4235.384766,16167.000000,4.000000,91.000000,,,,0.000000,4.000000,4.000000,0.000000,4.000000,4.000000,66.666664,,,,,,,,,,,,,,,,,,,,,,,,,,,,,,,,,,,,,,,,,,,,,,,,,,,,,,,,,,,,,,,
1656266427.516492,80.000000,0.000000,4289.230957,4228.717773,4111.282227,4112.820313,4251.282227,450.000000,4.000000,91.000000,,,,0.000000,4.000000,4.000000,0.000000,4.000000,4.000000,66.666664,,,,,,,,,,,,,,,,,,,,,,,,,,,,,,,,,,,,,,,,,,,,,,,,,,,,,,,,,,,,,,,
1656266427.524206,81.000000,0.000000,4279.487305,4242.563965,4104.615234,4117.436035,4252.307617,450.000000,4.000000,91.000000,,,,0.000000,4.000000,4.000000,0.000000,4.000000,4.000000,66.666664,,,,,,,,,,,,,,,,,,,,,,,,,,,,,,,,,,,,,,,,,,,,,,,,,,,,,,,,,,,,,,,
1656266427.532021,82.000000,0.000000,4274.358887,4240.512695,4105.641113,4098.974121,4244.615234,450.000000,4.000000,91.000000,,,,0.000000,4.000000,4.000000,0.000000,4.000000,4.000000,66.666664,,,,,,,,,,,,,,,,,,,,,,,,,,,,,,,,,,,,,,,,,,,,,,,,,,,,,,,,,,,,,,,
1656266427.539735,83.000000,0.000000,4282.051270,4220.512695,4108.717773,4084.102539,4230.769043,16167.000000,4.000000,91.000000,,,,0.000000,4.000000,4.000000,0.000000,4.000000,4.000000,66.666664,,,,,,,,,,,,,,,,,,,,,,,,,,,,,,,,,,,,,,,,,,,,,,,,,,,,,,,,,,,,,,,
1656266427.547550,84.000000,0.000000,4274.358887,4222.563965,4095.384521,4083.589844,4214.358887,450.000000,4.000000,91.000000,,,,0.000000,4.000000,4.000000,0.000000,4.000000,4.000000,66.666664,,,,,,,,,,,,,,,,,,,,,,,,,,,,,,,,,,,,,,,,,,,,,,,,,,,,,,,,,,,,,,,
1656266427.555264,85.000000,0.000000,4260.512695,4223.077148,4085.641113,4082.051270,4213.333496,450.000000,4.000000,91.000000,,,,0.000000,4.000000,4.000000,0.000000,4.000000,4.000000,66.666664,,,,,,,,,,,,,,,,,,,,,,,,,,,,,,,,,,,,,,,,,,,,,,,,,,,,,,,,,,,,,,,
1656266427.563179,86.000000,0.000000,4263.077148,4200.512695,4095.384521,4086.666748,4216.922852,450.000000,4.000000,91.000000,,,,0.000000,4.000000,4.000000,0.000000,4.000000,4.000000,66.666664,,,,,,,,,,,,,,,,,,,,,,,,,,,,,,,,,,,,,,,,,,,,,,,,,,,,,,,,,,,,,,,
1656266427.570993,87.000000,0.000000,4266.666504,4205.128418,4105.641113,4104.102539,4215.897461,16167.000000,4.000000,91.000000,,,,0.000000,4.000000,4.000000,0.000000,4.000000,4.000000,66.666664,,,,,,,,,,,,,,,,,,,,,,,,,,,,,,,,,,,,,,,,,,,,,,,,,,,,,,,,,,,,,,,
1656266427.578807,88.000000,0.000000,4264.102539,4227.179688,4103.589844,4112.820313,4223.589844,450.000000,4.000000,91.000000,,,,0.000000,4.000000,4.000000,0.000000,4.000000,4.000000,66.666664,,,,,,,,,,,,,,,,,,,,,,,,,,,,,,,,,,,,,,,,,,,,,,,,,,,,,,,,,,,,,,,
1656266427.586522,89.000000,0.000000,4269.230957,4227.179688,4098.974121,4110.769043,4233.846191,450.000000,4.000000,91.000000,,,,0.000000,4.000000,4.000000,0.000000,4.000000,4.000000,66.666664,,,,,,,,,,,,,,,,,,,,,,,,,,,,,,,,,,,,,,,,,,,,,,,,,,,,,,,,,,,,,,,
1656266427.594436,90.000000,0.000000,4282.051270,4231.282227,4109.230957,4121.538574,4245.641113,450.000000,4.000000,91.000000,,,,0.000000,4.000000,4.000000,0.000000,4.000000,4.000000,66.666664,,,,,,,,,,,,,,,,,,,,,,,,,,,,,,,,,,,,,,,,,,,,,,,,,,,,,,,,,,,,,,,
1656266427.602251,91.000000,0.000000,4292.307617,4242.563965,4127.179688,4131.794922,4258.974121,16167.000000,4.000000,91.000000,,,,0.000000,4.000000,4.000000,0.000000,4.000000,4.000000,66.666664,,,,,,,,,,,,,,,,,,,,,,,,,,,,,,,,,,,,,,,,,,,,,,,,,,,,,,,,,,,,,,,
1656266427.610165,92.000000,0.000000,4291.282227,4237.948730,4128.717773,4121.025879,4258.974121,450.000000,4.000000,91.000000,,,,0.000000,4.000000,4.000000,0.000000,4.000000,4.000000,66.666664,1.000000,66.666664,4.000000,4.000000,0.000000,4.000000,4.000000,,,,,,,,,,,,,,,,,,,,,,,,,,,,,,,,36.902885,3.255817,2.375087,0.820517,0.327205,4.203954,1.210355,0.837455,0.549965,0.463461,8.433198,1.648248,0.819400,0.483938,0.424571,7.177239,1.377089,1.348415,0.719781,0.451933,27.781168,3.539831,1.921518,1.064102,0.465152
1656266427.617979,93.000000,0.000000,4289.743652,4233.333496,4115.897461,4115.384766,4252.820313,450.000000,4.000000,91.000000,,,,0.000000,4.000000,4.000000,0.000000,4.000000,4.000000,66.666664,,,,,,,,,,,,,,,,,,,,,,,,,,,,,,,,,,,,,,,,,,,,,,,,,,,,,,,,,,,,,,,
1656266427.625894,94.000000,0.000000,4295.384766,4238.974121,4113.333496,4118.974121,4254.358887,450.000000,4.000000,91.000000,,,,0.000000,4.000000,4.000000,0.000000,4.000000,4.000000,66.666664,,,,,,,,,,,,,,,,,,,,,,,,,,,,,,,,,,,,,,,,,,,,,,,,,,,,,,,,,,,,,,,
1656266427.633808,95.000000,0.000000,4296.410156,4245.128418,4125.641113,4108.205078,4251.794922,16167.000000,4.000000,91.000000,,,,0.000000,4.000000,4.000000,0.000000,4.000000,4.000000,66.666664,,,,,,,,,,,,,,,,,,,,,,,,,,,,,,,,,,,,,,,,,,,,,,,,,,,,,,,,,,,,,,,
1656266427.641622,96.000000,0.000000,4290.256348,4241.025879,4126.666504,4093.846191,4244.102539,450.000000,4.000000,91.000000,,,,0.000000,4.000000,4.000000,0.000000,4.000000,4.000000,66.666664,,,,,,,,,,,,,,,,,,,,,,,,,,,,,,,,,,,,,,,,,,,,,,,,,,,,,,,,,,,,,,,
1656266427.649437,97.000000,0.000000,4287.692383,4232.820313,4114.871582,4088.718018,4238.974121,450.000000,4.000000,91.000000,,,,0.000000,4.000000,4.000000,0.000000,4.000000,4.000000,66.666664,,,,,,,,,,,,,,,,,,,,,,,,,,,,,,,,,,,,,,,,,,,,,,,,,,,,,,,,,,,,,,,
1656266427.657151,98.000000,0.000000,4291.282227,4233.846191,4114.358887,4091.794922,4237.436035,450.000000,4.000000,91.000000,,,,0.000000,4.000000,4.000000,0.000000,4.000000,4.000000,66.666664,,,,,,,,,,,,,,,,,,,,,,,,,,,,,,,,,,,,,,,,,,,,,,,,,,,,,,,,,,,,,,,
1656266427.664966,99.000000,0.000000,4287.179688,4237.948730,4116.410156,4097.948730,4237.436035,16167.000000,4.000000,91.000000,,,,0.000000,4.000000,4.000000,0.000000,4.000000,4.000000,66.666664,,,,,,,,,,,,,,,,,,,,,,,,,,,,,,,,,,,,,,,,,,,,,,,,,,,,,,,,,,,,,,,
1656266427.672680,100.000000,0.000000,4283.077148,4241.538574,4121.025879,4102.563965,4242.051270,450.000000,4.000000,91.000000,,,,0.000000,4.000000,4.000000,0.000000,4.000000,4.000000,66.666664,,,,,,,,,,,,,,,,,,,,,,,,,,,,,,,,,,,,,,,,,,,,,,,,,,,,,,,,,,,,,,,
1656266427.680495,101.000000,0.000000,4291.794922,4252.307617,4130.769043,4102.051270,4244.102539,450.000000,4.000000,91.000000,,,,0.000000,4.000000,4.000000,0.000000,4.000000,4.000000,66.666664,,,,,,,,,,,,,,,,,,,,,,,,,,,,,,,,,,,,,,,,,,,,,,,,,,,,,,,,,,,,,,,
1656266427.688209,102.000000,0.000000,4294.871582,4256.922852,4128.717773,4092.307617,4236.410156,450.000000,4.000000,91.000000,,,,0.000000,4.000000,4.000000,0.000000,4.000000,4.000000,66.666664,,,,,,,,,,,,,,,,,,,,,,,,,,,,,,,,,,,,,,,,,,,,,,,,,,,,,,,,,,,,,,,
1656266427.696024,103.000000,0.000000,4292.307617,4249.743652,4124.102539,4091.281982,4238.974121,16167.000000,4.000000,91.000000,,,,0.000000,4.000000,4.000000,0.000000,4.000000,4.000000,66.666664,,,,,,,,,,,,,,,,,,,,,,,,,,,,,,,,,,,,,,,,,,,,,,,,,,,,,,,,,,,,,,,
1656266427.703738,104.000000,0.000000,4299.487305,4251.794922,4127.692383,4106.666504,4254.871582,450.000000,4.000000,91.000000,,,,0.000000,4.000000,4.000000,0.000000,4.000000,4.000000,66.666664,,,,,,,,,,,,,,,,,,,,,,,,,,,,,,,,,,,,,,,,,,,,,,,,,,,,,,,,,,,,,,,
1656266427.711552,105.000000,0.000000,4305.641113,4263.589844,4127.179688,4110.769043,4258.461426,450.000000,4.000000,91.000000,,,,0.000000,4.000000,4.000000,0.000000,4.000000,4.000000,66.666664,,,,,,,,,,,,,,,,,,,,,,,,,,,,,,,,,,,,,,,,,,,,,,,,,,,,,,,,,,,,,,,
1656266427.719267,106.000000,0.000000,4304.102539,4262.563965,4123.589844,4105.128418,4253.846191,450.000000,4.000000,91.000000,,,,0.000000,4.000000,4.000000,0.000000,4.000000,4.000000,66.666664,,,,,,,,,,,,,,,,,,,,,,,,,,,,,,,,,,,,,,,,,,,,,,,,,,,,,,,,,,,,,,,
1656266427.727081,107.000000,0.000000,4305.641113,4254.871582,4125.128418,4109.230957,4263.077148,16167.000000,4.000000,91.000000,,,,0.000000,4.000000,4.000000,0.000000,4.000000,4.000000,66.666664,,,,,,,,,,,,,,,,,,,,,,,,,,,,,,,,,,,,,,,,,,,,,,,,,,,,,,,,,,,,,,,
1656266427.734796,108.000000,0.000000,4303.589844,4252.820313,4128.205078,4107.179688,4266.666504,450.000000,4.000000,91.000000,,,,0.000000,4.000000,4.000000,0.000000,4.000000,4.000000,66.666664,,,,,,,,,,,,,,,,,,,,,,,,,,,,,,,,,,,,,,,35.054749,3.169281,1.999773,0.858668,0.328434,4.140440,1.199994,0.926066,0.501965,0.475451,8.243091,1.675226,0.802909,0.454337,0.419297,6.996473,1.329133,1.226770,0.809251,0.472846,26.509108,3.784860,1.692710,1.106751,0.501291
1656266427.742610,109.000000,0.000000,4289.230957,4250.769043,4124.102539,4092.307617,4244.615234,450.000000,4.000000,91.000000,,,,0.000000,4.000000,4.000000,0.000000,4.000000,4.000000,66.666664,,,,,,,,,,,,,,,,,,,,,,,,,,,,,,,,,,,,,,,,,,,,,,,,,,,,,,,,,,,,,,,
1656266427.750325,110.000000,0.000000,4275.384766,4246.666504,4114.358887,4080.000000,4225.641113,450.000000,4.000000,91.000000,,,,0.000000,4.000000,4.000000,0.000000,4.000000,4.000000,66.666664,,,,,,,,,,,,,,,,,,,,,,,,,,,,,,,,,,,,,,,,,,,,,,,,,,,,,,,,,,,,,,,
1656266427.758239,111.000000,0.000000,4276.410156,4245.641113,4103.589844,4072.820557,4227.179688,16167.000000,4.000000,91.000000,,,,0.000000,4.000000,4.000000,0.000000,4.000000,4.000000,66.666664,,,,,,,,,,,,,,,,,,,,,,,,,,,,,,,,,,,,,,,,,,,,,,,,,,,,,,,,,,,,,,,
1656266427.766053,112.000000,0.000000,4284.615234,4244.102539,4102.563965,4082.564209,4233.333496,450.000000,4.000000,91.000000,,,,0.000000,4.000000,4.000000,0.000000,4.000000,4.000000,66.666664,,,,,,,,,,,,,,,,,,,,,,,,,,,,,,,,,,,,,,,,,,,,,,,,,,,,,,,,,,,,,,,
1656266427.773968,113.000000,0.000000,4286.666504,4250.769043,4113.333496,4102.563965,4233.846191,450.000000,4.000000,91.000000,,,,0.000000,4.000000,4.000000,0.000000,4.000000,4.000000,66.666664,,,,,,,,,,,,,,,,,,,,,,,,,,,,,,,,,,,,,,,,,,,,,,,,,,,,,,,,,,,,,,,
1656266427.781782,114.000000,0.000000,4280.512695,4256.922852,4112.307617,4097.436035,4228.717773,450.000000,4.000000,91.000000,,,,0.000000,4.000000,4.000000,0.000000,4.000000,4.000000,66.666664,,,,,,,,,,,,,,,,,,,,,,,,,,,,,,,,,,,,,,,,,,,,,,,,,,,,,,,,,,,,,,,
1656266427.789697,115.000000,0.000000,4276.410156,4248.717773,4105.128418,4088.205078,4220.512695,16167.000000,4.000000,91.000000,,,,0.000000,4.000000,4.000000,0.000000,4.000000,4.000000,66.666664,,,,,,,,,,,,,,,,,,,,,,,,,,,,,,,,,,,,,,,,,,,,,,,,,,,,,,,,,,,,,,,
1656266427.797511,116.000000,0.000000,4283.589844,4249.743652,4112.820313,4106.666504,4231.282227,450.000000,4.000000,91.000000,,,,0.000000,4.000000,4.000000,0.000000,4.000000,4.000000,66.666664,,,,,,,,,,,,,,,,,,,,,,,,,,,,,,,,,,,,,,,,,,,,,,,,,,,,,,,,,,,,,,,
1656266427.805425,117.000000,0.000000,4287.179688,4256.922852,4115.384766,4116.410156,4250.256348,450.000000,4.000000,91.000000,,,,0.000000,4.000000,4.000000,0.000000,4.000000,4.000000,66.666664,,,,,,,,,,,,,,,,,,,,,,,,,,,,,,,,,,,,,,,,,,,,,,,,,,,,,,,,,,,,,,,
1656266427.813240,118.000000,0.000000,4284.615234,4249.743652,4101.025879,4110.769043,4249.230957,450.000000,4.000000,91.000000,,,,0.000000,4.000000,4.000000,0.000000,4.000000,4.000000,66.666664,,,,,,,,,,,,,,,,,,,,,,,,,,,,,,,,,,,,,,,,,,,,,,,,,,,,,,,,,,,,,,,
1656266427.821054,119.000000,0.000000,4294.871582,4247.179688,4100.000000,4118.974121,4253.846191,16167.000000,4.000000,91.000000,,,,0.000000,4.000000,4.000000,0.000000,4.000000,4.000000,66.666664,,,,,,,,,,,,,,,,,,,,,,,,,,,,,,,,,,,,,,,,,,,,,,,,,,,,,,,,,,,,,,,
1656266427.828769,120.000000,0.000000,4309.743652,4254.871582,4116.410156,4123.077148,4274.358887,450.000000,4.000000,91.000000,,,,0.000000,4.000000,4.000000,0.000000,4.000000,4.000000,66.666664,,,,,,,,,,,,,,,,,,,,,,,,,,,,,,,,,,,,,,,,,,,,,,,,,,,,,,,,,,,,,,,
1656266427.836483,121.000000,0.000000,4308.205078,4256.922852,4124.102539,4114.871582,4275.897461,450.000000,4.000000,91.000000,,,,0.000000,4.000000,4.000000,0.000000,4.000000,4.000000,66.666664,,,,,,,,,,,,,,,,,,,,,,,,,,,,,,,,,,,,,,,,,,,,,,,,,,,,,,,,,,,,,,,
1656266427.844297,122.000000,0.000000,4294.358887,4251.794922,4115.384766,4101.025879,4253.846191,450.000000,4.000000,91.000000,,,,0.000000,4.000000,4.000000,0.000000,4.000000,4.000000,66.666664,,,,,,,,,,,,,,,,,,,,,,,,,,,,,,,,,,,,,,,,,,,,,,,,,,,,,,,,,,,,,,,
1656266427.852012,123.000000,0.000000,4290.256348,4248.205078,4105.128418,4091.794922,4240.512695,16167.000000,4.000000,91.000000,,,,0.000000,4.000000,4.000000,0.000000,4.000000,4.000000,66.666664,,,,,,,,,,,,,,,,,,,,,,,,,,,,,,,,,,,,,,,,,,,,,,,,,,,,,,,,,,,,,,,
1656266427.859826,124.000000,0.000000,4295.897461,4251.282227,4107.179688,4103.077148,4252.307617,450.000000,4.000000,91.000000,,,,0.000000,4.000000,4.000000,0.000000,4.000000,4.000000,66.666664,,,,,,,,,,,,,,,,,,,,,,,,,,,,,,,,,,,,,,,28.518106,3.036274,1.511548,0.898275,0.318390,3.643505,1.139727,0.969829,0.443298,0.503748,7.298329,1.626401,0.724295,0.425957,0.420159,6.256349,1.323496,1.110161,0.893607,0.476342,21.722101,4.000632,1.440413,1.163252,0.546419
1656266427.867541,125.000000,0.000000,4290.769043,4263.077148,4112.307617,4113.333496,4261.025879,450.000000,4.000000,91.000000,,,,0.000000,4.000000,4.000000,0.000000,4.000000,4.000000,66.666664,,,,,,,,,,,,,,,,,,,,,,,,,,,,,,,,,,,,,,,,,,,,,,,,,,,,,,,,,,,,,,,
1656266427.875355,126.000000,0.000000,4278.974121,4270.256348,4104.102539,4105.128418,4254.358887,450.000000,4.000000,91.000000,,,,0.000000,4.000000,4.000000,0.000000,4.000000,4.000000,66.666664,,,,,,,,,,,,,,,,,,,,,,,,,,,,,,,,,,,,,,,,,,,,,,,,,,,,,,,,,,,,,,,
1656266427.883070,127.000000,0.000000,4274.358887,4263.077148,4090.256348,4099.487305,4245.128418,242.000000,4.000000,91.000000,,,,0.000000,4.000000,4.000000,0.000000,4.000000,4.000000,66.666664,,,,,,,,,,,,,,,,,,,,,,,,,,,,,,,,,,,,,,,,,,,,,,,,,,,,,,,,,,,,,,,
1656266427.890884,0.000000,0.000000,4281.025879,4256.410156,4090.256348,4105.641113,4246.666504,450.000000,4.000000,91.000000,,,,0.000000,4.000000,4.000000,0.000000,4.000000,4.000000,66.666664,,,,,,,,,,,,,,,,,,,,,,,,,,,,,,,,,,,,,,,,,,,,,,,,,,,,,,,,,,,,,,,
1656266427.898599,1.000000,0.000000,4292.820313,4260.512695,4104.102539,4113.333496,4248.205078,450.000000,4.000000,91.000000,,,,0.000000,4.000000,4.000000,0.000000,4.000000,4.000000,66.666664,,,,,,,,,,,,,,,,,,,,,,,,,,,,,,,,,,,,,,,,,,,,,,,,,,,,,,,,,,,,,,,
1656266427.906413,2.000000,0.000000,4295.384766,4255.897461,4113.846191,4117.948730,4243.077148,16371.000000,4.000000,91.000000,,,,0.000000,4.000000,4.000000,0.000000,4.000000,4.000000,66.666664,,,,,,,,,,,,,,,,,,,,,,,,,,,,,,,,,,,,,,,,,,,,,,,,,,,,,,,,,,,,,,,
1656266427.914128,3.000000,0.000000,4293.846191,4252.820313,4120.512695,4122.051270,4249.743652,450.000000,4.000000,91.000000,,,,0.000000,4.000000,4.000000,0.000000,4.000000,4.000000,66.666664,,,,,,,,,,,,,,,,,,,,,,,,,,,,,,,,,,,,,,,,,,,,,,,,,,,,,,,,,,,,,,,
1656266427.922042,4.000000,0.000000,4296.922852,4268.717773,4118.461426,4124.615234,4261.538574,16249.000000,4.000000,91.000000,,,,0.000000,4.000000,4.000000,4.000000,4.000000,4.000000,100.000000,,,,,,,,,,,,,,,,,,,,,,,,,,,,,,,,,,,,,,,,,,,,,,,,,,,,,,,,,,,,,,,
1656266427.929856,5.000000,0.000000,4288.205078,4272.820313,4114.871582,4120.512695,4261.538574,450.000000,4.000000,91.000000,,,,0.000000,4.000000,4.000000,4.000000,4.000000,4.000000,100.000000,,,,,,,,,,,,,,,,,,,,,,,,,,,,,,,,,,,,,,,,,,,,,,,,,,,,,,,,,,,,,,,
1656266427.937671,6.000000,0.000000,4267.179688,4250.769043,4117.436035,4106.666504,4246.666504,16337.000000,4.000000,91.000000,,,,0.000000,4.000000,4.000000,4.000000,4.000000,4.000000,100.000000,,,,,,,,,,,,,,,,,,,,,,,,,,,,,,,,,,,,,,,,,,,,,,,,,,,,,,,,,,,,,,,
1656266427.945385,7.000000,0.000000,4264.615234,4237.436035,4113.846191,4092.307617,4231.282227,450.000000,4.000000,91.000000,,,,0.000000,4.000000,4.000000,4.000000,4.000000,4.000000,100.000000,,,,,,,,,,,,,,,,,,,,,,,,,,,,,,,,,,,,,,,,,,,,,,,,,,,,,,,,,,,,,,,
1656266427.953300,8.000000,0.000000,4278.461426,4247.179688,4112.307617,4093.846191,4241.025879,450.000000,4.000000,91.000000,,,,0.000000,4.000000,4.000000,4.000000,4.000000,4.000000,100.000000,,,,,,,,,,,,,,,,,,,,,,,,,,,,,,,,,,,,,,,,,,,,,,,,,,,,,,,,,,,,,,,
1656266427.961114,9.000000,0.000000,4278.974121,4268.205078,4120.000000,4104.102539,4255.384766,16335.000000,4.000000,91.000000,,,,0.000000,4.000000,4.000000,4.000000,4.000000,4.000000,100.000000,,,,,,,,,,,,,,,,,,,,,,,,,,,,,,,,,,,,,,,,,,,,,,,,,,,,,,,,,,,,,,,
1656266427.969028,10.000000,0.000000,4275.384766,4282.563965,4113.846191,4104.102539,4249.743652,450.000000,4.000000,91.000000,,,,0.000000,4.000000,4.000000,4.000000,4.000000,4.000000,100.000000,,,,,,,,,,,,,,,,,,,,,,,,,,,,,,,,,,,,,,,,,,,,,,,,,,,,,,,,,,,,,,,
1656266427.976843,11.000000,0.000000,4280.000000,4283.589844,4100.512695,4100.512695,4246.153809,16070.000000,4.000000,91.000000,,,,0.000000,4.000000,4.000000,4.000000,4.000000,4.000000,100.000000,,,,,,,,,,,,,,,,,,,,,,,,,,,,,,,,,,,,,,,,,,,,,,,,,,,,,,,,,,,,,,,
1656266427.984757,12.000000,0.000000,4285.641113,4284.102539,4110.256348,4105.641113,4255.384766,450.000000,4.000000,91.000000,,,,0.000000,4.000000,4.000000,4.000000,4.000000,4.000000,100.000000,,,,,,,,,,,,,,,,,,,,,,,,,,,,,,,,,,,,,,,19.776018,2.941074,1.035583,0.937504,0.299697,2.900237,1.074067,0.981927,0.386355,0.542569,5.854460,1.524280,0.615697,0.402793,0.425264,5.130746,1.419172,1.058952,0.959609,0.463582,15.217673,4.235514,1.249661,1.237299,0.584213
1656266427.992571,13.000000,0.000000,4296.410156,4292.307617,4123.077148,4112.820313,4256.410156,450.000000,4.000000,91.000000,,,,0.000000,4.000000,4.000000,4.000000,4.000000,4.000000,100.000000,,,,,,,,,,,,,,,,,,,,,,,,,,,,,,,,,,,,,,,,,,,,,,,,,,,,,,,,,,,,,,,
1656266428.000486,14.000000,0.000000,4303.077148,4291.282227,4111.794922,4104.615234,4255.384766,450.000000,4.000000,91.000000,,,,0.000000,4.000000,4.000000,4.000000,4.000000,4.000000,100.000000,,,,,,,,,,,,,,,,,,,,,,,,,,,,,,,,,,,,,,,,,,,,,,,,,,,,,,,,,,,,,,,
1656266428.008300,15.000000,0.000000,4293.846191,4275.897461,4107.692383,4089.230713,4260.000000,16070.000000,4.000000,91.000000,,,,0.000000,4.000000,4.000000,4.000000,4.000000,4.000000,100.000000,,,,,,,,,,,,,,,,,,,,,,,,,,,,,,,,,,,,,,,,,,,,,,,,,,,,,,,,,,,,,,,
1656266428.016214,16.000000,0.000000,4274.871582,4254.871582,4109.743652,4074.358887,4240.512695,0.000000,4.000000,91.000000,,,,0.000000,4.000000,4.000000,4.000000,4.000000,4.000000,100.000000,,,,,,,,,,,,,,,,,,,,,,,,,,,,,,,,,,,,,,,,,,,,,,,,,,,,,,,,,,,,,,,
1656266428.024029,17.000000,0.000000,4259.487305,4236.922852,4091.794922,4068.718018,4214.358887,0.000000,4.000000,91.000000,,,,0.000000,4.000000,4.000000,4.000000,4.000000,4.000000,100.000000,,,,,,,,,,,,,,,,,,,,,,,,,,,,,,,,,,,,,,,,,,,,,,,,,,,,,,,,,,,,,,,
1656266428.031743,18.000000,0.000000,4248.717773,4238.974121,4067.179443,4073.846191,4212.820313,0.000000,4.000000,91.000000,,,,0.000000,4.000000,4.000000,4.000000,4.000000,4.000000,100.000000,,,,,,,,,,,,,,,,,,,,,,,,,,,,,,,,,,,,,,,,,,,,,,,,,,,,,,,,,,,,,,,
1656266428.039558,19.000000,0.000000,4250.769043,4242.051270,4062.051270,4069.230713,4222.563965,0.000000,4.000000,91.000000,,,,0.000000,4.000000,4.000000,4.000000,4.000000,4.000000,100.000000,,,,,,,,,,,,,,,,,,,,,,,,,,,,,,,,,,,,,,,,,,,,,,,,,,,,,,,,,,,,,,,
1656266428.047272,20.000000,0.000000,4265.128418,4234.358887,4067.179443,4058.461426,4228.717773,0.000000,4.000000,91.000000,,,,0.000000,4.000000,4.000000,4.000000,4.000000,4.000000,100.000000,,,,,,,,,,,,,,,,,,,,,,,,,,,,,,,,,,,,,,,,,,,,,,,,,,,,,,,,,,,,,,,
1656266428.055087,21.000000,0.000000,4260.512695,4236.410156,4069.230713,4054.871826,4221.025879,0.000000,4.000000,91.000000,,,,0.000000,4.000000,4.000000,4.000000,4.000000,4.000000,100.000000,,,,,,,,,,,,,,,,,,,,,,,,,,,,,,,,,,,,,,,,,,,,,,,,,,,,,,,,,,,,,,,
1656266428.062801,22.000000,0.000000,4250.256348,4248.717773,4080.512939,4067.179443,4209.230957,0.000000,4.000000,91.000000,,,,0.000000,4.000000,4.000000,4.000000,4.000000,4.000000,100.000000,,,,,,,,,,,,,,,,,,,,,,,,,,,,,,,,,,,,,,,,,,,,,,,,,,,,,,,,,,,,,,,
1656266428.070715,23.000000,0.000000,4260.512695,4256.410156,4094.871826,4082.564209,4221.025879,0.000000,4.000000,91.000000,,,,0.000000,4.000000,4.000000,4.000000,4.000000,4.000000,100.000000,,,,,,,,,,,,,,,,,,,,,,,,,,,,,,,,,,,,,,,,,,,,,,,,,,,,,,,,,,,,,,,
1656266428.078530,24.000000,0.000000,4276.410156,4263.077148,4097.948730,4085.128174,4242.563965,0.000000,4.000000,91.000000,,,,0.000000,4.000000,4.000000,4.000000,4.000000,4.000000,100.000000,,,,,,,,,,,,,,,,,,,,,,,,,,,,,,,,,,,,,,,,,,,,,,,,,,,,,,,,,,,,,,,
1656266428.086344,25.000000,0.000000,4273.333496,4272.307617,4098.974121,4078.461426,4232.820313,0.000000,4.000000,91.000000,,,,0.000000,4.000000,4.000000,4.000000,4.000000,4.000000,100.000000,,,,,,,,,,,,,,,,,,,,,,,,,,,,,,,,,,,,,,,,,,,,,,,,,,,,,,,,,,,,,,,
1656266428.094059,26.000000,0.000000,4259.487305,4258.974121,4099.487305,4078.974365,4209.743652,0.000000,4.000000,91.000000,,,,0.000000,4.000000,4.000000,4.000000,4.000000,4.000000,100.000000,,,,,,,,,,,,,,,,,,,,,,,,,,,,,,,,,,,,,,,,,,,,,,,,,,,,,,,,,,,,,,,
1656266428.101973,27.000000,0.000000,4260.512695,4240.000000,4098.461426,4087.179443,4217.948730,0.000000,4.000000,91.000000,,,,0.000000,4.000000,4.000000,4.000000,4.000000,4.000000,100.000000,,,,,,,,,,,,,,,,,,,,,,,,,,,,,,,,,,,,,,,,,,,,,,,,,,,,,,,,,,,,,,,
1656266428.109788,28.000000,0.000000,4265.128418,4246.153809,4093.846191,4082.051270,4231.794922,0.000000,4.000000,91.000000,,,,0.000000,4.000000,4.000000,4.000000,4.000000,4.000000,100.000000,1.000000,66.666664,4.000000,4.000000,0.000000,4.000000,4.000000,,,,,,,,,,,,,,,,,,,,,,,,,,,,,,,,11.681287,2.917249,0.671497,0.965198,0.277957,2.130105,1.068672,0.969114,0.341382,0.581160,4.173826,1.399157,0.517194,0.386383,0.431296,3.819346,1.701813,1.081827,0.993838,0.440302,9.089371,4.528190,1.169725,1.305860,0.602701
1656266428.117702,29.000000,0.000000,4260.000000,4251.794922,4087.692383,4071.794922,4222.051270,0.000000,4.000000,91.000000,,,,0.000000,4.000000,4.000000,4.000000,4.000000,4.000000,100.000000,,,,,,,,,,,,,,,,,,,,,,,,,,,,,,,,,,,,,,,,,,,,,,,,,,,,,,,,,,,,,,,
1656266428.125516,30.000000,0.000000,4250.256348,4231.282227,4074.871826,4070.256348,4216.410156,0.000000,4.000000,91.000000,,,,0.000000,4.000000,4.000000,4.000000,4.000000,4.000000,100.000000,,,,,,,,,,,,,,,,,,,,,,,,,,,,,,,,,,,,,,,,,,,,,,,,,,,,,,,,,,,,,,,
1656266428.133431,31.000000,0.000000,4245.641113,4215.897461,4067.692383,4069.230713,4225.128418,0.000000,4.000000,91.000000,,,,0.000000,4.000000,4.000000,4.000000,4.000000,4.000000,100.000000,,,,,,,,,,,,,,,,,,,,,,,,,,,,,,,,,,,,,,,,,,,,,,,,,,,,,,,,,,,,,,,
1656266428.141245,32.000000,0.000000,4248.205078,4230.256348,4080.000000,4068.718018,4226.153809,0.000000,4.000000,91.000000,,,,0.000000,4.000000,4.000000,4.000000,4.000000,4.000000,100.000000,,,,,,,,,,,,,,,,,,,,,,,,,,,,,,,,,,,,,,,,,,,,,,,,,,,,,,,,,,,,,,,
1656266428.149159,33.000000,0.000000,4249.743652,4237.436035,4088.718018,4072.820557,4225.128418,0.000000,4.000000,91.000000,,,,0.000000,4.000000,4.000000,4.000000,4.000000,4.000000,100.000000,,,,,,,,,,,,,,,,,,,,,,,,,,,,,,,,,,,,,,,,,,,,,,,,,,,,,,,,,,,,,,,
1656266428.156974,34.000000,0.000000,4243.077148,4234.358887,4083.589844,4072.307617,4227.179688,0.000000,4.000000,91.000000,,,,0.000000,4.000000,4.000000,4.000000,4.000000,4.000000,100.000000,,,,,,,,,,,,,,,,,,,,,,,,,,,,,,,,,,,,,,,,,,,,,,,,,,,,,,,,,,,,,,,
1656266428.164888,35.000000,0.000000,4225.128418,4238.461426,4078.974365,4059.487061,4211.794922,0.000000,4.000000,91.000000,,,,0.000000,4.000000,4.000000,4.000000,4.000000,4.000000,100.000000,,,,,,,,,,,,,,,,,,,,,,,,,,,,,,,,,,,,,,,,,,,,,,,,,,,,,,,,,,,,,,,
1656266428.172702,36.000000,0.000000,4218.461426,4233.846191,4087.179443,4057.435791,4192.307617,0.000000,4.000000,91.000000,,,,0.000000,4.000000,4.000000,4.000000,4.000000,4.000000,100.000000,,,,,,,,,,,,,,,,,,,,,,,,,,,,,,,,,,,,,,,,,,,,,,,,,,,,,,,,,,,,,,,
1656266428.180617,37.000000,0.000000,4235.384766,4231.282227,4098.974121,4076.923096,4202.563965,0.000000,4.000000,91.000000,,,,0.000000,4.000000,4.000000,4.000000,4.000000,4.000000,100.000000,,,,,,,,,,,,,,,,,,,,,,,,,,,,,,,,,,,,,,,,,,,,,,,,,,,,,,,,,,,,,,,
1656266428.188431,38.000000,0.000000,4252.307617,4243.589844,4102.051270,4095.384521,4224.102539,0.000000,4.000000,91.000000,,,,0.000000,4.000000,4.000000,4.000000,4.000000,4.000000,100.000000,,,,,,,,,,,,,,,,,,,,,,,,,,,,,,,,,,,,,,,,,,,,,,,,,,,,,,,,,,,,,,,
1656266428.196345,39.000000,0.000000,4256.922852,4251.794922,4103.589844,4098.974121,4229.230957,0.000000,4.000000,91.000000,,,,0.000000,4.000000,4.000000,4.000000,4.000000,4.000000,100.000000,,,,,,,,,,,,,,,,,,,,,,,,,,,,,,,,,,,,,,,,,,,,,,,,,,,,,,,,,,,,,,,
1656266428.204160,40.000000,0.000000,4265.641113,4249.743652,4101.025879,4090.769287,4226.666504,0.000000,4.000000,91.000000,,,,0.000000,4.000000,4.000000,4.000000,4.000000,4.000000,100.000000,,,,,,,,,,,,,,,,,,,,,,,,,,,,,,,,,,,,,,,,,,,,,,,,,,,,,,,,,,,,,,,
1656266428.211874,41.000000,0.000000,4271.794922,4252.820313,4085.128174,4079.487061,4229.230957,0.000000,4.000000,91.000000,,,,0.000000,4.000000,4.000000,4.000000,4.000000,4.000000,100.000000,,,,,,,,,,,,,,,,,,,,,,,,,,,,,,,,,,,,,,,,,,,,,,,,,,,,,,,,,,,,,,,
1656266428.219689,42.000000,0.000000,4262.563965,4249.743652,4080.000000,4069.743652,4231.282227,0.000000,4.000000,91.000000,,,,0.000000,4.000000,4.000000,4.000000,4.000000,4.000000,100.000000,,,,,,,,,,,,,,,,,,,,,,,,,,,,,,,,,,,,,,,,,,,,,,,,,,,,,,,,,,,,,,,
1656266428.227403,43.000000,0.000000,4257.948730,4235.384766,4095.384521,4065.641113,4234.871582,0.000000,4.000000,91.000000,,,,0.000000,4.000000,4.000000,4.000000,4.000000,4.000000,100.000000,,,,,,,,,,,,,,,,,,,,,,,,,,,,,,,,,,,,,,,,,,,,,,,,,,,,,,,,,,,,,,,
1656266428.235218,44.000000,0.000000,4265.128418,4238.974121,4107.179688,4072.820557,4241.538574,0.000000,4.000000,91.000000,,,,0.000000,4.000000,4.000000,4.000000,4.000000,4.000000,100.000000,,,,,,,,,,,,,,,,,,,,,,,,,,,,,,,,,,,,,,,6.128770,2.979278,0.474357,0.966902,0.258263,1.562117,1.192032,0.932447,0.321352,0.608229,2.691725,1.299614,0.478366,0.377332,0.435716,2.683109,2.203969,1.147092,0.992113,0.414673,4.807199,4.905518,1.189810,1.336954,0.599911
1656266428.242932,45.000000,0.000000,4270.769043,4256.922852,4102.563965,4080.512939,4240.512695,0.000000,4.000000,91.000000,,,,0.000000,4.000000,4.000000,4.000000,4.000000,4.000000,100.000000,,,,,,,,,,,,,,,,,,,,,,,,,,,,,,,,,,,,,,,,,,,,,,,,,,,,,,,,,,,,,,,
1656266428.250747,46.000000,0.000000,4268.717773,4259.487305,4093.333252,4076.410156,4239.487305,0.000000,4.000000,91.000000,,,,0.000000,4.000000,4.000000,4.000000,4.000000,4.000000,100.000000,,,,,,,,,,,,,,,,,,,,,,,,,,,,,,,,,,,,,,,,,,,,,,,,,,,,,,,,,,,,,,,
1656266428.258461,47.000000,0.000000,4265.128418,4250.769043,4091.794922,4075.384521,4244.615234,0.000000,4.000000,91.000000,,,,0.000000,4.000000,4.000000,4.000000,4.000000,4.000000,100.000000,,,,,,,,,,,,,,,,,,,,,,,,,,,,,,,,,,,,,,,,,,,,,,,,,,,,,,,,,,,,,,,
1656266428.266375,48.000000,0.000000,4264.615234,4248.205078,4095.897461,4085.641113,4237.436035,0.000000,4.000000,91.000000,,,,0.000000,4.000000,4.000000,4.000000,4.000000,4.000000,100.000000,,,,,,,,,,,,,,,,,,,,,,,,,,,,,,,,,,,,,,,,,,,,,,,,,,,,,,,,,,,,,,,
1656266428.274190,49.000000,0.000000,4264.102539,4250.769043,4100.512695,4091.281982,4219.487305,0.000000,4.000000,91.000000,,,,0.000000,4.000000,4.000000,4.000000,4.000000,4.000000,100.000000,,,,,,,,,,,,,,,,,,,,,,,,,,,,,,,,,,,,,,,,,,,,,,,,,,,,,,,,,,,,,,,
1656266428.282104,50.000000,0.000000,4269.743652,4249.230957,4104.615234,4088.205078,4217.436035,0.000000,4.000000,91.000000,,,,0.000000,4.000000,4.000000,4.000000,4.000000,4.000000,100.000000,,,,,,,,,,,,,,,,,,,,,,,,,,,,,,,,,,,,,,,,,,,,,,,,,,,,,,,,,,,,,,,
1656266428.289918,51.000000,0.000000,4278.461426,4250.769043,4112.820313,4085.641113,4229.743652,0.000000,4.000000,91.000000,,,,0.000000,4.000000,4.000000,4.000000,4.000000,4.000000,100.000000,,,,,,,,,,,,,,,,,,,,,,,,,,,,,,,,,,,,,,,,,,,,,,,,,,,,,,,,,,,,,,,
1656266428.297833,52.000000,0.000000,4285.128418,4261.025879,4117.436035,4081.538574,4239.487305,0.000000,4.000000,91.000000,,,,0.000000,4.000000,4.000000,4.000000,4.000000,4.000000,100.000000,,,,,,,,,,,,,,,,,,,,,,,,,,,,,,,,,,,,,,,,,,,,,,,,,,,,,,,,,,,,,,,
1656266428.305647,53.000000,0.000000,4290.769043,4269.230957,4107.692383,4083.076904,4250.769043,0.000000,4.000000,91.000000,,,,0.000000,4.000000,4.000000,4.000000,4.000000,4.000000,100.000000,,,,,,,,,,,,,,,,,,,,,,,,,,,,,,,,,,,,,,,,,,,,,,,,,,,,,,,,,,,,,,,
1656266428.313561,54.000000,0.000000,4288.717773,4266.153809,4097.948730,4096.410156,4261.538574,0.000000,4.000000,91.000000,,,,0.000000,4.000000,4.000000,4.000000,4.000000,4.000000,100.000000,,,,,,,,,,,,,,,,,,,,,,,,,,,,,,,,,,,,,,,,,,,,,,,,,,,,,,,,,,,,,,,
1656266428.321376,55.000000,0.000000,4281.025879,4252.307617,4100.512695,4100.512695,4256.410156,0.000000,4.000000,91.000000,,,,0.000000,4.000000,4.000000,4.000000,4.000000,4.000000,100.000000,,,,,,,,,,,,,,,,,,,,,,,,,,,,,,,,,,,,,,,,,,,,,,,,,,,,,,,,,,,,,,,
1656266428.329290,56.000000,0.000000,4279.487305,4241.538574,4099.487305,4095.384521,4246.153809,0.000000,4.000000,91.000000,,,,0.000000,4.000000,4.000000,4.000000,4.000000,4.000000,100.000000,,,,,,,,,,,,,,,,,,,,,,,,,,,,,,,,,,,,,,,,,,,,,,,,,,,,,,,,,,,,,,,
1656266428.337105,57.000000,0.000000,4283.589844,4250.769043,4089.230713,4100.000000,4247.692383,0.000000,4.000000,91.000000,,,,0.000000,4.000000,4.000000,4.000000,4.000000,4.000000,100.000000,,,,,,,,,,,,,,,,,,,,,,,,,,,,,,,,,,,,,,,,,,,,,,,,,,,,,,,,,,,,,,,
1656266428.344919,58.000000,0.000000,4286.666504,4268.205078,4089.230713,4098.461426,4250.256348,0.000000,4.000000,91.000000,,,,0.000000,4.000000,4.000000,4.000000,4.000000,4.000000,100.000000,,,,,,,,,,,,,,,,,,,,,,,,,,,,,,,,,,,,,,,,,,,,,,,,,,,,,,,,,,,,,,,
1656266428.352634,59.000000,0.000000,4285.128418,4267.692383,4097.948730,4088.718018,4244.102539,0.000000,4.000000,91.000000,,,,0.000000,4.000000,4.000000,4.000000,4.000000,4.000000,100.000000,,,,,,,,,,,,,,,,,,,,,,,,,,,,,,,,,,,,,,,,,,,,,,,,,,,,,,,,,,,,,,,
1656266428.360548,60.000000,0.000000,4285.128418,4263.077148,4104.102539,4100.000000,4238.974121,0.000000,4.000000,91.000000,,,,0.000000,4.000000,4.000000,4.000000,4.000000,4.000000,100.000000,,,,,,,,,,,,,,,,,,,,,,,,,,,,,,,,,,,,,,,3.483582,3.131701,0.447031,0.931662,0.246969,1.291236,1.536940,0.892365,0.334653,0.615844,1.707231,1.298813,0.543144,0.376542,0.436839,1.925299,2.878771,1.205490,0.960335,0.394546,2.779037,5.323807,1.269827,1.306531,0.586177
1656266428.368362,61.000000,0.000000,4288.205078,4267.179688,4100.512695,4113.846191,4242.563965,0.000000,4.000000,91.000000,,,,0.000000,4.000000,4.000000,4.000000,4.000000,4.000000,100.000000,,,,,,,,,,,,,,,,,,,,,,,,,,,,,,,,,,,,,,,,,,,,,,,,,,,,,,,,,,,,,,,
1656266428.376177,62.000000,0.000000,4294.871582,4267.692383,4098.461426,4107.179688,4253.846191,0.000000,4.000000,91.000000,,,,0.000000,4.000000,4.000000,4.000000,4.000000,4.000000,100.000000,,,,,,,,,,,,,,,,,,,,,,,,,,,,,,,,,,,,,,,,,,,,,,,,,,,,,,,,,,,,,,,
1656266428.383891,63.000000,0.000000,4292.307617,4264.102539,4104.102539,4099.487305,4250.256348,0.000000,4.000000,91.000000,,,,0.000000,4.000000,4.000000,4.000000,4.000000,4.000000,100.000000,,,,,,,,,,,,,,,,,,,,,,,,,,,,,,,,,,,,,,,,,,,,,,,,,,,,,,,,,,,,,,,
1656266428.391606,64.000000,0.000000,4283.589844,4259.487305,4103.589844,4093.846191,4227.692383,450.000000,4.000000,91.000000,,,,0.000000,4.000000,4.000000,4.000000,4.000000,4.000000,100.000000,,,,,,,,,,,,,,,,,,,,,,,,,,,,,,,,,,,,,,,,,,,,,,,,,,,,,,,,,,,,,,,
1656266428.399420,65.000000,0.000000,4291.282227,4265.128418,4103.589844,4088.205078,4225.128418,450.000000,4.000000,91.000000,,,,0.000000,4.000000,4.000000,4.000000,4.000000,4.000000,100.000000,,,,,,,,,,,,,,,,,,,,,,,,,,,,,,,,,,,,,,,,,,,,,,,,,,,,,,,,,,,,,,,
1656266428.407135,66.000000,0.000000,4298.461426,4267.692383,4104.102539,4091.281982,4239.487305,16293.000000,4.000000,91.000000,,,,0.000000,4.000000,4.000000,4.000000,4.000000,4.000000,100.000000,,,,,,,,,,,,,,,,,,,,,,,,,,,,,,,,,,,,,,,,,,,,,,,,,,,,,,,,,,,,,,,
1656266428.415049,67.000000,0.000000,4285.641113,4254.358887,4096.410156,4096.922852,4234.358887,450.000000,4.000000,91.000000,,,,0.000000,4.000000,4.000000,4.000000,4.000000,4.000000,100.000000,,,,,,,,,,,,,,,,,,,,,,,,,,,,,,,,,,,,,,,,,,,,,,,,,,,,,,,,,,,,,,,
1656266428.422863,68.000000,0.000000,4276.410156,4252.820313,4085.128174,4095.384521,4227.179688,16194.000000,4.000000,91.000000,,,,0.000000,4.000000,4.000000,4.000000,4.000000,4.000000,100.000000,,,,,,,,,,,,,,,,,,,,,,,,,,,,,,,,,,,,,,,,,,,,,,,,,,,,,,,,,,,,,,,
1656266428.430778,69.000000,0.000000,4285.128418,4258.461426,4078.461426,4090.256348,4231.282227,450.000000,4.000000,91.000000,,,,0.000000,4.000000,4.000000,4.000000,4.000000,4.000000,100.000000,,,,,,,,,,,,,,,,,,,,,,,,,,,,,,,,,,,,,,,,,,,,,,,,,,,,,,,,,,,,,,,
1656266428.438592,70.000000,0.000000,4284.102539,4245.641113,4076.923096,4083.076904,4227.179688,16291.000000,4.000000,91.000000,,,,0.000000,4.000000,4.000000,4.000000,4.000000,4.000000,100.000000,,,,,,,,,,,,,,,,,,,,,,,,,,,,,,,,,,,,,,,,,,,,,,,,,,,,,,,,,,,,,,,
1656266428.446506,71.000000,0.000000,4262.051270,4235.384766,4075.897461,4070.256348,4213.846191,450.000000,4.000000,91.000000,,,,0.000000,4.000000,4.000000,4.000000,4.000000,4.000000,100.000000,,,,,,,,,,,,,,,,,,,,,,,,,,,,,,,,,,,,,,,,,,,,,,,,,,,,,,,,,,,,,,,
1656266428.454321,72.000000,0.000000,4260.512695,4238.974121,4077.948730,4069.230713,4212.820313,450.000000,4.000000,91.000000,,,,0.000000,4.000000,4.000000,4.000000,4.000000,4.000000,100.000000,,,,,,,,,,,,,,,,,,,,,,,,,,,,,,,,,,,,,,,,,,,,,,,,,,,,,,,,,,,,,,,
1656266428.462135,73.000000,0.000000,4284.102539,4247.179688,4075.897461,4086.666748,4226.666504,16251.000000,4.000000,91.000000,,,,0.000000,4.000000,4.000000,4.000000,4.000000,4.000000,100.000000,,,,,,,,,,,,,,,,,,,,,,,,,,,,,,,,,,,,,,,,,,,,,,,,,,,,,,,,,,,,,,,
1656266428.469850,74.000000,0.000000,4288.717773,4250.769043,4077.435791,4091.794922,4227.692383,450.000000,4.000000,91.000000,,,,0.000000,4.000000,4.000000,4.000000,4.000000,4.000000,100.000000,,,,,,,,,,,,,,,,,,,,,,,,,,,,,,,,,,,,,,,,,,,,,,,,,,,,,,,,,,,,,,,
1656266428.477664,75.000000,0.000000,4277.436035,4240.000000,4091.281982,4087.179443,4222.051270,16155.000000,4.000000,91.000000,,,,0.000000,4.000000,4.000000,4.000000,4.000000,4.000000,100.000000,,,,,,,,,,,,,,,,,,,,,,,,,,,,,,,,,,,,,,,,,,,,,,,,,,,,,,,,,,,,,,,
1656266428.485379,76.000000,0.000000,4283.589844,4235.384766,4103.077148,4096.922852,4234.871582,450.000000,4.000000,91.000000,,,,0.000000,4.000000,4.000000,4.000000,4.000000,4.000000,100.000000,,,,,,,,,,,,,,,,,,,,,,,,,,,,,,,,,,,,,,,2.773302,3.336069,0.571374,0.864678,0.248336,1.279775,2.167015,0.870086,0.382978,0.602763,1.328437,1.462980,0.718464,0.391013,0.432491,1.578535,3.626619,1.220713,0.915762,0.382939,2.361656,5.637918,1.362975,1.216122,0.577002
1656266428.493293,77.000000,0.000000,4297.436035,4255.897461,4112.307617,4108.717773,4249.743652,450.000000,4.000000,91.000000,,,,0.000000,4.000000,4.000000,4.000000,4.000000,4.000000,100.000000,,,,,,,,,,,,,,,,,,,,,,,,,,,,,,,,,,,,,,,,,,,,,,,,,,,,,,,,,,,,,,,
1656266428.501107,78.000000,0.000000,4302.563965,4272.820313,4116.410156,4105.641113,4255.384766,450.000000,4.000000,91.000000,,,,0.000000,4.000000,4.000000,4.000000,4.000000,4.000000,100.000000,,,,,,,,,,,,,,,,,,,,,,,,,,,,,,,,,,,,,,,,,,,,,,,,,,,,,,,,,,,,,,,
1656266428.509022,79.000000,0.000000,4300.512695,4257.436035,4103.077148,4098.461426,4256.922852,16155.000000,4.000000,91.000000,,,,0.000000,4.000000,4.000000,4.000000,4.000000,4.000000,100.000000,,,,,,,,,,,,,,,,,,,,,,,,,,,,,,,,,,,,,,,,,,,,,,,,,,,,,,,,,,,,,,,
1656266428.516836,80.000000,0.000000,4291.282227,4240.512695,4091.281982,4096.922852,4244.615234,450.000000,4.000000,91.000000,,,,0.000000,4.000000,4.000000,4.000000,4.000000,4.000000,100.000000,,,,,,,,,,,,,,,,,,,,,,,,,,,,,,,,,,,,,,,,,,,,,,,,,,,,,,,,,,,,,,,
1656266428.524750,81.000000,0.000000,4282.563965,4242.563965,4093.333252,4090.769287,4227.179688,450.000000,4.000000,91.000000,,,,0.000000,4.000000,4.000000,4.000000,4.000000,4.000000,100.000000,,,,,,,,,,,,,,,,,,,,,,,,,,,,,,,,,,,,,,,,,,,,,,,,,,,,,,,,,,,,,,,
1656266428.532565,82.000000,0.000000,4284.102539,4249.230957,4089.230713,4077.948730,4224.615234,450.000000,4.000000,91.000000,,,,0.000000,4.000000,4.000000,4.000000,4.000000,4.000000,100.000000,,,,,,,,,,,,,,,,,,,,,,,,,,,,,,,,,,,,,,,,,,,,,,,,,,,,,,,,,,,,,,,
1656266428.540479,83.000000,0.000000,4287.692383,4255.384766,4081.025635,4072.307617,4228.717773,16155.000000,4.000000,91.000000,,,,0.000000,4.000000,4.000000,4.000000,4.000000,4.000000,100.000000,,,,,,,,,,,,,,,,,,,,,,,,,,,,,,,,,,,,,,,,,,,,,,,,,,,,,,,,,,,,,,,
1656266428.548293,84.000000,0.000000,4293.333496,4259.487305,4086.666748,4080.512939,4235.897461,450.000000,4.000000,91.000000,,,,0.000000,4.000000,4.000000,4.000000,4.000000,4.000000,100.000000,,,,,,,,,,,,,,,,,,,,,,,,,,,,,,,,,,,,,,,,,,,,,,,,,,,,,,,,,,,,,,,
1656266428.556208,85.000000,0.000000,4308.205078,4261.025879,4096.410156,4093.333252,4250.256348,450.000000,4.000000,91.000000,,,,0.000000,4.000000,4.000000,4.000000,4.000000,4.000000,100.000000,,,,,,,,,,,,,,,,,,,,,,,,,,,,,,,,,,,,,,,,,,,,,,,,,,,,,,,,,,,,,,,
1656266428.564022,86.000000,0.000000,4312.820313,4264.102539,4104.615234,4100.000000,4255.384766,450.000000,4.000000,91.000000,,,,0.000000,4.000000,4.000000,4.000000,4.000000,4.000000,100.000000,,,,,,,,,,,,,,,,,,,,,,,,,,,,,,,,,,,,,,,,,,,,,,,,,,,,,,,,,,,,,,,
1656266428.571737,87.000000,0.000000,4295.384766,4268.717773,4121.025879,4104.102539,4246.153809,16155.000000,4.000000,91.000000,,,,0.000000,4.000000,4.000000,4.000000,4.000000,4.000000,100.000000,,,,,,,,,,,,,,,,,,,,,,,,,,,,,,,,,,,,,,,,,,,,,,,,,,,,,,,,,,,,,,,
1656266428.579651,88.000000,0.000000,4283.077148,4270.256348,4126.153809,4101.538574,4237.948730,450.000000,4.000000,91.000000,,,,0.000000,4.000000,4.000000,4.000000,4.000000,4.000000,100.000000,,,,,,,,,,,,,,,,,,,,,,,,,,,,,,,,,,,,,,,,,,,,,,,,,,,,,,,,,,,,,,,
1656266428.587465,89.000000,0.000000,4284.102539,4266.666504,4109.230957,4086.666748,4230.256348,450.000000,4.000000,91.000000,,,,0.000000,4.000000,4.000000,4.000000,4.000000,4.000000,100.000000,,,,,,,,,,,,,,,,,,,,,,,,,,,,,,,,,,,,,,,,,,,,,,,,,,,,,,,,,,,,,,,
1656266428.595380,90.000000,0.000000,4287.179688,4263.077148,4104.102539,4082.051270,4226.666504,450.000000,4.000000,91.000000,,,,0.000000,4.000000,4.000000,4.000000,4.000000,4.000000,100.000000,,,,,,,,,,,,,,,,,,,,,,,,,,,,,,,,,,,,,,,,,,,,,,,,,,,,,,,,,,,,,,,
1656266428.603194,91.000000,0.000000,4290.769043,4253.333496,4107.692383,4089.743652,4236.410156,16155.000000,4.000000,91.000000,,,,0.000000,4.000000,4.000000,4.000000,4.000000,4.000000,100.000000,,,,,,,,,,,,,,,,,,,,,,,,,,,,,,,,,,,,,,,,,,,,,,,,,,,,,,,,,,,,,,,
1656266428.611108,92.000000,0.000000,4289.230957,4244.615234,4089.743652,4086.153809,4242.051270,450.000000,4.000000,91.000000,,,,0.000000,4.000000,4.000000,4.000000,4.000000,4.000000,100.000000,1.000000,66.666664,4.000000,4.000000,0.000000,4.000000,4.000000,,,,,,,,,,,,,,,,,,,,,,,,,,,,,,,,2.623150,3.554106,0.816628,0.787626,0.262544,1.393757,3.026306,0.872483,0.459600,0.573722,1.392452,1.808742,0.966934,0.428729,0.420143,1.511626,4.281521,1.188260,0.879400,0.376976,2.502049,5.708514,1.438766,1.094467,0.584024
1656266428.618923,93.000000,0.000000,4282.563965,4252.307617,4076.410156,4076.923096,4237.436035,450.000000,4.000000,91.000000,,,,0.000000,4.000000,4.000000,4.000000,4.000000,4.000000,100.000000,,,,,,,,,,,,,,,,,,,,,,,,,,,,,,,,,,,,,,,,,,,,,,,,,,,,,,,,,,,,,,,
1656266428.626737,94.000000,0.000000,4285.641113,4260.000000,4086.153809,4077.435791,4235.384766,450.000000,4.000000,91.000000,,,,0.000000,4.000000,4.000000,4.000000,4.000000,4.000000,100.000000,,,,,,,,,,,,,,,,,,,,,,,,,,,,,,,,,,,,,,,,,,,,,,,,,,,,,,,,,,,,,,,
1656266428.634452,95.000000,0.000000,4287.179688,4252.820313,4095.384521,4086.666748,4235.384766,16155.000000,4.000000,91.000000,,,,0.000000,4.000000,4.000000,4.000000,4.000000,4.000000,100.000000,,,,,,,,,,,,,,,,,,,,,,,,,,,,,,,,,,,,,,,,,,,,,,,,,,,,,,,,,,,,,,,
1656266428.642266,96.000000,0.000000,4281.025879,4248.717773,4096.410156,4098.461426,4229.230957,450.000000,4.000000,91.000000,,,,0.000000,4.000000,4.000000,4.000000,4.000000,4.000000,100.000000,,,,,,,,,,,,,,,,,,,,,,,,,,,,,,,,,,,,,,,,,,,,,,,,,,,,,,,,,,,,,,,
1656266428.649981,97.000000,0.000000,4288.717773,4257.948730,4103.589844,4105.641113,4225.128418,450.000000,4.000000,91.000000,,,,0.000000,4.000000,4.000000,4.000000,4.000000,4.000000,100.000000,,,,,,,,,,,,,,,,,,,,,,,,,,,,,,,,,,,,,,,,,,,,,,,,,,,,,,,,,,,,,,,
1656266428.657795,98.000000,0.000000,4303.589844,4267.179688,4109.743652,4108.717773,4241.538574,450.000000,4.000000,91.000000,,,,0.000000,4.000000,4.000000,4.000000,4.000000,4.000000,100.000000,,,,,,,,,,,,,,,,,,,,,,,,,,,,,,,,,,,,,,,,,,,,,,,,,,,,,,,,,,,,,,,
1656266428.665510,99.000000,0.000000,4303.589844,4266.666504,4110.769043,4110.256348,4256.922852,16155.000000,4.000000,91.000000,,,,0.000000,4.000000,4.000000,4.000000,4.000000,4.000000,100.000000,,,,,,,,,,,,,,,,,,,,,,,,,,,,,,,,,,,,,,,,,,,,,,,,,,,,,,,,,,,,,,,
1656266428.673424,100.000000,0.000000,4304.102539,4257.436035,4110.256348,4104.615234,4247.692383,450.000000,4.000000,91.000000,,,,0.000000,4.000000,4.000000,4.000000,4.000000,4.000000,100.000000,,,,,,,,,,,,,,,,,,,,,,,,,,,,,,,,,,,,,,,,,,,,,,,,,,,,,,,,,,,,,,,
1656266428.681238,101.000000,0.000000,4308.205078,4254.871582,4103.077148,4095.897461,4235.897461,450.000000,4.000000,91.000000,,,,0.000000,4.000000,4.000000,4.000000,4.000000,4.000000,100.000000,,,,,,,,,,,,,,,,,,,,,,,,,,,,,,,,,,,,,,,,,,,,,,,,,,,,,,,,,,,,,,,
1656266428.689153,102.000000,0.000000,4306.153809,4264.102539,4101.538574,4099.487305,4246.153809,450.000000,4.000000,91.000000,,,,0.000000,4.000000,4.000000,4.000000,4.000000,4.000000,100.000000,,,,,,,,,,,,,,,,,,,,,,,,,,,,,,,,,,,,,,,,,,,,,,,,,,,,,,,,,,,,,,,
1656266428.696967,103.000000,0.000000,4301.025879,4265.641113,4116.410156,4116.922852,4253.846191,16155.000000,4.000000,91.000000,,,,0.000000,4.000000,4.000000,4.000000,4.000000,4.000000,100.000000,,,,,,,,,,,,,,,,,,,,,,,,,,,,,,,,,,,,,,,,,,,,,,,,,,,,,,,,,,,,,,,
1656266428.704781,104.000000,0.000000,4295.384766,4251.794922,4124.102539,4125.641113,4239.487305,450.000000,4.000000,91.000000,,,,0.000000,4.000000,4.000000,4.000000,4.000000,4.000000,100.000000,,,,,,,,,,,,,,,,,,,,,,,,,,,,,,,,,,,,,,,,,,,,,,,,,,,,,,,,,,,,,,,
1656266428.712496,105.000000,0.000000,4293.333496,4250.256348,4108.717773,4109.743652,4235.384766,450.000000,4.000000,91.000000,,,,0.000000,4.000000,4.000000,4.000000,4.000000,4.000000,100.000000,,,,,,,,,,,,,,,,,,,,,,,,,,,,,,,,,,,,,,,,,,,,,,,,,,,,,,,,,,,,,,,
1656266428.720410,106.000000,0.000000,4304.102539,4267.692383,4100.000000,4095.897461,4251.794922,450.000000,4.000000,91.000000,,,,0.000000,4.000000,4.000000,4.000000,4.000000,4.000000,100.000000,,,,,,,,,,,,,,,,,,,,,,,,,,,,,,,,,,,,,,,,,,,,,,,,,,,,,,,,,,,,,,,
1656266428.728225,107.000000,0.000000,4313.846191,4273.846191,4109.230957,4100.512695,4252.820313,16155.000000,4.000000,91.000000,,,,0.000000,4.000000,4.000000,4.000000,4.000000,4.000000,100.000000,,,,,,,,,,,,,,,,,,,,,,,,,,,,,,,,,,,,,,,,,,,,,,,,,,,,,,,,,,,,,,,
1656266428.736139,108.000000,0.000000,4297.948730,4269.230957,4114.358887,4099.487305,4235.897461,450.000000,4.000000,91.000000,,,,0.000000,4.000000,4.000000,4.000000,4.000000,4.000000,100.000000,,,,,,,,,,,,,,,,,,,,,,,,,,,,,,,,,,,,,,,2.431251,3.722483,1.115924,0.722739,0.286502,1.514065,3.931266,0.896286,0.548167,0.538381,1.635177,2.299193,1.236548,0.488109,0.397477,1.596555,4.675767,1.130973,0.864856,0.369773,2.624228,5.448570,1.488477,0.986182,0.609279
1656266428.743953,109.000000,0.000000,4278.461426,4272.307617,4109.743652,4086.666748,4228.205078,450.000000,4.000000,91.000000,,,,0.000000,4.000000,4.000000,4.000000,4.000000,4.000000,100.000000,,,,,,,,,,,,,,,,,,,,,,,,,,,,,,,,,,,,,,,,,,,,,,,,,,,,,,,,,,,,,,,
1656266428.751668,110.000000,0.000000,4283.589844,4276.922852,4111.282227,4089.743652,4234.358887,450.000000,4.000000,91.000000,,,,0.000000,4.000000,4.000000,4.000000,4.000000,4.000000,100.000000,,,,,,,,,,,,,,,,,,,,,,,,,,,,,,,,,,,,,,,,,,,,,,,,,,,,,,,,,,,,,,,
1656266428.759482,111.000000,0.000000,4298.461426,4278.974121,4123.589844,4111.794922,4247.692383,16155.000000,4.000000,91.000000,,,,0.000000,4.000000,4.000000,4.000000,4.000000,4.000000,100.000000,,,,,,,,,,,,,,,,,,,,,,,,,,,,,,,,,,,,,,,,,,,,,,,,,,,,,,,,,,,,,,,
1656266428.767197,112.000000,0.000000,4293.846191,4270.256348,4127.692383,4114.358887,4253.333496,450.000000,4.000000,91.000000,,,,0.000000,4.000000,4.000000,4.000000,4.000000,4.000000,100.000000,,,,,,,,,,,,,,,,,,,,,,,,,,,,,,,,,,,,,,,,,,,,,,,,,,,,,,,,,,,,,,,
1656266428.775011,113.000000,0.000000,4281.025879,4258.461426,4116.922852,4094.358887,4234.871582,450.000000,4.000000,91.000000,,,,0.000000,4.000000,4.000000,4.000000,4.000000,4.000000,100.000000,,,,,,,,,,,,,,,,,,,,,,,,,,,,,,,,,,,,,,,,,,,,,,,,,,,,,,,,,,,,,,,
1656266428.782726,114.000000,0.000000,4281.538574,4260.000000,4106.153809,4086.153809,4224.615234,450.000000,4.000000,91.000000,,,,0.000000,4.000000,4.000000,4.000000,4.000000,4.000000,100.000000,,,,,,,,,,,,,,,,,,,,,,,,,,,,,,,,,,,,,,,,,,,,,,,,,,,,,,,,,,,,,,,
1656266428.790540,115.000000,0.000000,4282.563965,4268.717773,4108.205078,4087.179443,4234.358887,16155.000000,4.000000,91.000000,,,,0.000000,4.000000,4.000000,4.000000,4.000000,4.000000,100.000000,,,,,,,,,,,,,,,,,,,,,,,,,,,,,,,,,,,,,,,,,,,,,,,,,,,,,,,,,,,,,,,
1656266428.798255,116.000000,0.000000,4276.922852,4267.179688,4122.051270,4081.025635,4229.743652,450.000000,4.000000,91.000000,,,,0.000000,4.000000,4.000000,4.000000,4.000000,4.000000,100.000000,,,,,,,,,,,,,,,,,,,,,,,,,,,,,,,,,,,,,,,,,,,,,,,,,,,,,,,,,,,,,,,
1656266428.806069,117.000000,0.000000,4278.461426,4266.153809,4123.589844,4081.538574,4217.436035,450.000000,4.000000,91.000000,,,,0.000000,4.000000,4.000000,4.000000,4.000000,4.000000,100.000000,,,,,,,,,,,,,,,,,,,,,,,,,,,,,,,,,,,,,,,,,,,,,,,,,,,,,,,,,,,,,,,
1656266428.813783,118.000000,0.000000,4285.128418,4272.307617,4116.410156,4091.794922,4226.153809,450.000000,4.000000,91.000000,,,,0.000000,4.000000,4.000000,4.000000,4.000000,4.000000,100.000000,,,,,,,,,,,,,,,,,,,,,,,,,,,,,,,,,,,,,,,,,,,,,,,,,,,,,,,,,,,,,,,
1656266428.821698,119.000000,0.000000,4289.743652,4272.307617,4114.358887,4099.487305,4244.615234,16155.000000,4.000000,91.000000,,,,0.000000,4.000000,4.000000,4.000000,4.000000,4.000000,100.000000,,,,,,,,,,,,,,,,,,,,,,,,,,,,,,,,,,,,,,,,,,,,,,,,,,,,,,,,,,,,,,,
1656266428.829512,120.000000,0.000000,4289.743652,4270.256348,4111.282227,4102.563965,4252.820313,450.000000,4.000000,91.000000,,,,0.000000,4.000000,4.000000,4.000000,4.000000,4.000000,100.000000,,,,,,,,,,,,,,,,,,,,,,,,,,,,,,,,,,,,,,,,,,,,,,,,,,,,,,,,,,,,,,,
1656266428.837327,121.000000,0.000000,4289.230957,4276.922852,4111.282227,4107.692383,4245.641113,450.000000,4.000000,91.000000,,,,0.000000,4.000000,4.000000,4.000000,4.000000,4.000000,100.000000,,,,,,,,,,,,,,,,,,,,,,,,,,,,,,,,,,,,,,,,,,,,,,,,,,,,,,,,,,,,,,,
1656266428.845041,122.000000,0.000000,4291.794922,4284.102539,4121.025879,4109.230957,4233.333496,450.000000,4.000000,91.000000,,,,0.000000,4.000000,4.000000,4.000000,4.000000,4.000000,100.000000,,,,,,,,,,,,,,,,,,,,,,,,,,,,,,,,,,,,,,,,,,,,,,,,,,,,,,,,,,,,,,,
1656266428.852855,123.000000,0.000000,4294.358887,4274.358887,4131.282227,4107.692383,4236.410156,16155.000000,4.000000,91.000000,,,,0.000000,4.000000,4.000000,4.000000,4.000000,4.000000,100.000000,,,,,,,,,,,,,,,,,,,,,,,,,,,,,,,,,,,,,,,,,,,,,,,,,,,,,,,,,,,,,,,
1656266428.860570,124.000000,0.000000,4293.333496,4261.538574,4128.205078,4108.205078,4245.641113,450.000000,4.000000,91.000000,,,,0.000000,4.000000,4.000000,4.000000,4.000000,4.000000,100.000000,,,,,,,,,,,,,,,,,,,,,,,,,,,,,,,,,,,,,,,2.245962,3.770592,1.378112,0.687155,0.315637,1.580237,4.630684,0.932761,0.629930,0.508987,1.857245,2.881839,1.492716,0.555753,0.364660,1.746958,4.705658,1.097574,0.873311,0.355593,2.672407,4.880644,1.524823,0.931149,0.642325
1656266428.868484,125.000000,0.000000,4289.230957,4266.666504,4116.410156,4108.717773,4242.051270,450.000000,4.000000,91.000000,,,,0.000000,4.000000,4.000000,4.000000,4.000000,4.000000,100.000000,,,,,,,,,,,,,,,,,,,,,,,,,,,,,,,,,,,,,,,,,,,,,,,,,,,,,,,,,,,,,,,
1656266428.876299,126.000000,0.000000,4286.153809,4272.307617,4109.230957,4107.692383,4245.641113,450.000000,4.000000,91.000000,,,,0.000000,4.000000,4.000000,4.000000,4.000000,4.000000,100.000000,,,,,,,,,,,,,,,,,,,,,,,,,,,,,,,,,,,,,,,,,,,,,,,,,,,,,,,,,,,,,,,
1656266428.884213,127.000000,0.000000,4291.794922,4272.820313,4110.769043,4112.820313,4258.974121,242.000000,4.000000,91.000000,,,,0.000000,4.000000,4.000000,4.000000,4.000000,4.000000,100.000000,,,,,,,,,,,,,,,,,,,,,,,,,,,,,,,,,,,,,,,,,,,,,,,,,,,,,,,,,,,,,,,
1656266428.892027,0.000000,0.000000,4297.948730,4276.410156,4117.436035,4118.461426,4253.333496,450.000000,4.000000,91.000000,,,,0.000000,4.000000,4.000000,4.000000,4.000000,4.000000,100.000000,,,,,,,,,,,,,,,,,,,,,,,,,,,,,,,,,,,,,,,,,,,,,,,,,,,,,,,,,,,,,,,
1656266428.899942,1.000000,0.000000,4290.769043,4279.487305,4120.512695,4117.948730,4243.077148,450.000000,4.000000,91.000000,,,,0.000000,4.000000,4.000000,4.000000,4.000000,4.000000,100.000000,,,,,,,,,,,,,,,,,,,,,,,,,,,,,,,,,,,,,,,,,,,,,,,,,,,,,,,,,,,,,,,
1656266428.907756,2.000000,0.000000,4282.563965,4275.384766,4114.871582,4114.358887,4246.666504,16336.000000,4.000000,91.000000,,,,0.000000,4.000000,4.000000,4.000000,4.000000,4.000000,100.000000,,,,,,,,,,,,,,,,,,,,,,,,,,,,,,,,,,,,,,,,,,,,,,,,,,,,,,,,,,,,,,,
1656266428.915670,3.000000,0.000000,4285.641113,4261.538574,4104.615234,4109.230957,4244.615234,450.000000,4.000000,91.000000,,,,0.000000,4.000000,2.000000,4.000000,4.000000,4.000000,83.333336,,,,,,,,,,,,,,,,,,,,,,,,,,,,,,,,,,,,,,,,,,,,,,,,,,,,,,,,,,,,,,,
1656266428.923485,4.000000,0.000000,4290.256348,4258.461426,4102.051270,4103.077148,4238.974121,270.000000,4.000000,91.000000,,,,0.000000,4.000000,2.000000,4.000000,4.000000,4.000000,83.333336,,,,,,,,,,,,,,,,,,,,,,,,,,,,,,,,,,,,,,,,,,,,,,,,,,,,,,,,,,,,,,,
1656266428.931399,5.000000,0.000000,4286.666504,4270.769043,4102.563965,4099.487305,4239.487305,450.000000,4.000000,91.000000,,,,0.000000,4.000000,2.000000,0.000000,4.000000,4.000000,50.000000,,,,,,,,,,,,,,,,,,,,,,,,,,,,,,,,,,,,,,,,,,,,,,,,,,,,,,,,,,,,,,,
1656266428.939214,6.000000,0.000000,4281.538574,4264.615234,4096.922852,4100.000000,4236.922852,0.000000,4.000000,91.000000,,,,0.000000,4.000000,2.000000,0.000000,4.000000,4.000000,50.000000,,,,,,,,,,,,,,,,,,,,,,,,,,,,,,,,,,,,,,,,,,,,,,,,,,,,,,,,,,,,,,,
1656266428.946928,7.000000,0.000000,4282.051270,4249.743652,4096.410156,4102.051270,4237.948730,450.000000,4.000000,91.000000,,,,0.000000,4.000000,2.000000,0.000000,4.000000,4.000000,50.000000,,,,,,,,,,,,,,,,,,,,,,,,,,,,,,,,,,,,,,,,,,,,,,,,,,,,,,,,,,,,,,,
1656266428.954742,8.000000,0.000000,4273.846191,4257.948730,4105.641113,4096.922852,4237.436035,450.000000,4.000000,91.000000,,,,0.000000,4.000000,2.000000,0.000000,4.000000,4.000000,50.000000,,,,,,,,,,,,,,,,,,,,,,,,,,,,,,,,,,,,,,,,,,,,,,,,,,,,,,,,,,,,,,,
1656266428.962457,9.000000,0.000000,4257.948730,4264.615234,4113.333496,4096.922852,4222.563965,16137.000000,4.000000,91.000000,,,,0.000000,4.000000,2.000000,0.000000,4.000000,4.000000,50.000000,,,,,,,,,,,,,,,,,,,,,,,,,,,,,,,,,,,,,,,,,,,,,,,,,,,,,,,,,,,,,,,
1656266428.970271,10.000000,0.000000,4258.974121,4256.410156,4109.230957,4112.820313,4222.051270,450.000000,4.000000,91.000000,,,,0.000000,4.000000,2.000000,0.000000,4.000000,4.000000,50.000000,,,,,,,,,,,,,,,,,,,,,,,,,,,,,,,,,,,,,,,,,,,,,,,,,,,,,,,,,,,,,,,
1656266428.977986,11.000000,0.000000,4283.077148,4258.974121,4109.230957,4125.128418,4244.102539,16323.000000,4.000000,91.000000,,,,0.000000,4.000000,2.000000,0.000000,4.000000,4.000000,50.000000,,,,,,,,,,,,,,,,,,,,,,,,,,,,,,,,,,,,,,,,,,,,,,,,,,,,,,,,,,,,,,,
1656266428.985800,12.000000,0.000000,4296.410156,4263.589844,4106.153809,4118.461426,4255.384766,450.000000,4.000000,91.000000,,,,0.000000,4.000000,2.000000,0.000000,4.000000,4.000000,50.000000,,,,,,,,,,,,,,,,,,,,,,,,,,,,,,,,,,,,,,,2.148133,3.668564,1.517394,0.687285,0.344223,1.620751,4.913275,0.973600,0.687438,0.494243,1.947716,3.493666,1.708863,0.612500,0.326390,1.904278,4.392948,1.145317,0.896355,0.333834,2.673210,4.161731,1.568567,0.943567,0.665426
1656266428.993515,13.000000,0.000000,4290.769043,4261.538574,4091.794922,4103.589844,4245.128418,450.000000,4.000000,91.000000,,,,0.000000,4.000000,2.000000,0.000000,4.000000,4.000000,50.000000,,,,,,,,,,,,,,,,,,,,,,,,,,,,,,,,,,,,,,,,,,,,,,,,,,,,,,,,,,,,,,,
1656266429.001329,14.000000,0.000000,4292.307617,4266.666504,4099.487305,4100.000000,4242.051270,450.000000,4.000000,91.000000,,,,0.000000,4.000000,2.000000,0.000000,4.000000,4.000000,50.000000,,,,,,,,,,,,,,,,,,,,,,,,,,,,,,,,,,,,,,,,,,,,,,,,,,,,,,,,,,,,,,,
1656266429.009044,15.000000,0.000000,4296.410156,4267.692383,4117.436035,4105.128418,4251.794922,16323.000000,4.000000,91.000000,,,,0.000000,4.000000,2.000000,0.000000,4.000000,4.000000,50.000000,,,,,,,,,,,,,,,,,,,,,,,,,,,,,,,,,,,,,,,,,,,,,,,,,,,,,,,,,,,,,,,
1656266429.016858,16.000000,0.000000,4287.179688,4260.512695,4100.000000,4096.922852,4248.205078,0.000000,4.000000,91.000000,,,,0.000000,4.000000,2.000000,0.000000,4.000000,4.000000,50.000000,,,,,,,,,,,,,,,,,,,,,,,,,,,,,,,,,,,,,,,,,,,,,,,,,,,,,,,,,,,,,,,
1656266429.024573,17.000000,0.000000,4287.692383,4262.563965,4081.025635,4086.153809,4237.948730,0.000000,4.000000,91.000000,,,,0.000000,4.000000,2.000000,0.000000,4.000000,4.000000,50.000000,,,,,,,,,,,,,,,,,,,,,,,,,,,,,,,,,,,,,,,,,,,,,,,,,,,,,,,,,,,,,,,
1656266429.032487,18.000000,0.000000,4300.000000,4272.307617,4100.512695,4093.846191,4241.025879,0.000000,4.000000,91.000000,,,,0.000000,4.000000,2.000000,0.000000,4.000000,4.000000,50.000000,,,,,,,,,,,,,,,,,,,,,,,,,,,,,,,,,,,,,,,,,,,,,,,,,,,,,,,,,,,,,,,
1656266429.040301,19.000000,0.000000,4297.948730,4272.307617,4114.871582,4104.615234,4247.692383,0.000000,4.000000,91.000000,,,,0.000000,4.000000,2.000000,0.000000,4.000000,4.000000,50.000000,,,,,,,,,,,,,,,,,,,,,,,,,,,,,,,,,,,,,,,,,,,,,,,,,,,,,,,,,,,,,,,
1656266429.048116,20.000000,0.000000,4287.692383,4260.000000,4102.051270,4105.641113,4242.051270,0.000000,4.000000,91.000000,,,,0.000000,4.000000,2.000000,0.000000,4.000000,4.000000,50.000000,,,,,,,,,,,,,,,,,,,,,,,,,,,,,,,,,,,,,,,,,,,,,,,,,,,,,,,,,,,,,,,
1656266429.055830,21.000000,0.000000,4280.512695,4248.717773,4092.820557,4104.102539,4223.589844,0.000000,4.000000,91.000000,,,,0.000000,4.000000,2.000000,0.000000,4.000000,4.000000,50.000000,,,,,,,,,,,,,,,,,,,,,,,,,,,,,,,,,,,,,,,,,,,,,,,,,,,,,,,,,,,,,,,
1656266429.063745,22.000000,0.000000,4267.692383,4247.692383,4088.205078,4100.000000,4211.794922,0.000000,4.000000,91.000000,,,,0.000000,4.000000,2.000000,0.000000,4.000000,4.000000,50.000000,,,,,,,,,,,,,,,,,,,,,,,,,,,,,,,,,,,,,,,,,,,,,,,,,,,,,,,,,,,,,,,
1656266429.071559,23.000000,0.000000,4258.461426,4251.794922,4082.051270,4091.794922,4212.820313,0.000000,4.000000,91.000000,,,,0.000000,4.000000,2.000000,0.000000,4.000000,4.000000,50.000000,,,,,,,,,,,,,,,,,,,,,,,,,,,,,,,,,,,,,,,,,,,,,,,,,,,,,,,,,,,,,,,
1656266429.079473,24.000000,0.000000,4273.333496,4251.794922,4092.307617,4093.846191,4224.615234,0.000000,4.000000,91.000000,,,,0.000000,4.000000,2.000000,0.000000,4.000000,4.000000,50.000000,,,,,,,,,,,,,,,,,,,,,,,,,,,,,,,,,,,,,,,,,,,,,,,,,,,,,,,,,,,,,,,
1656266429.087288,25.000000,0.000000,4287.692383,4254.871582,4104.102539,4099.487305,4230.769043,0.000000,4.000000,91.000000,,,,0.000000,4.000000,2.000000,0.000000,4.000000,4.000000,50.000000,,,,,,,,,,,,,,,,,,,,,,,,,,,,,,,,,,,,,,,,,,,,,,,,,,,,,,,,,,,,,,,
1656266429.095202,26.000000,0.000000,4271.794922,4260.512695,4094.871826,4091.281982,4218.461426,0.000000,4.000000,91.000000,,,,0.000000,4.000000,2.000000,0.000000,4.000000,4.000000,50.000000,,,,,,,,,,,,,,,,,,,,,,,,,,,,,,,,,,,,,,,,,,,,,,,,,,,,,,,,,,,,,,,
1656266429.103016,27.000000,0.000000,4254.358887,4261.025879,4080.512939,4080.000000,4204.615234,0.000000,4.000000,91.000000,,,,0.000000,4.000000,2.000000,0.000000,4.000000,4.000000,50.000000,,,,,,,,,,,,,,,,,,,,,,,,,,,,,,,,,,,,,,,,,,,,,,,,,,,,,,,,,,,,,,,
1656266429.110931,28.000000,0.000000,4262.563965,4255.384766,4077.435791,4080.000000,4206.666504,0.000000,4.000000,91.000000,,,,0.000000,4.000000,2.000000,0.000000,4.000000,4.000000,50.000000,1.000000,50.000000,4.000000,2.000000,0.000000,4.000000,4.000000,,,,,,,,,,,,,,,,,,,,,,,,,,,,,,,,2.127522,3.387895,1.490267,0.717022,0.366685,1.613960,4.686570,1.012267,0.707311,0.493092,1.868789,4.038239,1.863056,0.644153,0.290699,2.064548,3.840783,1.308078,0.920963,0.308596,2.632666,3.442454,1.621698,1.009629,0.664564
1656266429.118745,29.000000,0.000000,4283.077148,4253.333496,4088.718018,4093.333252,4220.512695,0.000000,4.000000,91.000000,,,,0.000000,4.000000,2.000000,0.000000,4.000000,4.000000,50.000000,,,,,,,,,,,,,,,,,,,,,,,,,,,,,,,,,,,,,,,,,,,,,,,,,,,,,,,,,,,,,,,
1656266429.126460,30.000000,0.000000,4295.384766,4263.589844,4102.051270,4101.025879,4229.743652,0.000000,4.000000,91.000000,,,,0.000000,4.000000,2.000000,0.000000,4.000000,4.000000,50.000000,,,,,,,,,,,,,,,,,,,,,,,,,,,,,,,,,,,,,,,,,,,,,,,,,,,,,,,,,,,,,,,
1656266429.134274,31.000000,0.000000,4289.743652,4266.666504,4101.025879,4086.153809,4227.179688,0.000000,4.000000,91.000000,,,,0.000000,4.000000,2.000000,0.000000,4.000000,4.000000,50.000000,,,,,,,,,,,,,,,,,,,,,,,,,,,,,,,,,,,,,,,,,,,,,,,,,,,,,,,,,,,,,,,
1656266429.141989,32.000000,0.000000,4291.794922,4256.410156,4102.051270,4078.461426,4229.230957,0.000000,4.000000,91.000000,,,,0.000000,4.000000,2.000000,0.000000,4.000000,4.000000,50.000000,,,,,,,,,,,,,,,,,,,,,,,,,,,,,,,,,,,,,,,,,,,,,,,,,,,,,,,,,,,,,,,
1656266429.149803,33.000000,0.000000,4311.282227,4257.948730,4113.846191,4098.461426,4243.077148,0.000000,4.000000,91.000000,,,,0.000000,4.000000,2.000000,0.000000,4.000000,4.000000,50.000000,,,,,,,,,,,,,,,,,,,,,,,,,,,,,,,,,,,,,,,,,,,,,,,,,,,,,,,,,,,,,,,
1656266429.157517,34.000000,0.000000,4310.256348,4267.179688,4111.794922,4104.615234,4240.512695,0.000000,4.000000,91.000000,,,,0.000000,4.000000,2.000000,0.000000,4.000000,4.000000,50.000000,,,,,,,,,,,,,,,,,,,,,,,,,,,,,,,,,,,,,,,,,,,,,,,,,,,,,,,,,,,,,,,
1656266429.165332,35.000000,0.000000,4291.282227,4259.487305,4095.384521,4086.666748,4219.487305,0.000000,4.000000,91.000000,,,,0.000000,4.000000,2.000000,0.000000,4.000000,4.000000,50.000000,,,,,,,,,,,,,,,,,,,,,,,,,,,,,,,,,,,,,,,,,,,,,,,,,,,,,,,,,,,,,,,
1656266429.173046,36.000000,0.000000,4291.794922,4249.230957,4089.743652,4089.230713,4218.974121,0.000000,4.000000,91.000000,,,,0.000000,4.000000,2.000000,0.000000,4.000000,4.000000,50.000000,,,,,,,,,,,,,,,,,,,,,,,,,,,,,,,,,,,,,,,,,,,,,,,,,,,,,,,,,,,,,,,
1656266429.180861,37.000000,0.000000,4303.589844,4258.461426,4094.871826,4104.102539,4233.846191,0.000000,4.000000,91.000000,,,,0.000000,4.000000,2.000000,0.000000,4.000000,4.000000,50.000000,,,,,,,,,,,,,,,,,,,,,,,,,,,,,,,,,,,,,,,,,,,,,,,,,,,,,,,,,,,,,,,
1656266429.188575,38.000000,0.000000,4298.974121,4262.051270,4090.256348,4097.436035,4232.820313,0.000000,4.000000,91.000000,,,,0.000000,4.000000,2.000000,0.000000,4.000000,4.000000,50.000000,,,,,,,,,,,,,,,,,,,,,,,,,,,,,,,,,,,,,,,,,,,,,,,,,,,,,,,,,,,,,,,
1656266429.196390,39.000000,0.000000,4287.692383,4257.436035,4081.025635,4085.641113,4224.102539,0.000000,4.000000,91.000000,,,,0.000000,4.000000,2.000000,0.000000,4.000000,4.000000,50.000000,,,,,,,,,,,,,,,,,,,,,,,,,,,,,,,,,,,,,,,,,,,,,,,,,,,,,,,,,,,,,,,
1656266429.204104,40.000000,0.000000,4288.205078,4260.000000,4083.589844,4087.692383,4225.128418,0.000000,4.000000,91.000000,,,,0.000000,4.000000,2.000000,0.000000,4.000000,4.000000,50.000000,,,,,,,,,,,,,,,,,,,,,,,,,,,,,,,,,,,,,,,,,,,,,,,,,,,,,,,,,,,,,,,
1656266429.211919,41.000000,0.000000,4292.307617,4257.436035,4091.281982,4093.846191,4230.769043,0.000000,4.000000,91.000000,,,,0.000000,4.000000,2.000000,0.000000,4.000000,4.000000,50.000000,,,,,,,,,,,,,,,,,,,,,,,,,,,,,,,,,,,,,,,,,,,,,,,,,,,,,,,,,,,,,,,
1656266429.219633,42.000000,0.000000,4291.794922,4255.897461,4095.384521,4095.384521,4224.615234,0.000000,4.000000,91.000000,,,,0.000000,4.000000,2.000000,0.000000,4.000000,4.000000,50.000000,,,,,,,,,,,,,,,,,,,,,,,,,,,,,,,,,,,,,,,,,,,,,,,,,,,,,,,,,,,,,,,
1656266429.227547,43.000000,0.000000,4289.743652,4258.461426,4090.769287,4096.410156,4214.358887,0.000000,4.000000,91.000000,,,,0.000000,4.000000,2.000000,0.000000,4.000000,4.000000,50.000000,,,,,,,,,,,,,,,,,,,,,,,,,,,,,,,,,,,,,,,,,,,,,,,,,,,,,,,,,,,,,,,
1656266429.235362,44.000000,0.000000,4294.871582,4249.743652,4083.589844,4097.436035,4223.077148,0.000000,4.000000,91.000000,,,,0.000000,4.000000,2.000000,0.000000,4.000000,4.000000,50.000000,,,,,,,,,,,,,,,,,,,,,,,,,,,,,,,,,,,,,,,2.195897,2.937011,1.311191,0.762219,0.380199,1.597145,4.020710,1.031660,0.683320,0.496097,1.671886,4.391101,1.933550,0.649083,0.268175,2.204624,3.192417,1.571927,0.930702,0.287004,2.573635,2.807151,1.653958,1.093316,0.638749
1656266429.243276,45.000000,0.000000,4303.589844,4252.307617,4088.205078,4097.436035,4241.025879,0.000000,4.000000,91.000000,,,,0.000000,4.000000,2.000000,0.000000,4.000000,4.000000,50.000000,,,,,,,,,,,,,,,,,,,,,,,,,,,,,,,,,,,,,,,,,,,,,,,,,,,,,,,,,,,,,,,
1656266429.251091,46.000000,0.000000,4299.487305,4264.102539,4092.820557,4091.794922,4234.871582,0.000000,4.000000,91.000000,,,,0.000000,4.000000,2.000000,0.000000,4.000000,4.000000,50.000000,,,,,,,,,,,,,,,,,,,,,,,,,,,,,,,,,,,,,,,,,,,,,,,,,,,,,,,,,,,,,,,
1656266429.259005,47.000000,0.000000,4277.948730,4251.282227,4085.128174,4079.487061,4210.769043,0.000000,4.000000,91.000000,,,,0.000000,4.000000,2.000000,0.000000,4.000000,4.000000,50.000000,,,,,,,,,,,,,,,,,,,,,,,,,,,,,,,,,,,,,,,,,,,,,,,,,,,,,,,,,,,,,,,
1656266429.266819,48.000000,0.000000,4263.589844,4237.948730,4085.641113,4075.897461,4200.000000,0.000000,4.000000,91.000000,,,,0.000000,4.000000,2.000000,0.000000,4.000000,4.000000,50.000000,,,,,,,,,,,,,,,,,,,,,,,,,,,,,,,,,,,,,,,,,,,,,,,,,,,,,,,,,,,,,,,
1656266429.274734,49.000000,0.000000,4277.948730,4253.846191,4101.538574,4088.205078,4211.794922,0.000000,4.000000,91.000000,,,,0.000000,4.000000,2.000000,0.000000,4.000000,4.000000,50.000000,,,,,,,,,,,,,,,,,,,,,,,,,,,,,,,,,,,,,,,,,,,,,,,,,,,,,,,,,,,,,,,
1656266429.282548,50.000000,0.000000,4290.256348,4262.563965,4092.820557,4092.820557,4224.615234,0.000000,4.000000,91.000000,,,,0.000000,4.000000,2.000000,0.000000,4.000000,4.000000,50.000000,,,,,,,,,,,,,,,,,,,,,,,,,,,,,,,,,,,,,,,,,,,,,,,,,,,,,,,,,,,,,,,
1656266429.290362,51.000000,0.000000,4281.538574,4248.205078,4074.358887,4083.076904,4221.538574,0.000000,4.000000,91.000000,,,,0.000000,4.000000,2.000000,0.000000,4.000000,4.000000,50.000000,,,,,,,,,,,,,,,,,,,,,,,,,,,,,,,,,,,,,,,,,,,,,,,,,,,,,,,,,,,,,,,
1656266429.298077,52.000000,0.000000,4288.205078,4244.615234,4088.205078,4089.230713,4224.102539,0.000000,4.000000,91.000000,,,,0.000000,4.000000,2.000000,0.000000,4.000000,4.000000,50.000000,,,,,,,,,,,,,,,,,,,,,,,,,,,,,,,,,,,,,,,,,,,,,,,,,,,,,,,,,,,,,,,
1656266429.305991,53.000000,0.000000,4304.615234,4260.000000,4105.128418,4100.512695,4235.897461,0.000000,4.000000,91.000000,,,,0.000000,4.000000,2.000000,0.000000,4.000000,4.000000,50.000000,,,,,,,,,,,,,,,,,,,,,,,,,,,,,,,,,,,,,,,,,,,,,,,,,,,,,,,,,,,,,,,
1656266429.313806,54.000000,0.000000,4303.589844,4267.692383,4104.615234,4090.769287,4231.282227,0.000000,4.000000,91.000000,,,,0.000000,4.000000,2.000000,0.000000,4.000000,4.000000,50.000000,,,,,,,,,,,,,,,,,,,,,,,,,,,,,,,,,,,,,,,,,,,,,,,,,,,,,,,,,,,,,,,
1656266429.321520,55.000000,0.000000,4304.615234,4258.974121,4101.025879,4083.076904,4230.769043,0.000000,4.000000,91.000000,,,,0.000000,4.000000,2.000000,0.000000,4.000000,4.000000,50.000000,,,,,,,,,,,,,,,,,,,,,,,,,,,,,,,,,,,,,,,,,,,,,,,,,,,,,,,,,,,,,,,
1656266429.329335,56.000000,0.000000,4317.436035,4254.358887,4089.743652,4092.820557,4254.871582,0.000000,4.000000,91.000000,,,,0.000000,4.000000,2.000000,0.000000,4.000000,4.000000,50.000000,,,,,,,,,,,,,,,,,,,,,,,,,,,,,,,,,,,,,,,,,,,,,,,,,,,,,,,,,,,,,,,
1656266429.337049,57.000000,0.000000,4318.461426,4268.717773,4085.641113,4104.615234,4269.230957,0.000000,4.000000,91.000000,,,,0.000000,4.000000,2.000000,0.000000,4.000000,4.000000,50.000000,,,,,,,,,,,,,,,,,,,,,,,,,,,,,,,,,,,,,,,,,,,,,,,,,,,,,,,,,,,,,,,
1656266429.344863,58.000000,0.000000,4303.589844,4280.000000,4097.436035,4106.153809,4252.820313,0.000000,4.000000,91.000000,,,,0.000000,4.000000,2.000000,0.000000,4.000000,4.000000,50.000000,,,,,,,,,,,,,,,,,,,,,,,,,,,,,,,,,,,,,,,,,,,,,,,,,,,,,,,,,,,,,,,
1656266429.352578,59.000000,0.000000,4288.717773,4273.846191,4103.589844,4101.025879,4238.974121,0.000000,4.000000,91.000000,,,,0.000000,4.000000,2.000000,0.000000,4.000000,4.000000,50.000000,,,,,,,,,,,,,,,,,,,,,,,,,,,,,,,,,,,,,,,,,,,,,,,,,,,,,,,,,,,,,,,
1656266429.360492,60.000000,0.000000,4292.307617,4269.743652,4098.461426,4100.512695,4243.589844,0.000000,4.000000,91.000000,,,,0.000000,4.000000,2.000000,0.000000,4.000000,4.000000,50.000000,,,,,,,,,,,,,,,,,,,,,,,,,,,,,,,,,,,,,,,2.320506,2.396038,1.055331,0.813015,0.386380,1.552976,3.114451,1.015432,0.619110,0.491880,1.417328,4.443098,1.912500,0.640708,0.269424,2.321694,2.575772,1.875987,0.910329,0.277667,2.514348,2.272546,1.633693,1.157785,0.600491
1656266429.368307,61.000000,0.000000,4308.205078,4273.846191,4091.794922,4099.487305,4241.538574,0.000000,4.000000,91.000000,,,,0.000000,4.000000,2.000000,0.000000,4.000000,4.000000,50.000000,,,,,,,,,,,,,,,,,,,,,,,,,,,,,,,,,,,,,,,,,,,,,,,,,,,,,,,,,,,,,,,
1656266429.376221,62.000000,0.000000,4306.666504,4269.743652,4087.692383,4093.333252,4230.256348,0.000000,4.000000,91.000000,,,,0.000000,4.000000,2.000000,0.000000,4.000000,4.000000,50.000000,,,,,,,,,,,,,,,,,,,,,,,,,,,,,,,,,,,,,,,,,,,,,,,,,,,,,,,,,,,,,,,
1656266429.384035,63.000000,0.000000,4298.461426,4264.615234,4093.846191,4097.436035,4233.333496,0.000000,4.000000,91.000000,,,,0.000000,4.000000,2.000000,0.000000,4.000000,4.000000,50.000000,,,,,,,,,,,,,,,,,,,,,,,,,,,,,,,,,,,,,,,,,,,,,,,,,,,,,,,,,,,,,,,
1656266429.391950,64.000000,0.000000,4308.205078,4271.282227,4108.717773,4113.846191,4252.307617,450.000000,4.000000,91.000000,,,,0.000000,4.000000,2.000000,0.000000,4.000000,4.000000,50.000000,,,,,,,,,,,,,,,,,,,,,,,,,,,,,,,,,,,,,,,,,,,,,,,,,,,,,,,,,,,,,,,
1656266429.399764,65.000000,0.000000,4316.410156,4272.307617,4105.641113,4110.256348,4252.820313,450.000000,4.000000,91.000000,,,,0.000000,4.000000,2.000000,0.000000,4.000000,4.000000,50.000000,,,,,,,,,,,,,,,,,,,,,,,,,,,,,,,,,,,,,,,,,,,,,,,,,,,,,,,,,,,,,,,
1656266429.407678,66.000000,0.000000,4298.974121,4257.436035,4082.051270,4090.769287,4231.794922,3.000000,4.000000,91.000000,,,,0.000000,0.000000,2.000000,0.000000,4.000000,4.000000,16.666666,,,,,,,,,,,,,,,,,,,,,,,,,,,,,,,,,,,,,,,,,,,,,,,,,,,,,,,,,,,,,,,
1656266429.415493,67.000000,0.000000,4278.461426,4251.794922,4076.410156,4089.743652,4221.025879,450.000000,4.000000,91.000000,,,,0.000000,0.000000,2.000000,0.000000,4.000000,4.000000,16.666666,,,,,,,,,,,,,,,,,,,,,,,,,,,,,,,,,,,,,,,,,,,,,,,,,,,,,,,,,,,,,,,
1656266429.423407,68.000000,0.000000,4275.897461,4255.384766,4086.666748,4099.487305,4225.128418,16130.000000,4.000000,91.000000,,,,0.000000,0.000000,4.000000,0.000000,4.000000,4.000000,33.333332,,,,,,,,,,,,,,,,,,,,,,,,,,,,,,,,,,,,,,,,,,,,,,,,,,,,,,,,,,,,,,,
1656266429.431222,69.000000,0.000000,4282.051270,4254.871582,4085.128174,4094.358887,4231.794922,450.000000,4.000000,91.000000,,,,0.000000,0.000000,4.000000,0.000000,4.000000,4.000000,33.333332,,,,,,,,,,,,,,,,,,,,,,,,,,,,,,,,,,,,,,,,,,,,,,,,,,,,,,,,,,,,,,,
1656266429.439036,70.000000,0.000000,4282.051270,4256.410156,4083.076904,4090.769287,4230.256348,1.000000,4.000000,91.000000,,,,0.000000,0.000000,4.000000,0.000000,4.000000,4.000000,33.333332,,,,,,,,,,,,,,,,,,,,,,,,,,,,,,,,,,,,,,,,,,,,,,,,,,,,,,,,,,,,,,,
1656266429.446750,71.000000,0.000000,4277.948730,4257.436035,4083.589844,4096.410156,4217.436035,450.000000,4.000000,91.000000,,,,0.000000,0.000000,4.000000,0.000000,4.000000,4.000000,33.333332,,,,,,,,,,,,,,,,,,,,,,,,,,,,,,,,,,,,,,,,,,,,,,,,,,,,,,,,,,,,,,,
1656266429.454665,72.000000,0.000000,4282.051270,4261.538574,4077.435791,4099.487305,4220.512695,450.000000,4.000000,91.000000,,,,0.000000,0.000000,4.000000,0.000000,4.000000,4.000000,33.333332,,,,,,,,,,,,,,,,,,,,,,,,,,,,,,,,,,,,,,,,,,,,,,,,,,,,,,,,,,,,,,,
1656266429.462479,73.000000,0.000000,4285.128418,4268.717773,4075.897461,4094.358887,4238.461426,16254.000000,4.000000,91.000000,,,,0.000000,0.000000,4.000000,0.000000,4.000000,4.000000,33.333332,,,,,,,,,,,,,,,,,,,,,,,,,,,,,,,,,,,,,,,,,,,,,,,,,,,,,,,,,,,,,,,
1656266429.470393,74.000000,0.000000,4280.000000,4264.102539,4088.205078,4092.820557,4232.820313,450.000000,4.000000,91.000000,,,,0.000000,0.000000,4.000000,0.000000,4.000000,4.000000,33.333332,,,,,,,,,,,,,,,,,,,,,,,,,,,,,,,,,,,,,,,,,,,,,,,,,,,,,,,,,,,,,,,
1656266429.478208,75.000000,0.000000,4287.692383,4264.615234,4106.153809,4098.461426,4227.692383,16175.000000,4.000000,91.000000,,,,0.000000,0.000000,4.000000,0.000000,4.000000,4.000000,33.333332,,,,,,,,,,,,,,,,,,,,,,,,,,,,,,,,,,,,,,,,,,,,,,,,,,,,,,,,,,,,,,,
1656266429.485922,76.000000,0.000000,4295.897461,4273.333496,4108.205078,4101.538574,4245.641113,450.000000,4.000000,91.000000,,,,0.000000,0.000000,4.000000,0.000000,4.000000,4.000000,33.333332,,,,,,,,,,,,,,,,,,,,,,,,,,,,,,,,,,,,,,,2.542957,1.893010,0.816943,0.864208,0.392454,1.483311,2.220420,0.955335,0.528604,0.475201,1.191222,4.156743,1.803485,0.637691,0.299227,2.392706,2.070697,2.133347,0.848027,0.287343,2.505383,1.830587,1.532097,1.183516,0.569010
1656266429.493737,77.000000,0.000000,4285.641113,4269.230957,4092.307617,4097.948730,4247.179688,450.000000,4.000000,91.000000,,,,0.000000,0.000000,4.000000,0.000000,4.000000,4.000000,33.333332,,,,,,,,,,,,,,,,,,,,,,,,,,,,,,,,,,,,,,,,,,,,,,,,,,,,,,,,,,,,,,,
1656266429.501551,78.000000,0.000000,4283.077148,4264.615234,4083.076904,4102.563965,4231.794922,450.000000,4.000000,91.000000,,,,0.000000,0.000000,4.000000,0.000000,4.000000,4.000000,33.333332,,,,,,,,,,,,,,,,,,,,,,,,,,,,,,,,,,,,,,,,,,,,,,,,,,,,,,,,,,,,,,,
1656266429.509366,79.000000,0.000000,4284.615234,4262.563965,4079.487061,4104.102539,4228.717773,16175.000000,4.000000,91.000000,,,,0.000000,0.000000,4.000000,0.000000,4.000000,4.000000,33.333332,,,,,,,,,,,,,,,,,,,,,,,,,,,,,,,,,,,,,,,,,,,,,,,,,,,,,,,,,,,,,,,
1656266429.517080,80.000000,0.000000,4271.794922,4244.102539,4077.435791,4094.871826,4228.205078,450.000000,4.000000,91.000000,,,,0.000000,0.000000,4.000000,0.000000,4.000000,4.000000,33.333332,,,,,,,,,,,,,,,,,,,,,,,,,,,,,,,,,,,,,,,,,,,,,,,,,,,,,,,,,,,,,,,
1656266429.524895,81.000000,0.000000,4273.333496,4242.563965,4089.230713,4094.871826,4227.179688,450.000000,4.000000,91.000000,,,,0.000000,0.000000,4.000000,0.000000,4.000000,4.000000,33.333332,,,,,,,,,,,,,,,,,,,,,,,,,,,,,,,,,,,,,,,,,,,,,,,,,,,,,,,,,,,,,,,
1656266429.532609,82.000000,0.000000,4290.769043,4264.615234,4094.871826,4096.922852,4233.333496,450.000000,4.000000,91.000000,,,,0.000000,0.000000,4.000000,0.000000,4.000000,4.000000,33.333332,,,,,,,,,,,,,,,,,,,,,,,,,,,,,,,,,,,,,,,,,,,,,,,,,,,,,,,,,,,,,,,
1656266429.540523,83.000000,0.000000,4292.307617,4268.717773,4087.692383,4089.230713,4238.974121,16175.000000,4.000000,91.000000,,,,0.000000,0.000000,4.000000,0.000000,4.000000,4.000000,33.333332,,,,,,,,,,,,,,,,,,,,,,,,,,,,,,,,,,,,,,,,,,,,,,,,,,,,,,,,,,,,,,,
1656266429.548338,84.000000,0.000000,4290.256348,4262.563965,4090.256348,4089.743652,4243.589844,450.000000,4.000000,91.000000,,,,0.000000,0.000000,4.000000,0.000000,4.000000,4.000000,33.333332,,,,,,,,,,,,,,,,,,,,,,,,,,,,,,,,,,,,,,,,,,,,,,,,,,,,,,,,,,,,,,,
1656266429.556152,85.000000,0.000000,4291.282227,4262.563965,4091.281982,4098.461426,4243.589844,450.000000,4.000000,91.000000,,,,0.000000,0.000000,4.000000,0.000000,4.000000,4.000000,33.333332,,,,,,,,,,,,,,,,,,,,,,,,,,,,,,,,,,,,,,,,,,,,,,,,,,,,,,,,,,,,,,,
1656266429.563867,86.000000,0.000000,4278.974121,4256.922852,4080.000000,4087.692383,4224.615234,450.000000,4.000000,91.000000,,,,0.000000,0.000000,4.000000,0.000000,4.000000,4.000000,33.333332,,,,,,,,,,,,,,,,,,,,,,,,,,,,,,,,,,,,,,,,,,,,,,,,,,,,,,,,,,,,,,,
1656266429.571681,87.000000,0.000000,4270.769043,4252.307617,4084.102539,4073.846191,4212.820313,16175.000000,4.000000,91.000000,,,,0.000000,0.000000,4.000000,0.000000,4.000000,4.000000,33.333332,,,,,,,,,,,,,,,,,,,,,,,,,,,,,,,,,,,,,,,,,,,,,,,,,,,,,,,,,,,,,,,
1656266429.579396,88.000000,0.000000,4272.307617,4256.922852,4095.897461,4081.538574,4221.025879,450.000000,4.000000,91.000000,,,,0.000000,0.000000,4.000000,0.000000,4.000000,4.000000,33.333332,,,,,,,,,,,,,,,,,,,,,,,,,,,,,,,,,,,,,,,,,,,,,,,,,,,,,,,,,,,,,,,
1656266429.587210,89.000000,0.000000,4264.615234,4255.384766,4089.230713,4083.076904,4214.358887,450.000000,4.000000,91.000000,,,,0.000000,0.000000,4.000000,0.000000,4.000000,4.000000,33.333332,,,,,,,,,,,,,,,,,,,,,,,,,,,,,,,,,,,,,,,,,,,,,,,,,,,,,,,,,,,,,,,
1656266429.594924,90.000000,0.000000,4261.025879,4246.153809,4083.589844,4081.538574,4198.461426,450.000000,4.000000,91.000000,,,,0.000000,0.000000,4.000000,0.000000,4.000000,4.000000,33.333332,,,,,,,,,,,,,,,,,,,,,,,,,,,,,,,,,,,,,,,,,,,,,,,,,,,,,,,,,,,,,,,
1656266429.602839,91.000000,0.000000,4268.205078,4244.102539,4092.820557,4095.384521,4200.000000,16175.000000,4.000000,91.000000,,,,0.000000,0.000000,4.000000,0.000000,4.000000,4.000000,33.333332,,,,,,,,,,,,,,,,,,,,,,,,,,,,,,,,,,,,,,,,,,,,,,,,,,,,,,,,,,,,,,,
1656266429.610653,92.000000,0.000000,4268.717773,4242.563965,4097.436035,4096.922852,4204.615234,450.000000,4.000000,91.000000,,,,0.000000,0.000000,4.000000,0.000000,4.000000,4.000000,33.333332,1.000000,16.666666,0.000000,2.000000,0.000000,4.000000,4.000000,,,,,,,,,,,,,,,,,,,,,,,,,,,,,,,,2.903441,1.546726,0.673394,0.910623,0.407471,1.378427,1.531567,0.854231,0.430663,0.450809,1.055021,3.587451,1.620552,0.653043,0.354162,2.392662,1.682046,2.257958,0.747564,0.317363,2.593918,1.489616,1.351896,1.169315,0.559191
1656266429.618468,93.000000,0.000000,4276.410156,4245.641113,4090.769287,4092.820557,4218.461426,450.000000,4.000000,91.000000,,,,0.000000,0.000000,4.000000,0.000000,4.000000,4.000000,33.333332,,,,,,,,,,,,,,,,,,,,,,,,,,,,,,,,,,,,,,,,,,,,,,,,,,,,,,,,,,,,,,,
1656266429.626182,94.000000,0.000000,4287.179688,4254.358887,4078.461426,4097.948730,4236.922852,450.000000,4.000000,91.000000,,,,0.000000,0.000000,4.000000,0.000000,4.000000,4.000000,33.333332,,,,,,,,,,,,,,,,,,,,,,,,,,,,,,,,,,,,,,,,,,,,,,,,,,,,,,,,,,,,,,,
1656266429.634096,95.000000,0.000000,4281.538574,4253.333496,4072.820557,4094.871826,4236.922852,16175.000000,4.000000,91.000000,,,,0.000000,0.000000,4.000000,0.000000,4.000000,4.000000,33.333332,,,,,,,,,,,,,,,,,,,,,,,,,,,,,,,,,,,,,,,,,,,,,,,,,,,,,,,,,,,,,,,
1656266429.641911,96.000000,0.000000,4281.025879,4246.666504,4090.256348,4097.436035,4236.410156,450.000000,4.000000,91.000000,,,,0.000000,0.000000,4.000000,0.000000,4.000000,4.000000,33.333332,,,,,,,,,,,,,,,,,,,,,,,,,,,,,,,,,,,,,,,,,,,,,,,,,,,,,,,,,,,,,,,
1656266429.649825,97.000000,0.000000,4285.128418,4244.102539,4103.589844,4106.153809,4238.974121,450.000000,4.000000,91.000000,,,,0.000000,0.000000,4.000000,0.000000,4.000000,4.000000,33.333332,,,,,,,,,,,,,,,,,,,,,,,,,,,,,,,,,,,,,,,,,,,,,,,,,,,,,,,,,,,,,,,
1656266429.657640,98.000000,0.000000,4274.358887,4246.153809,4093.333252,4098.974121,4229.230957,450.000000,4.000000,91.000000,,,,0.000000,0.000000,4.000000,0.000000,4.000000,4.000000,33.333332,,,,,,,,,,,,,,,,,,,,,,,,,,,,,,,,,,,,,,,,,,,,,,,,,,,,,,,,,,,,,,,
1656266429.665454,99.000000,0.000000,4261.025879,4242.563965,4080.512939,4084.615479,4220.512695,16175.000000,4.000000,91.000000,,,,0.000000,0.000000,4.000000,0.000000,4.000000,4.000000,33.333332,,,,,,,,,,,,,,,,,,,,,,,,,,,,,,,,,,,,,,,,,,,,,,,,,,,,,,,,,,,,,,,
1656266429.673168,100.000000,0.000000,4261.025879,4238.461426,4089.743652,4088.718018,4221.025879,450.000000,4.000000,91.000000,,,,0.000000,0.000000,4.000000,0.000000,4.000000,4.000000,33.333332,,,,,,,,,,,,,,,,,,,,,,,,,,,,,,,,,,,,,,,,,,,,,,,,,,,,,,,,,,,,,,,
1656266429.681083,101.000000,0.000000,4266.153809,4246.153809,4098.974121,4097.948730,4224.102539,450.000000,4.000000,91.000000,,,,0.000000,0.000000,4.000000,0.000000,4.000000,4.000000,33.333332,,,,,,,,,,,,,,,,,,,,,,,,,,,,,,,,,,,,,,,,,,,,,,,,,,,,,,,,,,,,,,,
1656266429.688897,102.000000,0.000000,4266.666504,4248.205078,4085.128174,4093.846191,4222.563965,450.000000,4.000000,91.000000,,,,0.000000,0.000000,4.000000,0.000000,4.000000,4.000000,33.333332,,,,,,,,,,,,,,,,,,,,,,,,,,,,,,,,,,,,,,,,,,,,,,,,,,,,,,,,,,,,,,,
1656266429.696712,103.000000,0.000000,4266.666504,4242.563965,4087.179443,4088.205078,4209.743652,16175.000000,4.000000,91.000000,,,,0.000000,0.000000,4.000000,0.000000,4.000000,4.000000,33.333332,,,,,,,,,,,,,,,,,,,,,,,,,,,,,,,,,,,,,,,,,,,,,,,,,,,,,,,,,,,,,,,
1656266429.704526,104.000000,0.000000,4270.769043,4240.512695,4104.102539,4088.205078,4202.563965,450.000000,4.000000,91.000000,,,,0.000000,0.000000,4.000000,0.000000,4.000000,4.000000,33.333332,,,,,,,,,,,,,,,,,,,,,,,,,,,,,,,,,,,,,,,,,,,,,,,,,,,,,,,,,,,,,,,
1656266429.712241,105.000000,0.000000,4279.487305,4250.256348,4097.948730,4092.820557,4228.205078,450.000000,4.000000,91.000000,,,,0.000000,0.000000,4.000000,0.000000,4.000000,4.000000,33.333332,,,,,,,,,,,,,,,,,,,,,,,,,,,,,,,,,,,,,,,,,,,,,,,,,,,,,,,,,,,,,,,
1656266429.720055,106.000000,0.000000,4280.000000,4258.974121,4092.820557,4092.820557,4244.615234,450.000000,4.000000,91.000000,,,,0.000000,0.000000,4.000000,0.000000,4.000000,4.000000,33.333332,,,,,,,,,,,,,,,,,,,,,,,,,,,,,,,,,,,,,,,,,,,,,,,,,,,,,,,,,,,,,,,
1656266429.727769,107.000000,0.000000,4266.666504,4246.666504,4100.512695,4088.718018,4218.461426,16175.000000,4.000000,91.000000,,,,0.000000,0.000000,4.000000,0.000000,4.000000,4.000000,33.333332,,,,,,,,,,,,,,,,,,,,,,,,,,,,,,,,,,,,,,,,,,,,,,,,,,,,,,,,,,,,,,,
1656266429.735584,108.000000,0.000000,4272.820313,4253.333496,4104.615234,4103.589844,4218.461426,450.000000,4.000000,91.000000,,,,0.000000,0.000000,4.000000,0.000000,4.000000,4.000000,33.333332,,,,,,,,,,,,,,,,,,,,,,,,,,,,,,,,,,,,,,,3.386000,1.380825,0.685256,0.945484,0.436738,1.263808,1.115256,0.728523,0.344385,0.427607,1.005118,2.864721,1.396966,0.694245,0.421329,2.305173,1.371356,2.201193,0.627034,0.361409,2.789677,1.238400,1.156453,1.133454,0.574263
1656266429.743298,109.000000,0.000000,4265.641113,4254.871582,4075.384521,4093.846191,4231.282227,450.000000,4.000000,91.000000,,,,0.000000,0.000000,4.000000,0.000000,4.000000,4.000000,33.333332,,,,,,,,,,,,,,,,,,,,,,,,,,,,,,,,,,,,,,,,,,,,,,,,,,,,,,,,,,,,,,,
1656266429.751113,110.000000,0.000000,4240.000000,4232.820313,4067.692383,4069.230713,4217.948730,450.000000,4.000000,91.000000,,,,0.000000,0.000000,4.000000,0.000000,4.000000,4.000000,33.333332,,,,,,,,,,,,,,,,,,,,,,,,,,,,,,,,,,,,,,,,,,,,,,,,,,,,,,,,,,,,,,,
1656266429.758827,111.000000,0.000000,4297.948730,4275.384766,4133.846191,4126.666504,4256.410156,16175.000000,4.000000,91.000000,,,,0.000000,0.000000,4.000000,0.000000,4.000000,4.000000,33.333332,,,,,,,,,,,,,,,,,,,,,,,,,,,,,,,,,,,,,,,,,,,,,,,,,,,,,,,,,,,,,,,
1656266429.766642,112.000000,0.000000,4293.846191,4259.487305,4097.948730,4115.384766,4240.000000,450.000000,4.000000,91.000000,,,,0.000000,0.000000,4.000000,0.000000,4.000000,4.000000,33.333332,,,,,,,,,,,,,,,,,,,,,,,,,,,,,,,,,,,,,,,,,,,,,,,,,,,,,,,,,,,,,,,
1656266429.774356,113.000000,0.000000,4221.025879,4186.153809,4026.153809,4040.512939,4173.333496,450.000000,4.000000,91.000000,,,,0.000000,0.000000,4.000000,0.000000,4.000000,4.000000,33.333332,,,,,,,,,,,,,,,,,,,,,,,,,,,,,,,,,,,,,,,,,,,,,,,,,,,,,,,,,,,,,,,
1656266429.782171,114.000000,0.000000,4255.384766,4229.743652,4076.923096,4084.615479,4208.205078,450.000000,4.000000,91.000000,,,,0.000000,0.000000,4.000000,0.000000,4.000000,4.000000,33.333332,,,,,,,,,,,,,,,,,,,,,,,,,,,,,,,,,,,,,,,,,,,,,,,,,,,,,,,,,,,,,,,
1656266429.789885,115.000000,0.000000,4248.205078,4249.743652,4088.718018,4096.410156,4211.282227,16175.000000,4.000000,91.000000,,,,0.000000,0.000000,4.000000,0.000000,4.000000,4.000000,33.333332,,,,,,,,,,,,,,,,,,,,,,,,,,,,,,,,,,,,,,,,,,,,,,,,,,,,,,,,,,,,,,,
1656266429.797799,116.000000,0.000000,4221.025879,4226.153809,4080.000000,4071.281982,4193.333496,450.000000,4.000000,91.000000,,,,0.000000,0.000000,4.000000,0.000000,4.000000,4.000000,33.333332,,,,,,,,,,,,,,,,,,,,,,,,,,,,,,,,,,,,,,,,,,,,,,,,,,,,,,,,,,,,,,,
1656266429.805614,117.000000,0.000000,4265.128418,4245.641113,4103.077148,4103.077148,4227.179688,450.000000,4.000000,91.000000,,,,0.000000,0.000000,4.000000,0.000000,4.000000,4.000000,33.333332,,,,,,,,,,,,,,,,,,,,,,,,,,,,,,,,,,,,,,,,,,,,,,,,,,,,,,,,,,,,,,,
1656266429.813428,118.000000,0.000000,4269.230957,4247.179688,4087.692383,4109.743652,4228.205078,450.000000,4.000000,91.000000,,,,0.000000,0.000000,4.000000,0.000000,4.000000,4.000000,33.333332,,,,,,,,,,,,,,,,,,,,,,,,,,,,,,,,,,,,,,,,,,,,,,,,,,,,,,,,,,,,,,,
1656266429.821143,119.000000,0.000000,4263.589844,4249.230957,4080.512939,4106.666504,4225.641113,16175.000000,4.000000,91.000000,,,,0.000000,0.000000,4.000000,0.000000,4.000000,4.000000,33.333332,,,,,,,,,,,,,,,,,,,,,,,,,,,,,,,,,,,,,,,,,,,,,,,,,,,,,,,,,,,,,,,
1656266429.829057,120.000000,0.000000,4277.436035,4255.384766,4085.641113,4104.102539,4229.230957,450.000000,4.000000,91.000000,,,,0.000000,0.000000,4.000000,0.000000,4.000000,4.000000,33.333332,,,,,,,,,,,,,,,,,,,,,,,,,,,,,,,,,,,,,,,,,,,,,,,,,,,,,,,,,,,,,,,
1656266429.836871,121.000000,0.000000,4281.538574,4249.743652,4090.769287,4090.769287,4224.615234,450.000000,4.000000,91.000000,,,,0.000000,0.000000,4.000000,0.000000,4.000000,4.000000,33.333332,,,,,,,,,,,,,,,,,,,,,,,,,,,,,,,,,,,,,,,,,,,,,,,,,,,,,,,,,,,,,,,
1656266429.844686,122.000000,0.000000,4268.717773,4241.538574,4095.384521,4080.512939,4221.538574,450.000000,4.000000,91.000000,,,,0.000000,0.000000,4.000000,0.000000,4.000000,4.000000,33.333332,,,,,,,,,,,,,,,,,,,,,,,,,,,,,,,,,,,,,,,,,,,,,,,,,,,,,,,,,,,,,,,
1656266429.852500,123.000000,0.000000,4260.000000,4243.077148,4091.281982,4074.358887,4219.487305,16175.000000,4.000000,91.000000,,,,0.000000,0.000000,4.000000,0.000000,4.000000,4.000000,33.333332,,,,,,,,,,,,,,,,,,,,,,,,,,,,,,,,,,,,,,,,,,,,,,,,,,,,,,,,,,,,,,,
1656266429.860415,124.000000,0.000000,4275.384766,4252.307617,4097.948730,4080.512939,4232.307617,450.000000,4.000000,91.000000,,,,0.000000,0.000000,4.000000,0.000000,4.000000,4.000000,33.333332,,,,,,,,,,,,,,,,,,,,,,,,,,,,,,,,,,,,,,,3.896446,1.361140,0.869140,0.957266,0.478136,1.171771,0.931341,0.600088,0.282917,0.411716,1.004132,2.148855,1.173440,0.764022,0.483878,2.122152,1.116489,1.978796,0.513642,0.408157,3.076696,1.098939,1.027401,1.095850,0.606784
1656266429.868229,125.000000,0.000000,4288.717773,4250.256348,4102.563965,4089.230713,4243.589844,450.000000,4.000000,91.000000,,,,0.000000,0.000000,4.000000,0.000000,4.000000,4.000000,33.333332,,,,,,,,,,,,,,,,,,,,,,,,,,,,,,,,,,,,,,,,,,,,,,,,,,,,,,,,,,,,,,,
1656266429.876143,126.000000,0.000000,4286.666504,4248.205078,4093.333252,4093.846191,4234.358887,450.000000,4.000000,91.000000,,,,0.000000,0.000000,4.000000,0.000000,4.000000,4.000000,33.333332,,,,,,,,,,,,,,,,,,,,,,,,,,,,,,,,,,,,,,,,,,,,,,,,,,,,,,,,,,,,,,,
1656266429.883958,127.000000,0.000000,4281.538574,4247.692383,4088.205078,4096.410156,4229.743652,242.000000,4.000000,91.000000,,,,0.000000,0.000000,4.000000,0.000000,4.000000,4.000000,33.333332,,,,,,,,,,,,,,,,,,,,,,,,,,,,,,,,,,,,,,,,,,,,,,,,,,,,,,,,,,,,,,,
1656266429.891672,0.000000,0.000000,4281.025879,4236.922852,4090.256348,4096.410156,4242.563965,450.000000,4.000000,91.000000,,,,0.000000,0.000000,4.000000,0.000000,4.000000,4.000000,33.333332,,,,,,,,,,,,,,,,,,,,,,,,,,,,,,,,,,,,,,,,,,,,,,,,,,,,,,,,,,,,,,,
1656266429.899487,1.000000,0.000000,4282.563965,4238.461426,4091.794922,4104.102539,4249.230957,450.000000,4.000000,91.000000,,,,0.000000,0.000000,4.000000,0.000000,4.000000,4.000000,33.333332,,,,,,,,,,,,,,,,,,,,,,,,,,,,,,,,,,,,,,,,,,,,,,,,,,,,,,,,,,,,,,,
1656266429.907201,2.000000,0.000000,4280.000000,4253.846191,4092.307617,4111.794922,4242.563965,16294.000000,4.000000,91.000000,,,,0.000000,4.000000,4.000000,0.000000,4.000000,4.000000,66.666664,,,,,,,,,,,,,,,,,,,,,,,,,,,,,,,,,,,,,,,,,,,,,,,,,,,,,,,,,,,,,,,
1656266429.915016,3.000000,0.000000,4273.333496,4255.384766,4101.538574,4107.692383,4234.358887,450.000000,4.000000,91.000000,,,,0.000000,4.000000,4.000000,0.000000,4.000000,4.000000,66.666664,,,,,,,,,,,,,,,,,,,,,,,,,,,,,,,,,,,,,,,,,,,,,,,,,,,,,,,,,,,,,,,
1656266429.922730,4.000000,0.000000,4272.820313,4254.871582,4113.846191,4103.077148,4228.717773,16343.000000,4.000000,91.000000,,,,0.000000,4.000000,4.000000,0.000000,4.000000,4.000000,66.666664,,,,,,,,,,,,,,,,,,,,,,,,,,,,,,,,,,,,,,,,,,,,,,,,,,,,,,,,,,,,,,,
1656266429.930544,5.000000,0.000000,4278.461426,4256.410156,4106.153809,4104.102539,4231.794922,450.000000,4.000000,91.000000,,,,0.000000,4.000000,4.000000,0.000000,4.000000,4.000000,66.666664,,,,,,,,,,,,,,,,,,,,,,,,,,,,,,,,,,,,,,,,,,,,,,,,,,,,,,,,,,,,,,,
1656266429.938259,6.000000,0.000000,4280.000000,4246.666504,4093.846191,4105.128418,4239.487305,16178.000000,4.000000,91.000000,,,,0.000000,4.000000,4.000000,4.000000,4.000000,4.000000,100.000000,,,,,,,,,,,,,,,,,,,,,,,,,,,,,,,,,,,,,,,,,,,,,,,,,,,,,,,,,,,,,,,
1656266429.946073,7.000000,0.000000,4274.358887,4235.897461,4097.948730,4102.563965,4232.307617,450.000000,4.000000,91.000000,,,,0.000000,4.000000,4.000000,4.000000,4.000000,4.000000,100.000000,,,,,,,,,,,,,,,,,,,,,,,,,,,,,,,,,,,,,,,,,,,,,,,,,,,,,,,,,,,,,,,
1656266429.953788,8.000000,0.000000,4268.717773,4235.897461,4101.025879,4100.000000,4220.512695,450.000000,4.000000,91.000000,,,,0.000000,4.000000,4.000000,4.000000,4.000000,4.000000,100.000000,,,,,,,,,,,,,,,,,,,,,,,,,,,,,,,,,,,,,,,,,,,,,,,,,,,,,,,,,,,,,,,
1656266429.961702,9.000000,0.000000,4270.769043,4242.563965,4092.307617,4098.974121,4219.487305,16312.000000,4.000000,91.000000,,,,0.000000,4.000000,4.000000,4.000000,4.000000,2.000000,83.333336,,,,,,,,,,,,,,,,,,,,,,,,,,,,,,,,,,,,,,,,,,,,,,,,,,,,,,,,,,,,,,,
1656266429.969517,10.000000,0.000000,4276.922852,4249.230957,4089.230713,4102.563965,4216.922852,450.000000,4.000000,91.000000,,,,0.000000,4.000000,4.000000,4.000000,4.000000,2.000000,83.333336,,,,,,,,,,,,,,,,,,,,,,,,,,,,,,,,,,,,,,,,,,,,,,,,,,,,,,,,,,,,,,,
1656266429.977331,11.000000,0.000000,4278.461426,4244.102539,4092.307617,4103.077148,4210.256348,319.000000,4.000000,91.000000,,,,0.000000,4.000000,4.000000,4.000000,4.000000,2.000000,83.333336,,,,,,,,,,,,,,,,,,,,,,,,,,,,,,,,,,,,,,,,,,,,,,,,,,,,,,,,,,,,,,,
1656266429.985045,12.000000,0.000000,4277.948730,4232.307617,4093.846191,4102.051270,4213.846191,450.000000,4.000000,91.000000,,,,0.000000,4.000000,4.000000,4.000000,4.000000,2.000000,83.333336,,,,,,,,,,,,,,,,,,,,,,,,,,,,,,,,,,,,,,,4.287690,1.436805,1.184335,0.939394,0.528292,1.122430,0.887650,0.488532,0.253336,0.410239,0.995284,1.568041,0.976049,0.856706,0.540581,1.883541,0.913063,1.645614,0.429489,0.452972,3.412750,1.127763,1.007879,1.071091,0.647955
1656266429.992960,13.000000,0.000000,4283.077148,4238.974121,4100.000000,4107.692383,4225.128418,450.000000,4.000000,91.000000,,,,0.000000,4.000000,4.000000,4.000000,4.000000,2.000000,83.333336,,,,,,,,,,,,,,,,,,,,,,,,,,,,,,,,,,,,,,,,,,,,,,,,,,,,,,,,,,,,,,,
1656266430.000774,14.000000,0.000000,4291.282227,4257.948730,4105.641113,4113.846191,4234.871582,450.000000,4.000000,91.000000,,,,0.000000,4.000000,4.000000,4.000000,4.000000,2.000000,83.333336,,,,,,,,,,,,,,,,,,,,,,,,,,,,,,,,,,,,,,,,,,,,,,,,,,,,,,,,,,,,,,,
1656266430.008688,15.000000,0.000000,4289.230957,4260.000000,4098.974121,4113.333496,4235.897461,319.000000,4.000000,91.000000,,,,0.000000,4.000000,4.000000,4.000000,4.000000,2.000000,83.333336,,,,,,,,,,,,,,,,,,,,,,,,,,,,,,,,,,,,,,,,,,,,,,,,,,,,,,,,,,,,,,,
1656266430.016503,16.000000,0.000000,4288.205078,4249.743652,4096.410156,4117.948730,4237.948730,0.000000,4.000000,91.000000,,,,0.000000,4.000000,4.000000,4.000000,4.000000,2.000000,83.333336,,,,,,,,,,,,,,,,,,,,,,,,,,,,,,,,,,,,,,,,,,,,,,,,,,,,,,,,,,,,,,,
1656266430.024417,17.000000,0.000000,4304.102539,4248.717773,4104.615234,4123.589844,4255.384766,0.000000,4.000000,91.000000,,,,0.000000,4.000000,4.000000,4.000000,4.000000,2.000000,83.333336,,,,,,,,,,,,,,,,,,,,,,,,,,,,,,,,,,,,,,,,,,,,,,,,,,,,,,,,,,,,,,,
1656266430.032232,18.000000,0.000000,4311.794922,4249.743652,4105.641113,4116.922852,4264.615234,0.000000,4.000000,91.000000,,,,0.000000,4.000000,4.000000,4.000000,4.000000,2.000000,83.333336,,,,,,,,,,,,,,,,,,,,,,,,,,,,,,,,,,,,,,,,,,,,,,,,,,,,,,,,,,,,,,,
1656266430.040146,19.000000,0.000000,4297.948730,4249.230957,4095.897461,4111.282227,4251.794922,0.000000,4.000000,91.000000,,,,0.000000,4.000000,4.000000,4.000000,4.000000,2.000000,83.333336,,,,,,,,,,,,,,,,,,,,,,,,,,,,,,,,,,,,,,,,,,,,,,,,,,,,,,,,,,,,,,,
1656266430.047960,20.000000,0.000000,4283.077148,4251.794922,4092.820557,4109.743652,4236.922852,0.000000,4.000000,91.000000,,,,0.000000,4.000000,4.000000,4.000000,4.000000,2.000000,83.333336,,,,,,,,,,,,,,,,,,,,,,,,,,,,,,,,,,,,,,,,,,,,,,,,,,,,,,,,,,,,,,,
1656266430.055875,21.000000,0.000000,4282.563965,4245.641113,4101.538574,4112.307617,4228.717773,0.000000,4.000000,91.000000,,,,0.000000,4.000000,4.000000,4.000000,4.000000,2.000000,83.333336,,,,,,,,,,,,,,,,,,,,,,,,,,,,,,,,,,,,,,,,,,,,,,,,,,,,,,,,,,,,,,,
1656266430.063689,22.000000,0.000000,4286.666504,4225.128418,4104.615234,4118.974121,4229.230957,0.000000,4.000000,91.000000,,,,0.000000,4.000000,4.000000,4.000000,4.000000,2.000000,83.333336,,,,,,,,,,,,,,,,,,,,,,,,,,,,,,,,,,,,,,,,,,,,,,,,,,,,,,,,,,,,,,,
1656266430.071404,23.000000,0.000000,4288.717773,4221.538574,4096.922852,4112.820313,4233.846191,0.000000,4.000000,91.000000,,,,0.000000,4.000000,4.000000,4.000000,4.000000,2.000000,83.333336,,,,,,,,,,,,,,,,,,,,,,,,,,,,,,,,,,,,,,,,,,,,,,,,,,,,,,,,,,,,,,,
1656266430.079218,24.000000,0.000000,4289.743652,4242.051270,4094.871826,4097.436035,4233.333496,0.000000,4.000000,91.000000,,,,0.000000,4.000000,4.000000,4.000000,4.000000,2.000000,83.333336,,,,,,,,,,,,,,,,,,,,,,,,,,,,,,,,,,,,,,,,,,,,,,,,,,,,,,,,,,,,,,,
1656266430.086932,25.000000,0.000000,4292.820313,4244.102539,4096.922852,4093.846191,4235.897461,0.000000,4.000000,91.000000,,,,0.000000,4.000000,4.000000,4.000000,4.000000,2.000000,83.333336,,,,,,,,,,,,,,,,,,,,,,,,,,,,,,,,,,,,,,,,,,,,,,,,,,,,,,,,,,,,,,,
1656266430.094747,26.000000,0.000000,4301.538574,4234.358887,4093.333252,4103.077148,4252.820313,0.000000,4.000000,91.000000,,,,0.000000,4.000000,4.000000,4.000000,4.000000,2.000000,83.333336,,,,,,,,,,,,,,,,,,,,,,,,,,,,,,,,,,,,,,,,,,,,,,,,,,,,,,,,,,,,,,,
1656266430.102461,27.000000,0.000000,4306.153809,4253.333496,4096.410156,4107.692383,4260.000000,0.000000,4.000000,91.000000,,,,0.000000,4.000000,4.000000,4.000000,4.000000,2.000000,83.333336,,,,,,,,,,,,,,,,,,,,,,,,,,,,,,,,,,,,,,,,,,,,,,,,,,,,,,,,,,,,,,,
1656266430.110276,28.000000,0.000000,4294.871582,4267.692383,4107.179688,4106.666504,4246.666504,0.000000,4.000000,91.000000,,,,0.000000,4.000000,4.000000,4.000000,4.000000,2.000000,83.333336,1.000000,16.666666,0.000000,2.000000,0.000000,4.000000,2.000000,,,,,,,,,,,,,,,,,,,,,,,,,,,,,,,,4.424068,1.554699,1.556100,0.899777,0.591556,1.123337,0.922634,0.404114,0.260887,0.437661,0.967670,1.186946,0.820274,0.962179,0.616569,1.629695,0.766175,1.285397,0.385786,0.509767,3.717039,1.350240,1.103826,1.064935,0.697026
1656266430.117990,29.000000,0.000000,4281.025879,4252.307617,4107.179688,4105.128418,4235.384766,0.000000,4.000000,91.000000,,,,0.000000,4.000000,4.000000,4.000000,4.000000,2.000000,83.333336,,,,,,,,,,,,,,,,,,,,,,,,,,,,,,,,,,,,,,,,,,,,,,,,,,,,,,,,,,,,,,,
1656266430.125905,30.000000,0.000000,4277.436035,4242.051270,4098.461426,4101.538574,4233.333496,0.000000,4.000000,91.000000,,,,0.000000,4.000000,4.000000,4.000000,4.000000,2.000000,83.333336,,,,,,,,,,,,,,,,,,,,,,,,,,,,,,,,,,,,,,,,,,,,,,,,,,,,,,,,,,,,,,,
1656266430.133719,31.000000,0.000000,4281.538574,4237.948730,4101.538574,4100.000000,4235.384766,0.000000,4.000000,91.000000,,,,0.000000,4.000000,4.000000,4.000000,4.000000,2.000000,83.333336,,,,,,,,,,,,,,,,,,,,,,,,,,,,,,,,,,,,,,,,,,,,,,,,,,,,,,,,,,,,,,,
1656266430.141633,32.000000,0.000000,4278.461426,4227.692383,4103.077148,4093.846191,4234.358887,0.000000,4.000000,91.000000,,,,0.000000,4.000000,4.000000,4.000000,4.000000,2.000000,83.333336,,,,,,,,,,,,,,,,,,,,,,,,,,,,,,,,,,,,,,,,,,,,,,,,,,,,,,,,,,,,,,,
1656266430.149448,33.000000,0.000000,4269.743652,4233.333496,4091.281982,4083.076904,4226.666504,0.000000,4.000000,91.000000,,,,0.000000,4.000000,4.000000,4.000000,4.000000,2.000000,83.333336,,,,,,,,,,,,,,,,,,,,,,,,,,,,,,,,,,,,,,,,,,,,,,,,,,,,,,,,,,,,,,,
1656266430.157262,34.000000,0.000000,4277.948730,4243.077148,4093.333252,4083.076904,4222.051270,0.000000,4.000000,91.000000,,,,0.000000,4.000000,4.000000,4.000000,4.000000,2.000000,83.333336,,,,,,,,,,,,,,,,,,,,,,,,,,,,,,,,,,,,,,,,,,,,,,,,,,,,,,,,,,,,,,,
1656266430.164977,35.000000,0.000000,4287.692383,4226.666504,4092.820557,4085.128174,4224.102539,0.000000,4.000000,91.000000,,,,0.000000,4.000000,4.000000,4.000000,4.000000,2.000000,83.333336,,,,,,,,,,,,,,,,,,,,,,,,,,,,,,,,,,,,,,,,,,,,,,,,,,,,,,,,,,,,,,,
1656266430.172891,36.000000,0.000000,4271.282227,4222.563965,4077.948730,4068.205078,4229.743652,0.000000,4.000000,91.000000,,,,0.000000,4.000000,4.000000,4.000000,4.000000,2.000000,83.333336,,,,,,,,,,,,,,,,,,,,,,,,,,,,,,,,,,,,,,,,,,,,,,,,,,,,,,,,,,,,,,,
1656266430.180705,37.000000,0.000000,4267.692383,4249.230957,4092.820557,4065.641113,4240.512695,0.000000,4.000000,91.000000,,,,0.000000,4.000000,4.000000,4.000000,4.000000,2.000000,83.333336,,,,,,,,,,,,,,,,,,,,,,,,,,,,,,,,,,,,,,,,,,,,,,,,,,,,,,,,,,,,,,,
1656266430.188620,38.000000,0.000000,4275.897461,4245.641113,4103.077148,4077.948730,4232.307617,0.000000,4.000000,91.000000,,,,0.000000,4.000000,4.000000,4.000000,4.000000,2.000000,83.333336,,,,,,,,,,,,,,,,,,,,,,,,,,,,,,,,,,,,,,,,,,,,,,,,,,,,,,,,,,,,,,,
1656266430.196434,39.000000,0.000000,4257.436035,4217.436035,4074.358887,4074.358887,4207.179688,0.000000,4.000000,91.000000,,,,0.000000,4.000000,4.000000,4.000000,4.000000,2.000000,83.333336,,,,,,,,,,,,,,,,,,,,,,,,,,,,,,,,,,,,,,,,,,,,,,,,,,,,,,,,,,,,,,,
1656266430.204348,40.000000,0.000000,4251.794922,4234.358887,4066.666748,4076.923096,4209.743652,0.000000,4.000000,91.000000,,,,0.000000,4.000000,4.000000,4.000000,4.000000,2.000000,83.333336,,,,,,,,,,,,,,,,,,,,,,,,,,,,,,,,,,,,,,,,,,,,,,,,,,,,,,,,,,,,,,,
1656266430.212163,41.000000,0.000000,4272.820313,4257.948730,4087.692383,4087.179443,4224.615234,0.000000,4.000000,91.000000,,,,0.000000,4.000000,4.000000,4.000000,4.000000,2.000000,83.333336,,,,,,,,,,,,,,,,,,,,,,,,,,,,,,,,,,,,,,,,,,,,,,,,,,,,,,,,,,,,,,,
1656266430.220077,42.000000,0.000000,4282.563965,4248.205078,4099.487305,4090.256348,4226.666504,0.000000,4.000000,91.000000,,,,0.000000,4.000000,4.000000,4.000000,4.000000,2.000000,83.333336,,,,,,,,,,,,,,,,,,,,,,,,,,,,,,,,,,,,,,,,,,,,,,,,,,,,,,,,,,,,,,,
1656266430.227891,43.000000,0.000000,4273.846191,4240.000000,4098.461426,4092.820557,4227.692383,0.000000,4.000000,91.000000,,,,0.000000,4.000000,4.000000,4.000000,4.000000,2.000000,83.333336,,,,,,,,,,,,,,,,,,,,,,,,,,,,,,,,,,,,,,,,,,,,,,,,,,,,,,,,,,,,,,,
1656266430.235806,44.000000,0.000000,4264.102539,4233.846191,4100.000000,4092.820557,4226.153809,0.000000,4.000000,91.000000,,,,0.000000,4.000000,4.000000,4.000000,4.000000,2.000000,83.333336,,,,,,,,,,,,,,,,,,,,,,,,,,,,,,,,,,,,,,,4.265994,1.674025,1.898275,0.851867,0.674679,1.162954,1.025308,0.349482,0.308114,0.506331,0.935351,1.000808,0.712483,1.064399,0.742299,1.379337,0.699782,0.986952,0.379285,0.597350,3.915669,1.726611,1.285093,1.064592,0.758175
1656266430.243620,45.000000,0.000000,4266.153809,4227.692383,4102.563965,4096.410156,4224.102539,0.000000,4.000000,91.000000,,,,0.000000,4.000000,4.000000,4.000000,4.000000,2.000000,83.333336,,,,,,,,,,,,,,,,,,,,,,,,,,,,,,,,,,,,,,,,,,,,,,,,,,,,,,,,,,,,,,,
1656266430.251435,46.000000,0.000000,4266.153809,4235.384766,4098.461426,4095.384521,4222.563965,0.000000,4.000000,91.000000,,,,0.000000,4.000000,4.000000,4.000000,4.000000,2.000000,83.333336,,,,,,,,,,,,,,,,,,,,,,,,,,,,,,,,,,,,,,,,,,,,,,,,,,,,,,,,,,,,,,,
1656266430.259349,47.000000,0.000000,4251.794922,4234.871582,4092.307617,4081.025635,4211.282227,0.000000,4.000000,91.000000,,,,0.000000,4.000000,4.000000,4.000000,4.000000,2.000000,83.333336,,,,,,,,,,,,,,,,,,,,,,,,,,,,,,,,,,,,,,,,,,,,,,,,,,,,,,,,,,,,,,,
1656266430.267163,48.000000,0.000000,4241.538574,4220.512695,4088.205078,4074.871826,4205.641113,0.000000,4.000000,91.000000,,,,0.000000,4.000000,4.000000,4.000000,4.000000,2.000000,83.333336,,,,,,,,,,,,,,,,,,,,,,,,,,,,,,,,,,,,,,,,,,,,,,,,,,,,,,,,,,,,,,,
1656266430.274978,49.000000,0.000000,4255.897461,4230.256348,4093.846191,4089.230713,4216.410156,0.000000,4.000000,91.000000,,,,0.000000,4.000000,4.000000,4.000000,4.000000,2.000000,83.333336,,,,,,,,,,,,,,,,,,,,,,,,,,,,,,,,,,,,,,,,,,,,,,,,,,,,,,,,,,,,,,,
1656266430.282692,50.000000,0.000000,4273.333496,4247.692383,4102.051270,4095.897461,4214.871582,0.000000,4.000000,91.000000,,,,0.000000,4.000000,4.000000,4.000000,4.000000,2.000000,83.333336,,,,,,,,,,,,,,,,,,,,,,,,,,,,,,,,,,,,,,,,,,,,,,,,,,,,,,,,,,,,,,,
1656266430.290607,51.000000,0.000000,4259.487305,4233.846191,4098.974121,4082.564209,4195.897461,0.000000,4.000000,91.000000,,,,0.000000,4.000000,4.000000,4.000000,4.000000,2.000000,83.333336,,,,,,,,,,,,,,,,,,,,,,,,,,,,,,,,,,,,,,,,,,,,,,,,,,,,,,,,,,,,,,,
1656266430.298421,52.000000,0.000000,4238.974121,4227.692383,4096.922852,4077.948730,4192.820313,0.000000,4.000000,91.000000,,,,0.000000,4.000000,4.000000,4.000000,4.000000,2.000000,83.333336,,,,,,,,,,,,,,,,,,,,,,,,,,,,,,,,,,,,,,,,,,,,,,,,,,,,,,,,,,,,,,,
1656266430.306335,53.000000,0.000000,4250.769043,4247.179688,4112.307617,4091.794922,4216.922852,0.000000,4.000000,91.000000,,,,0.000000,4.000000,4.000000,4.000000,4.000000,2.000000,83.333336,,,,,,,,,,,,,,,,,,,,,,,,,,,,,,,,,,,,,,,,,,,,,,,,,,,,,,,,,,,,,,,
1656266430.314150,54.000000,0.000000,4269.743652,4251.794922,4124.615234,4106.666504,4231.282227,0.000000,4.000000,91.000000,,,,0.000000,4.000000,4.000000,4.000000,4.000000,2.000000,83.333336,,,,,,,,,,,,,,,,,,,,,,,,,,,,,,,,,,,,,,,,,,,,,,,,,,,,,,,,,,,,,,,
1656266430.322064,55.000000,0.000000,4266.666504,4237.948730,4117.436035,4107.692383,4221.538574,0.000000,4.000000,91.000000,,,,0.000000,4.000000,4.000000,4.000000,4.000000,2.000000,83.333336,,,,,,,,,,,,,,,,,,,,,,,,,,,,,,,,,,,,,,,,,,,,,,,,,,,,,,,,,,,,,,,
1656266430.329878,56.000000,0.000000,4262.563965,4225.641113,4102.563965,4099.487305,4214.871582,0.000000,4.000000,91.000000,,,,0.000000,4.000000,4.000000,4.000000,4.000000,2.000000,83.333336,,,,,,,,,,,,,,,,,,,,,,,,,,,,,,,,,,,,,,,,,,,,,,,,,,,,,,,,,,,,,,,
1656266430.337793,57.000000,0.000000,4271.794922,4228.717773,4092.820557,4102.563965,4224.615234,0.000000,4.000000,91.000000,,,,0.000000,4.000000,4.000000,4.000000,4.000000,2.000000,83.333336,,,,,,,,,,,,,,,,,,,,,,,,,,,,,,,,,,,,,,,,,,,,,,,,,,,,,,,,,,,,,,,
1656266430.345607,58.000000,0.000000,4271.794922,4242.051270,4089.230713,4106.666504,4226.153809,0.000000,4.000000,91.000000,,,,0.000000,4.000000,4.000000,4.000000,4.000000,2.000000,83.333336,,,,,,,,,,,,,,,,,,,,,,,,,,,,,,,,,,,,,,,,,,,,,,,,,,,,,,,,,,,,,,,
1656266430.353521,59.000000,0.000000,4261.025879,4243.077148,4093.846191,4095.384521,4217.436035,0.000000,4.000000,91.000000,,,,0.000000,4.000000,4.000000,4.000000,4.000000,2.000000,83.333336,,,,,,,,,,,,,,,,,,,,,,,,,,,,,,,,,,,,,,,,,,,,,,,,,,,,,,,,,,,,,,,
1656266430.361336,60.000000,0.000000,4261.025879,4232.307617,4097.948730,4088.718018,4220.512695,0.000000,4.000000,91.000000,,,,0.000000,4.000000,4.000000,4.000000,4.000000,2.000000,83.333336,,,,,,,,,,,,,,,,,,,,,,,,,,,,,,,,,,,,,,,3.910192,1.783436,2.128162,0.811164,0.776902,1.199284,1.201271,0.323773,0.393059,0.616127,0.904986,0.947405,0.655271,1.143014,0.924569,1.161237,0.759853,0.823175,0.401937,0.719066,3.976523,2.202041,1.492028,1.053708,0.829570
1656266430.369150,61.000000,0.000000,4262.051270,4231.794922,4087.179443,4090.256348,4218.974121,0.000000,4.000000,91.000000,,,,0.000000,4.000000,4.000000,4.000000,4.000000,2.000000,83.333336,,,,,,,,,,,,,,,,,,,,,,,,,,,,,,,,,,,,,,,,,,,,,,,,,,,,,,,,,,,,,,,
1656266430.376865,62.000000,0.000000,4254.358887,4244.102539,4085.128174,4088.205078,4210.769043,0.000000,4.000000,91.000000,,,,0.000000,4.000000,4.000000,4.000000,4.000000,2.000000,83.333336,,,,,,,,,,,,,,,,,,,,,,,,,,,,,,,,,,,,,,,,,,,,,,,,,,,,,,,,,,,,,,,
1656266430.384779,63.000000,0.000000,4254.358887,4242.563965,4106.666504,4093.333252,4210.769043,0.000000,4.000000,91.000000,,,,0.000000,4.000000,4.000000,4.000000,4.000000,2.000000,83.333336,,,,,,,,,,,,,,,,,,,,,,,,,,,,,,,,,,,,,,,,,,,,,,,,,,,,,,,,,,,,,,,
1656266430.392593,64.000000,0.000000,4257.436035,4229.743652,4113.333496,4098.461426,4205.641113,450.000000,4.000000,91.000000,,,,0.000000,4.000000,4.000000,4.000000,4.000000,2.000000,83.333336,,,,,,,,,,,,,,,,,,,,,,,,,,,,,,,,,,,,,,,,,,,,,,,,,,,,,,,,,,,,,,,
1656266430.400408,65.000000,0.000000,4258.974121,4236.410156,4102.051270,4091.794922,4204.102539,450.000000,4.000000,91.000000,,,,0.000000,4.000000,4.000000,4.000000,4.000000,2.000000,83.333336,,,,,,,,,,,,,,,,,,,,,,,,,,,,,,,,,,,,,,,,,,,,,,,,,,,,,,,,,,,,,,,
1656266430.408122,66.000000,0.000000,4263.077148,4246.666504,4099.487305,4089.743652,4219.487305,277.000000,4.000000,91.000000,,,,0.000000,2.000000,4.000000,4.000000,4.000000,2.000000,66.666664,,,,,,,,,,,,,,,,,,,,,,,,,,,,,,,,,,,,,,,,,,,,,,,,,,,,,,,,,,,,,,,
1656266430.416037,67.000000,0.000000,4266.153809,4235.897461,4102.051270,4093.846191,4222.563965,450.000000,4.000000,91.000000,,,,0.000000,2.000000,2.000000,4.000000,4.000000,2.000000,50.000000,,,,,,,,,,,,,,,,,,,,,,,,,,,,,,,,,,,,,,,,,,,,,,,,,,,,,,,,,,,,,,,
1656266430.423851,68.000000,0.000000,4265.641113,4229.230957,4095.897461,4091.281982,4210.769043,249.000000,4.000000,91.000000,,,,0.000000,2.000000,2.000000,4.000000,4.000000,2.000000,50.000000,,,,,,,,,,,,,,,,,,,,,,,,,,,,,,,,,,,,,,,,,,,,,,,,,,,,,,,,,,,,,,,
1656266430.431566,69.000000,0.000000,4273.333496,4242.563965,4093.333252,4088.205078,4221.538574,450.000000,4.000000,91.000000,,,,0.000000,2.000000,2.000000,2.000000,4.000000,2.000000,50.000000,,,,,,,,,,,,,,,,,,,,,,,,,,,,,,,,,,,,,,,,,,,,,,,,,,,,,,,,,,,,,,,
1656266430.439380,70.000000,0.000000,4284.615234,4248.205078,4096.922852,4091.281982,4244.102539,282.000000,4.000000,91.000000,,,,0.000000,2.000000,2.000000,2.000000,4.000000,2.000000,50.000000,,,,,,,,,,,,,,,,,,,,,,,,,,,,,,,,,,,,,,,,,,,,,,,,,,,,,,,,,,,,,,,
1656266430.447094,71.000000,0.000000,4283.077148,4244.102539,4088.718018,4091.794922,4242.563965,450.000000,4.000000,91.000000,,,,0.000000,2.000000,2.000000,2.000000,4.000000,2.000000,50.000000,,,,,,,,,,,,,,,,,,,,,,,,,,,,,,,,,,,,,,,,,,,,,,,,,,,,,,,,,,,,,,,
1656266430.454909,72.000000,0.000000,4278.461426,4243.077148,4080.000000,4091.281982,4230.769043,450.000000,4.000000,91.000000,,,,0.000000,2.000000,2.000000,2.000000,4.000000,2.000000,50.000000,,,,,,,,,,,,,,,,,,,,,,,,,,,,,,,,,,,,,,,,,,,,,,,,,,,,,,,,,,,,,,,
1656266430.462623,73.000000,0.000000,4284.102539,4252.820313,4089.743652,4101.538574,4240.512695,216.000000,4.000000,91.000000,,,,0.000000,2.000000,2.000000,2.000000,2.000000,2.000000,50.000000,,,,,,,,,,,,,,,,,,,,,,,,,,,,,,,,,,,,,,,,,,,,,,,,,,,,,,,,,,,,,,,
1656266430.470538,74.000000,0.000000,4291.282227,4261.538574,4093.333252,4106.666504,4255.384766,450.000000,4.000000,91.000000,,,,0.000000,2.000000,2.000000,2.000000,2.000000,0.000000,33.333332,,,,,,,,,,,,,,,,,,,,,,,,,,,,,,,,,,,,,,,,,,,,,,,,,,,,,,,,,,,,,,,
1656266430.478352,75.000000,0.000000,4294.358887,4252.307617,4086.666748,4097.436035,4247.179688,0.000000,4.000000,91.000000,,,,0.000000,2.000000,2.000000,2.000000,2.000000,0.000000,33.333332,,,,,,,,,,,,,,,,,,,,,,,,,,,,,,,,,,,,,,,,,,,,,,,,,,,,,,,,,,,,,,,
1656266430.486266,76.000000,0.000000,4296.410156,4251.794922,4100.000000,4096.922852,4238.974121,450.000000,4.000000,91.000000,,,,0.000000,2.000000,2.000000,2.000000,2.000000,0.000000,33.333332,,,,,,,,,,,,,,,,,,,,,,,,,,,,,,,,,,,,,,,3.480650,1.855291,2.193518,0.784172,0.885027,1.181785,1.439231,0.319179,0.505153,0.753050,0.873823,0.936386,0.640543,1.175310,1.133379,0.988820,0.953163,0.807982,0.438002,0.853463,3.915966,2.683469,1.666015,1.023773,0.898841
1656266430.494081,77.000000,0.000000,4294.358887,4260.512695,4107.179688,4104.615234,4245.128418,450.000000,4.000000,91.000000,,,,0.000000,2.000000,2.000000,2.000000,2.000000,0.000000,33.333332,,,,,,,,,,,,,,,,,,,,,,,,,,,,,,,,,,,,,,,,,,,,,,,,,,,,,,,,,,,,,,,
1656266430.501995,78.000000,0.000000,4290.769043,4255.384766,4087.179443,4101.025879,4250.256348,450.000000,4.000000,91.000000,,,,0.000000,2.000000,2.000000,2.000000,2.000000,0.000000,33.333332,,,,,,,,,,,,,,,,,,,,,,,,,,,,,,,,,,,,,,,,,,,,,,,,,,,,,,,,,,,,,,,
1656266430.509810,79.000000,0.000000,4289.230957,4251.282227,4087.692383,4095.897461,4249.230957,0.000000,4.000000,91.000000,,,,0.000000,2.000000,2.000000,2.000000,2.000000,0.000000,33.333332,,,,,,,,,,,,,,,,,,,,,,,,,,,,,,,,,,,,,,,,,,,,,,,,,,,,,,,,,,,,,,,
1656266430.517624,80.000000,0.000000,4294.871582,4254.358887,4112.820313,4107.179688,4245.641113,450.000000,4.000000,91.000000,,,,0.000000,2.000000,2.000000,2.000000,2.000000,0.000000,33.333332,,,,,,,,,,,,,,,,,,,,,,,,,,,,,,,,,,,,,,,,,,,,,,,,,,,,,,,,,,,,,,,
1656266430.525338,81.000000,0.000000,4318.461426,4264.102539,4112.820313,4121.538574,4254.871582,450.000000,4.000000,91.000000,,,,0.000000,2.000000,2.000000,2.000000,2.000000,0.000000,33.333332,,,,,,,,,,,,,,,,,,,,,,,,,,,,,,,,,,,,,,,,,,,,,,,,,,,,,,,,,,,,,,,
1656266430.533253,82.000000,0.000000,4325.128418,4269.230957,4097.436035,4112.307617,4266.153809,450.000000,4.000000,91.000000,,,,0.000000,2.000000,2.000000,2.000000,2.000000,0.000000,33.333332,,,,,,,,,,,,,,,,,,,,,,,,,,,,,,,,,,,,,,,,,,,,,,,,,,,,,,,,,,,,,,,
1656266430.541067,83.000000,0.000000,4307.179688,4248.717773,4104.102539,4095.384521,4264.102539,0.000000,4.000000,91.000000,,,,0.000000,2.000000,2.000000,2.000000,2.000000,0.000000,33.333332,,,,,,,,,,,,,,,,,,,,,,,,,,,,,,,,,,,,,,,,,,,,,,,,,,,,,,,,,,,,,,,
1656266430.548882,84.000000,0.000000,4298.974121,4231.794922,4109.230957,4092.820557,4258.974121,450.000000,4.000000,91.000000,,,,0.000000,2.000000,2.000000,2.000000,2.000000,0.000000,33.333332,,,,,,,,,,,,,,,,,,,,,,,,,,,,,,,,,,,,,,,,,,,,,,,,,,,,,,,,,,,,,,,
1656266430.556596,85.000000,0.000000,4291.794922,4244.615234,4092.307617,4087.179443,4251.282227,450.000000,4.000000,91.000000,,,,0.000000,2.000000,2.000000,2.000000,2.000000,0.000000,33.333332,,,,,,,,,,,,,,,,,,,,,,,,,,,,,,,,,,,,,,,,,,,,,,,,,,,,,,,,,,,,,,,
